File: Figure_codes/Fig_3-5/workspace_calculate_alpha_eff/20221101_1-115_003_TrumpetPlot_ParaChange_from10_every3_16_CV_C01_72.csv
mode,ox/red,error,control changes,counter inc.,time/s,control/V,Ewe/V,<I>/mA,cycle number,(Q-Qo)/C,I Range,P/W,log(|I|),Tafel slope mV/dec,alpha_eff,E-IR/V,
2,0,0,1,0,48513.2,2.44065e-05,-0.000325324,-0.0453313,73,0.0000000E+000,10,1.47473e-08,-4.3436, , ,-0.000305378,
2,1,0,1,0,48517,0.0187763,0.0184645,0.26216,73,0.000877626,10,4.84066e-06,-3.58143,0.168379,0.350401,0.0183492,
2,1,0,0,0,48520.8,0.0377538,0.0374071,0.326079,73,0.00205085,10,1.21977e-05,-3.48668,0.220645,0.267398,0.0372636,
2,1,0,1,0,48524.6,0.0567309,0.0563767,0.384589,73,0.00346065,10,2.16819e-05,-3.415,0.345394,0.170819,0.0562075,
2,1,0,0,0,48528.4,0.075708,0.0753898,0.428496,73,0.0050655,10,3.23042e-05,-3.36805,0.509344,0.115835,0.0752013,
2,1,0,1,0,48532.2,0.094685,0.0943478,0.4786,73,0.00682331,10,4.51548e-05,-3.32003,0.288527,0.204487,0.0941372,
2,1,0,0,0,48536,0.113662,0.113306,0.571549,73,0.00886902,10,6.47597e-05,-3.24295,0.349055,0.169028,0.113054,
2,1,0,1,0,48539.8,0.132639,0.132317,0.60519,73,0.0111747,10,8.00767e-05,-3.21811,-0.507015,-0.116367,0.13205,
2,1,0,1,0,48543.6,0.151617,0.151273,0.405219,73,0.0132047,10,6.12987e-05,-3.39231,-0.0880118,-0.670365,0.151095,
2,1,0,1,0,48547.4,0.170594,0.170253,0.320116,73,0.0145796,10,5.45007e-05,-3.49469,-0.363741,-0.162203,0.170112,
2,1,0,1,0,48551.2,0.189571,0.189264,0.301925,73,0.0158002,10,5.71435e-05,-3.5201,-1.30828,-0.0450973,0.189131,
2,1,0,1,0,48555,0.208547,0.208219,0.295663,73,0.0169761,10,6.15628e-05,-3.5292,-1.17721,-0.0501186,0.208089,
2,1,0,1,0,48558.7,0.227524,0.227232,0.288545,73,0.0181268,10,6.55668e-05,-3.53979,-3.60662,-0.0163588,0.227105,
2,1,0,1,0,48562.5,0.246501,0.246183,0.284475,73,0.0192605,10,7.00328e-05,-3.54596,-0.921618,-0.0640178,0.246058,
2,1,0,1,0,48566.3,0.265479,0.265164,0.280523,73,0.0203793,10,7.43847e-05,-3.55203,-2.94262,-0.0200502,0.265041,
2,1,0,0,0,48570.1,0.284456,0.284156,0.277415,73,0.0214815,10,7.88292e-05,-3.55687,-5.23963,-0.0112603,0.284034,
2,1,0,1,0,48573.9,0.303433,0.303106,0.271806,73,0.0225673,10,8.23858e-05,-3.56574,-2.53139,-0.0233074,0.302986,
2,1,0,0,0,48577.7,0.32241,0.322074,0.269706,73,0.0236384,10,8.68654e-05,-3.56911,5.7621,0.0102393,0.321956,
2,1,0,1,0,48581.5,0.341387,0.341067,0.266117,73,0.0246974,10,9.07637e-05,-3.57493,-1.95114,-0.0302388,0.34095,
2,1,0,0,0,48585.3,0.360364,0.360028,0.264596,73,0.025744,10,9.5262e-05,-3.57742,-50.9815,-0.00115728,0.359912,
2,1,0,1,0,48589.1,0.379342,0.379008,0.26126,73,0.0267799,10,9.90197e-05,-3.58293,-3.21311,-0.0183623,0.378893,
2,1,0,1,0,48592.9,0.398319,0.397993,0.258567,73,0.0278065,10,0.000102908,-3.58743,-21.2703,-0.00277382,0.39788,
2,1,0,1,0,48596.7,0.417295,0.416998,0.257024,73,0.0288251,10,0.000107178,-3.59003,7.00796,0.00841899,0.416885,
2,1,0,1,0,48600.5,0.436272,0.435983,0.25701,73,0.0298375,10,0.000112052,-3.59005,5.55534,0.0106204,0.43587,
2,1,0,1,0,48604.3,0.455249,0.454945,0.256521,73,0.0308461,10,0.000116703,-3.59088,1.05729,0.0558033,0.454832,
2,1,0,1,0,48608.1,0.474226,0.47387,0.257265,73,0.0318552,10,0.00012191,-3.58962,1.87118,0.031531,0.473757,
2,1,0,1,0,48611.9,0.493203,0.492864,0.259414,73,0.0328679,10,0.000127856,-3.58601,2.75667,0.0214026,0.49275,
2,1,0,1,0,48615.7,0.512181,0.511856,0.262515,73,0.0338889,10,0.00013437,-3.58085,3.23725,0.0182254,0.511741,
2,1,0,0,0,48619.5,0.531158,0.530825,0.267833,73,0.0349263,10,0.000142173,-3.57214,2.18651,0.0269837,0.530707,
2,1,0,1,0,48623.3,0.550135,0.549831,0.276345,73,0.0359885,10,0.000151943,-3.55855,1.04733,0.0563339,0.549709,
2,1,0,0,0,48627.1,0.569112,0.568738,0.287926,73,0.0370879,10,0.000163754,-3.54072,0.827694,0.0712824,0.568611,
2,1,0,1,0,48630.9,0.588089,0.587761,0.307354,73,0.0382448,10,0.000180651,-3.51236,0.558266,0.105684,0.587626,
2,1,0,0,0,48634.7,0.607066,0.606755,0.340062,73,0.039497,10,0.000206334,-3.46844,0.341031,0.173005,0.606606,
2,1,0,1,0,48638.5,0.626044,0.625748,0.402723,73,0.0409224,10,0.000252003,-3.39499,0.202128,0.291895,0.62557,
2,1,0,1,0,48642.2,0.64502,0.64468,0.52763,73,0.0426895,10,0.000340153,-3.27767,0.135507,0.435402,0.644448,
2,1,0,1,0,48646,0.663997,0.663723,0.783322,73,0.0451483,10,0.000519909,-3.10606,0.0948695,0.621907,0.663379,
2,1,0,1,0,48649.8,0.682974,0.682687,1.27602,73,0.0489913,10,0.000871123,-2.89414,0.0837143,0.704778,0.682125,
2,1,0,1,0,48653.6,0.701951,0.701672,2.10828,73,0.0553211,10,0.00147932,-2.67607,0.0875677,0.673765,0.700745,
2,1,0,1,0,48657.4,0.720928,0.720616,3.33589,73,0.0655553,10,0.0024039,-2.47679,0.0979358,0.602435,0.719149,
2,1,0,1,0,48661.2,0.739905,0.73962,4.97713,73,0.0812258,10,0.00368118,-2.30302,0.11246,0.524629,0.73743,
2,1,0,1,0,48665,0.758883,0.758578,7.07142,73,0.103967,10,0.00536422,-2.15049,0.123703,0.476948,0.755466,
2,1,0,0,0,48668.8,0.77786,0.777581,9.71435,73,0.135655,10,0.0075537,-2.01259,0.133241,0.442808,0.773307,
2,1,0,1,0,48672.6,0.796837,0.796531,13.1719,73,0.178786,10,0.0104919,-1.88035,0.131839,0.447517,0.790735,
2,1,0,0,0,48676.4,0.815814,0.815513,17.7212,73,0.23707,10,0.0144518,-1.75151,0.133985,0.440349,0.807716,
2,1,0,1,0,48680.2,0.834791,0.834489,23.2549,73,0.314607,10,0.019406,-1.63349,0.148019,0.398598,0.824257,
2,1,0,1,0,48683.9,0.846726,0.846424,26.4503,73,0.410457,10,0.0223882,-1.57757,0.109005,0.541261,0.834786,
2,1,0,1,0,48687.7,0.827749,0.827462,19.6516,73,0.497233,10,0.0162609,-1.7066,0.126772,0.465401,0.818815,
2,1,0,1,0,48691.5,0.808772,0.808483,14.3815,73,0.561405,10,0.0116272,-1.8422,0.118864,0.496365,0.802155,
2,1,0,1,0,48695.3,0.789795,0.78948,10.3304,73,0.607928,10,0.00815565,-1.98588,0.116154,0.507945,0.784935,
2,1,0,1,0,48699.1,0.770818,0.770526,7.26771,73,0.641013,10,0.00559996,-2.1386,0.112798,0.523058,0.767328,
2,1,0,1,0,48702.9,0.751841,0.751532,4.98315,73,0.664028,10,0.003745,-2.3025,0.105808,0.557612,0.749339,
2,1,0,1,0,48706.7,0.732865,0.732547,3.27046,73,0.679504,10,0.00239576,-2.48539,0.0933742,0.631867,0.731108,
2,1,0,1,0,48710.5,0.713887,0.713578,2.00559,73,0.689352,10,0.00143114,-2.69776,0.0803138,0.734619,0.712696,
2,1,0,0,0,48714.3,0.69491,0.694637,1.11183,73,0.69513,10,0.000772322,-2.95396,0.0657093,0.897894,0.694148,
2,1,0,1,0,48718.1,0.675933,0.675606,0.534189,73,0.698132,10,0.000360902,-3.2723,0.0535999,1.10075,0.675371,
2,1,0,0,0,48721.9,0.656956,0.65666,0.204687,73,0.699436,10,0.00013441,-3.68891,0.0383841,1.5371,0.65657,
2,1,0,1,0,48725.6,0.637979,0.63762,0.0403298,73,0.699829,10,2.57151e-05,-4.39437,0.015636,3.77333,0.637602,
2,0,0,0,0,48729.4,0.619002,0.618693,-0.033921,73,0.699792,10,-2.09867e-05,-4.46953,-0.0326821,-1.80527,0.618708,
2,0,0,1,0,48733.2,0.600024,0.599689,-0.066135,73,0.699565,10,-3.96604e-05,-4.17957,-0.131676,-0.448069,0.599718,
2,0,0,1,0,48737,0.581047,0.580724,-0.0817547,73,0.69925,10,-4.74769e-05,-4.08749,-0.35945,-0.16414,0.58076,
2,0,0,1,0,48740.8,0.56207,0.561694,-0.0905056,73,0.698891,10,-5.08365e-05,-4.04332,-0.541885,-0.108879,0.561734,
2,0,0,1,0,48744.6,0.543093,0.542749,-0.0968441,73,0.698504,10,-5.2562e-05,-4.01393,-0.418893,-0.140847,0.542791,
2,0,0,1,0,48748.4,0.524116,0.523794,-0.101673,73,0.698096,10,-5.32556e-05,-3.9928,-3.33548,-0.0176886,0.523839,
2,0,0,1,0,48752.2,0.505139,0.504845,-0.106384,73,0.697669,10,-5.37077e-05,-3.97312,-0.628332,-0.0938994,0.504892,
2,0,0,1,0,48756,0.486162,0.485841,-0.111604,73,0.697222,10,-5.42216e-05,-3.95232,-1.09711,-0.0537776,0.48589,
2,0,0,1,0,48759.8,0.467185,0.466826,-0.118529,73,0.696751,10,-5.53325e-05,-3.92618,-0.848792,-0.0695106,0.466879,
2,0,0,0,0,48763.6,0.448208,0.447876,-0.126397,73,0.696252,10,-5.66103e-05,-3.89826,46.6814,0.00126389,0.447931,
2,0,0,1,0,48767.4,0.429231,0.428911,-0.135418,73,0.695722,10,-5.80824e-05,-3.86832,-1.51371,-0.0389772,0.428971,
2,0,0,0,0,48771.2,0.410254,0.409934,-0.144225,73,0.695158,10,-5.9123e-05,-3.84096,-1.0503,-0.0561742,0.409998,
2,0,0,1,0,48775,0.391277,0.390968,-0.153214,73,0.694557,10,-5.99017e-05,-3.8147,-0.530717,-0.11117,0.391035,
2,0,0,0,0,48778.8,0.3723,0.371987,-0.163615,73,0.693918,10,-6.08625e-05,-3.78618,-0.54914,-0.107441,0.372059,
2,0,0,1,0,48782.6,0.353322,0.352967,-0.173431,73,0.693238,10,-6.12154e-05,-3.76087,-0.590445,-0.0999247,0.353043,
2,0,0,1,0,48786.4,0.334345,0.334007,-0.185858,73,0.692516,10,-6.20777e-05,-3.73082,-0.913271,-0.0646029,0.334088,
2,0,0,1,0,48790.2,0.315368,0.315046,-0.196298,73,0.69175,10,-6.18429e-05,-3.70708,-0.581709,-0.101425,0.315132,
2,0,0,1,0,48794,0.296391,0.296066,-0.208681,73,0.690938,10,-6.17834e-05,-3.68052,-0.896198,-0.0658337,0.296158,
2,0,0,1,0,48797.8,0.277414,0.277075,-0.220994,73,0.690078,10,-6.1232e-05,-3.65562,-0.638779,-0.0923637,0.277172,
2,0,0,1,0,48801.6,0.258437,0.25814,-0.233458,73,0.689169,10,-6.02649e-05,-3.63179,-0.5524,-0.106807,0.258243,
2,0,0,1,0,48805.4,0.239461,0.239115,-0.245795,73,0.688214,10,-5.87733e-05,-3.60943,-0.648404,-0.0909927,0.239223,
2,0,0,1,0,48809.1,0.220483,0.220204,-0.257447,73,0.687215,10,-5.66908e-05,-3.58931,-0.506787,-0.11642,0.220317,
2,0,0,0,0,48812.9,0.201506,0.201184,-0.270222,73,0.686168,10,-5.43642e-05,-3.56828,-0.444152,-0.132837,0.201303,
2,0,0,1,0,48816.7,0.182529,0.182218,-0.290101,73,0.68506,10,-5.28616e-05,-3.53745,-0.454131,-0.129918,0.182346,
2,0,0,0,0,48820.5,0.163552,0.163221,-0.32025,73,0.683862,10,-5.22716e-05,-3.49451,-0.346401,-0.170323,0.163362,
2,0,0,1,0,48824.3,0.144575,0.14422,-0.409315,73,0.682462,10,-5.90313e-05,-3.38794,-0.115825,-0.509388,0.1444,
2,0,0,0,0,48828.1,0.125598,0.125233,-0.613771,73,0.680473,10,-7.68645e-05,-3.21199,-0.158295,-0.372722,0.125503,
2,0,0,1,0,48831.9,0.10662,0.106305,-0.671976,73,0.677923,10,-7.14341e-05,-3.17265,75.9355,0.000776975,0.1066,
2,0,0,1,0,48835.7,0.0876433,0.087245,-0.649164,73,0.675353,10,-5.66363e-05,-3.18765,0.674298,0.0874984,0.0875307,
2,0,0,1,0,48839.5,0.0686664,0.0683529,-0.609735,73,0.672913,10,-4.16771e-05,-3.21486,0.672116,0.0877825,0.0686211,
2,0,0,1,0,48843.3,0.0496895,0.0493664,-0.568559,73,0.670619,10,-2.80677e-05,-3.24522,0.517,0.11412,0.0496166,
2,0,0,1,0,48847.1,0.0307126,0.0303821,-0.522533,73,0.668494,10,-1.58757e-05,-3.28189,0.66414,0.0888367,0.030612,
2,0,0,1,0,48850.9,0.0117356,0.0114137,-0.492827,73,0.66652,10,-5.62499e-06,-3.30731,1.50714,0.039147,0.0116306,
2,0,0,1,0,48853.2,0.000274105,-9.26968e-05,-0.495211,73,0.665357,10,4.59045e-08,-3.30521, , ,0.000125196,