File: Figure_codes/Fig_3-5/workspace_calculate_alpha_eff/20221101_1-115_003_TrumpetPlot_ParaChange_from10_every3_16_CV_C01_43.csv
mode,ox/red,error,control changes,counter inc.,time/s,control/V,Ewe/V,<I>/mA,cycle number,(Q-Qo)/C,I Range,P/W,log(|I|),Tafel slope mV/dec,alpha_eff,E-IR/V,
2,0,0,0,0,29181.9,2.44065e-05,-0.000382585,-0.0866734,44,0.0000000E+000,10,3.316e-08,-4.06211, , ,-0.000344449,
2,1,0,1,0,29185.7,0.0187763,0.0184063,0.222999,44,0.000729425,10,4.10461e-06,-3.6517,0.151281,0.390002,0.0183082,
2,1,0,1,0,29189.5,0.0377538,0.0374135,0.290047,44,0.0017631,10,1.08517e-05,-3.53753,0.191382,0.308283,0.0372859,
2,1,0,0,0,29193.3,0.0567309,0.0563979,0.35138,44,0.00304844,10,1.98171e-05,-3.45422,0.273014,0.216106,0.0562433,
2,1,0,1,0,29197.1,0.075708,0.0753898,0.399839,44,0.00454411,10,3.01438e-05,-3.39811,0.446862,0.132032,0.0752139,
2,1,0,0,0,29200.9,0.0946851,0.0943605,0.456561,44,0.00621175,10,4.30813e-05,-3.3405,0.229098,0.257532,0.0941596,
2,1,0,1,0,29204.7,0.113662,0.113365,0.555769,44,0.00819126,10,6.30048e-05,-3.25511,0.32558,0.181215,0.113121,
2,1,0,0,0,29208.5,0.132639,0.132319,0.606462,44,0.0104737,10,8.02463e-05,-3.2172,-1.30552,-0.0451927,0.132052,
2,1,0,1,0,29212.3,0.151617,0.151318,0.405679,44,0.0125332,10,6.13867e-05,-3.39182,-0.0772109,-0.764141,0.15114,
2,1,0,1,0,29216.1,0.170594,0.170258,0.296925,44,0.0138623,10,5.0554e-05,-3.52735,-0.288297,-0.20465,0.170128,
2,1,0,1,0,29219.9,0.189571,0.189262,0.272669,44,0.0149903,10,5.16058e-05,-3.56436,-0.804959,-0.0732957,0.189142,
2,1,0,1,0,29223.6,0.208547,0.208241,0.261525,44,0.0160552,10,5.44602e-05,-3.58249,-1.20694,-0.0488838,0.208126,
2,1,0,1,0,29227.4,0.227524,0.227204,0.253568,44,0.017084,10,5.76115e-05,-3.59591,-0.762404,-0.0773868,0.227092,
2,1,0,1,0,29231.2,0.246501,0.24623,0.248048,44,0.0180881,10,6.10768e-05,-3.60546,-1.19449,-0.0493933,0.24612,
2,1,0,0,0,29235,0.265479,0.265177,0.244019,44,0.0190748,10,6.47083e-05,-3.61258,-1.37608,-0.0428755,0.26507,
2,1,0,1,0,29238.8,0.284456,0.284174,0.24067,44,0.0200445,10,6.83921e-05,-3.61858,-1.5782,-0.0373843,0.284068,
2,1,0,0,0,29242.6,0.303433,0.303126,0.235705,44,0.0209966,10,7.14483e-05,-3.62763,12.8445,0.0045934,0.303022,
2,1,0,1,0,29246.4,0.32241,0.322155,0.232021,44,0.021933,10,7.47468e-05,-3.63447,-4.21871,-0.0139853,0.322053,
2,1,0,0,0,29250.2,0.341387,0.341103,0.229959,44,0.022857,10,7.84396e-05,-3.63835,-4.00485,-0.0147321,0.341002,
2,1,0,1,0,29254,0.360364,0.360065,0.228408,44,0.0237706,10,8.22419e-05,-3.64129,62.1199,0.000949776,0.359965,
2,1,0,1,0,29257.8,0.379342,0.379016,0.225393,44,0.0246749,10,8.54275e-05,-3.64706,-3.1178,-0.0189236,0.378916,
2,1,0,1,0,29261.6,0.398319,0.398026,0.223798,44,0.0255716,10,8.90774e-05,-3.65014,5.7515,0.0102582,0.397928,
2,1,0,1,0,29265.4,0.417295,0.417031,0.221987,44,0.0264622,10,9.25754e-05,-3.65367,3.49027,0.0169041,0.416933,
2,1,0,1,0,29269.2,0.436272,0.435997,0.222293,44,0.0273492,10,9.69193e-05,-3.65307,3.03788,0.0194214,0.435899,
2,1,0,1,0,29273,0.455249,0.45495,0.223011,44,0.0282351,10,0.000101459,-3.65167,1.51441,0.0389591,0.454852,
2,1,0,1,0,29276.8,0.474226,0.473911,0.223735,44,0.0291236,10,0.00010603,-3.65027,1.34427,0.04389,0.473812,
2,1,0,1,0,29280.6,0.493203,0.492889,0.227101,44,0.0300198,10,0.000111936,-3.64378,0.865694,0.0681535,0.492789,
2,1,0,0,0,29284.4,0.512181,0.511904,0.231094,44,0.0309293,10,0.000118298,-3.63621,1.21025,0.0487501,0.511802,
2,1,0,1,0,29288.2,0.531158,0.530873,0.236494,44,0.0318587,10,0.000125548,-3.62618,1.19991,0.0491705,0.530769,
2,1,0,0,0,29292,0.550135,0.549821,0.247127,44,0.0328161,10,0.000135876,-3.60708,0.808752,0.0729519,0.549712,
2,1,0,1,0,29295.8,0.569112,0.568809,0.260528,44,0.0338173,10,0.00014819,-3.58415,0.619759,0.0951982,0.568694,
2,1,0,0,0,29299.6,0.588089,0.587795,0.283148,44,0.034885,10,0.000166433,-3.54799,0.499243,0.118179,0.587671,
2,1,0,1,0,29303.4,0.607066,0.60681,0.32243,44,0.036065,10,0.000195654,-3.49157,0.259072,0.227736,0.606669,
2,1,0,1,0,29307.1,0.626044,0.625794,0.3968,44,0.0374499,10,0.000248315,-3.40143,0.16885,0.349422,0.62562,
2,1,0,1,0,29310.9,0.64502,0.644772,0.551097,44,0.0392512,10,0.000355332,-3.25877,0.114094,0.517118,0.64453,
2,1,0,1,0,29314.7,0.663997,0.663706,0.875209,44,0.0419217,10,0.000580881,-3.05789,0.0812188,0.726432,0.663321,
2,1,0,1,0,29318.5,0.682974,0.682631,1.51413,44,0.046369,10,0.00103359,-2.81984,0.0767497,0.768732,0.681964,
2,1,0,1,0,29322.3,0.701951,0.701668,2.61309,44,0.0540775,10,0.00183352,-2.58285,0.080669,0.731384,0.700518,
2,1,0,1,0,29326.1,0.720928,0.720653,4.24291,44,0.0669569,10,0.00305767,-2.37234,0.0928565,0.635389,0.718786,
2,1,0,1,0,29329.9,0.739905,0.739638,6.40601,44,0.0870353,10,0.00473813,-2.19341,0.108256,0.545004,0.736819,
2,1,0,0,0,29333.7,0.758883,0.758633,9.12359,44,0.116359,10,0.00692146,-2.03983,0.122966,0.479807,0.754619,
2,1,0,1,0,29337.5,0.77786,0.777596,12.5735,44,0.157282,10,0.00977711,-1.90054,0.12641,0.466734,0.772064,
2,1,0,0,0,29341.3,0.796837,0.796582,17.2145,44,0.213399,10,0.0137128,-1.76411,0.127134,0.464076,0.789007,
2,1,0,1,0,29345.1,0.815814,0.815515,23.1131,44,0.28963,10,0.0188491,-1.63614,0.136546,0.432089,0.805346,
2,1,0,0,0,29348.9,0.834791,0.834519,29.8207,44,0.389904,10,0.0248859,-1.52548,0.158682,0.371813,0.821398,
2,1,0,0,0,29352.6,0.846727,0.846472,33.2621,44,0.511344,10,0.0281554,-1.47805,0.120426,0.489927,0.831837,
2,1,0,1,0,29356.4,0.827749,0.827545,25.3974,44,0.621992,10,0.0210175,-1.59521,0.135952,0.433976,0.816371,
2,1,0,1,0,29360.2,0.808772,0.808531,18.9607,44,0.705789,10,0.0153303,-1.72215,0.122297,0.482432,0.800188,
2,1,0,1,0,29364,0.789795,0.78956,13.4922,44,0.76676,10,0.0106529,-1.86992,0.116717,0.505498,0.783623,
2,1,0,1,0,29367.8,0.770818,0.770555,9.50267,44,0.810023,10,0.00732233,-2.02215,0.108031,0.546138,0.766374,
2,1,0,1,0,29371.6,0.751841,0.751545,6.46284,44,0.840016,10,0.00485712,-2.18958,0.100304,0.588212,0.748701,
2,1,0,1,0,29375.4,0.732865,0.732593,4.19215,44,0.859981,10,0.00307114,-2.37756,0.0906685,0.650722,0.730749,
2,1,0,0,0,29379.2,0.713887,0.713612,2.52555,44,0.872515,10,0.00180226,-2.59764,0.0751102,0.785512,0.712501,
2,1,0,1,0,29383,0.69491,0.694643,1.37296,44,0.879728,10,0.000953716,-2.86234,0.0640591,0.921025,0.694039,
2,1,0,0,0,29386.8,0.675933,0.675674,0.645564,44,0.8834,10,0.000436191,-3.19006,0.050574,1.16661,0.67539,
2,1,0,1,0,29390.5,0.656956,0.656691,0.2412,44,0.88496,10,0.000158394,-3.61762,0.0364126,1.62032,0.656585,
2,1,0,0,0,29394.3,0.637979,0.637716,0.0437941,44,0.885415,10,2.79282e-05,-4.35858,0.0141532,4.16866,0.637697,
2,0,0,1,0,29398.1,0.619002,0.618718,-0.0421659,44,0.885356,10,-2.60888e-05,-4.37504,-0.0320779,-1.83927,0.618736,
2,0,0,0,0,29401.9,0.600025,0.599769,-0.0805744,44,0.885075,10,-4.83261e-05,-4.0938,-0.124722,-0.47305,0.599805,
2,0,0,1,0,29405.7,0.581047,0.58074,-0.0983733,44,0.884694,10,-5.71293e-05,-4.00712,-0.358,-0.164805,0.580783,
2,0,0,1,0,29409.5,0.56207,0.561769,-0.107811,44,0.884265,10,-6.05647e-05,-3.96734,-0.570768,-0.10337,0.561816,
2,0,0,1,0,29413.3,0.543093,0.542808,-0.112995,44,0.883808,10,-6.13346e-05,-3.94694,-1.06204,-0.0555532,0.542858,
2,0,0,1,0,29417.1,0.524116,0.523778,-0.118093,44,0.883331,10,-6.18544e-05,-3.92778,-1.17048,-0.0504065,0.52383,
2,0,0,1,0,29420.9,0.505139,0.504828,-0.122065,44,0.882837,10,-6.16216e-05,-3.91341,-1.95989,-0.0301037,0.504882,
2,0,0,1,0,29424.7,0.486162,0.485849,-0.127696,44,0.882323,10,-6.20409e-05,-3.89382,-1.61582,-0.036514,0.485906,
2,0,0,1,0,29428.5,0.467185,0.466838,-0.133606,44,0.881788,10,-6.23722e-05,-3.87418,-1.56883,-0.0376076,0.466897,
2,0,0,1,0,29432.3,0.448208,0.44786,-0.140941,44,0.881227,10,-6.31217e-05,-3.85096,-3.69995,-0.0159462,0.447922,
2,0,0,0,0,29436.1,0.429231,0.428956,-0.148052,44,0.880637,10,-6.35078e-05,-3.82959,-1.24694,-0.047316,0.429021,
2,0,0,1,0,29439.9,0.410254,0.409907,-0.157606,44,0.880015,10,-6.46036e-05,-3.80243,-1.2712,-0.0464128,0.409976,
2,0,0,0,0,29443.7,0.391277,0.390965,-0.16714,44,0.879358,10,-6.53459e-05,-3.77692,-1.01644,-0.0580456,0.391038,
2,0,0,1,0,29447.5,0.3723,0.372016,-0.176296,44,0.878663,10,-6.5585e-05,-3.75376,-0.758698,-0.0777648,0.372094,
2,0,0,1,0,29451.3,0.353322,0.352966,-0.186462,44,0.877927,10,-6.58146e-05,-3.72941,-0.96623,-0.0610621,0.353048,
2,0,0,1,0,29455.1,0.334345,0.334022,-0.198981,44,0.87715,10,-6.64641e-05,-3.70119,-1.04413,-0.0565065,0.33411,
2,0,0,1,0,29458.9,0.315368,0.315021,-0.209119,44,0.876328,10,-6.5877e-05,-3.67961,-0.811913,-0.0726679,0.315114,
2,0,0,1,0,29462.7,0.296391,0.296032,-0.222499,44,0.875462,10,-6.58668e-05,-3.65267,-0.633391,-0.0931494,0.29613,
2,0,0,1,0,29466.5,0.277414,0.277059,-0.234304,44,0.874549,10,-6.49162e-05,-3.63022,-0.963932,-0.0612076,0.277162,
2,0,0,1,0,29470.3,0.258437,0.258147,-0.246359,44,0.87359,10,-6.35968e-05,-3.60843,-0.800837,-0.073673,0.258255,
2,0,0,1,0,29474,0.239461,0.23912,-0.258026,44,0.872584,10,-6.16993e-05,-3.58834,-0.845615,-0.0697717,0.239234,
2,0,0,0,0,29477.8,0.220483,0.220142,-0.269525,44,0.871535,10,-5.93337e-05,-3.5694,-0.0925331,-0.637609,0.22026,
2,0,0,1,0,29481.6,0.201506,0.201188,-0.283303,44,0.870425,10,-5.69972e-05,-3.54775,-0.566656,-0.10412,0.201313,
2,0,0,0,0,29485.4,0.182529,0.182247,-0.303394,44,0.86926,10,-5.52926e-05,-3.51799,-0.405636,-0.145451,0.18238,
2,0,0,1,0,29489.2,0.163552,0.163203,-0.340165,44,0.867994,10,-5.55159e-05,-3.46831,-0.248178,-0.237733,0.163353,
2,0,0,0,0,29493,0.144575,0.144232,-0.451907,44,0.866478,10,-6.51797e-05,-3.34495,-0.0945615,-0.623933,0.144431,
2,0,0,1,0,29496.8,0.125598,0.125295,-0.680933,44,0.864255,10,-8.53172e-05,-3.1669,-0.195696,-0.301489,0.125594,
2,0,0,1,0,29500.6,0.10662,0.106277,-0.718648,44,0.86148,10,-7.63759e-05,-3.14348,1.23161,0.0479049,0.106593,
2,0,0,1,0,29504.4,0.0876433,0.0872971,-0.673088,44,0.858774,10,-5.87586e-05,-3.17193,0.573881,0.102809,0.0875933,
2,0,0,1,0,29508.2,0.0686664,0.0683657,-0.627635,44,0.856251,10,-4.29087e-05,-3.20229,0.605374,0.0974605,0.0686419,
2,0,0,1,0,29512,0.0496895,0.0493781,-0.58295,44,0.853891,10,-2.8785e-05,-3.23437,0.496899,0.118736,0.0496346,
2,0,0,1,0,29515.8,0.0307126,0.0304025,-0.53358,44,0.851709,10,-1.62221e-05,-3.2728,0.480687,0.122741,0.0306372,
2,0,0,1,0,29519.6,0.0117356,0.0113797,-0.501114,44,0.849694,10,-5.70255e-06,-3.30006,1.28382,0.0459567,0.0116002,
2,0,0,0,0,29521.9,0.000274105,-9.26968e-05,-0.500621,44,0.848513,10,4.6406e-08,-3.30049, , ,0.000127576,