File: Figure_codes/Fig_3-5/workspace_calculate_alpha_eff/20221101_1-115_003_TrumpetPlot_ParaChange_from10_every3_16_CV_C01_3.csv
mode,ox/red,error,control changes,counter inc.,time/s,control/V,Ewe/V,<I>/mA,cycle number,(Q-Qo)/C,I Range,P/W,log(|I|),Tafel slope mV/dec,alpha_eff,E-IR/V,
2,0,0,1,0,3200.25,2.44065e-05,-0.000382585,-0.0326107,4,0.0000000E+000,10,1.24764e-08,-4.48664, , ,-0.000368237,
2,1,0,1,0,3204,0.0187763,0.0184827,0.267814,4,0.000950594,10,4.94992e-06,-3.57217,0.196682,0.299976,0.0183648,
2,1,0,0,0,3207.79,0.0377538,0.03744,0.326924,4,0.00215347,10,1.224e-05,-3.48555,0.213147,0.276804,0.0372961,
2,1,0,1,0,3211.59,0.0567309,0.0564276,0.399186,4,0.00361351,10,2.25251e-05,-3.39883,0.232463,0.253804,0.056252,
2,1,0,0,0,3215.39,0.075708,0.0753835,0.464246,4,0.00534323,10,3.49965e-05,-3.33325,0.405636,0.14545,0.0751792,
2,1,0,1,0,3219.18,0.094685,0.0943658,0.530167,4,0.00729976,10,5.00296e-05,-3.27559,0.262166,0.225048,0.0941325,
2,1,0,0,0,3222.98,0.113662,0.113359,0.654888,4,0.00960935,10,7.42373e-05,-3.18383,0.239513,0.246333,0.113071,
2,1,0,1,0,3226.77,0.132639,0.132355,0.758507,4,0.0123772,10,0.000100392,-3.12004,0.64911,0.0908937,0.132021,
2,1,0,1,0,3230.57,0.151617,0.151309,0.582964,4,0.0151493,10,8.82075e-05,-3.23436,-0.0742092,-0.795049,0.151052,
2,1,0,1,0,3234.36,0.170594,0.170292,0.374499,4,0.0169568,10,6.37742e-05,-3.42655,-0.163826,-0.360137,0.170127,
2,1,0,1,0,3238.16,0.189571,0.189288,0.321128,4,0.0183281,10,6.07857e-05,-3.49332,-0.451511,-0.130672,0.189147,
2,1,0,1,0,3241.95,0.208547,0.208226,0.298836,4,0.0195696,10,6.22254e-05,-3.52457,-0.967581,-0.0609768,0.208094,
2,1,0,1,0,3245.75,0.227524,0.227237,0.288666,4,0.0207526,10,6.55955e-05,-3.5396,-0.717636,-0.0822143,0.22711,
2,1,0,1,0,3249.54,0.246501,0.246235,0.281012,4,0.0219032,10,6.91948e-05,-3.55128,-0.700239,-0.0842569,0.246111,
2,1,0,1,0,3253.34,0.265479,0.265211,0.275447,4,0.0230299,10,7.30515e-05,-3.55996,-0.993593,-0.0593805,0.26509,
2,1,0,0,0,3257.14,0.284456,0.284118,0.271279,4,0.0241376,10,7.70751e-05,-3.56658,-8.29726,-0.00711078,0.283999,
2,1,0,1,0,3260.93,0.303433,0.30319,0.266757,4,0.0252278,10,8.0878e-05,-3.57388,-1.03634,-0.0569312,0.303072,
2,1,0,0,0,3264.73,0.32241,0.322129,0.262529,4,0.0263026,10,8.45682e-05,-3.58082,-3.95959,-0.0149005,0.322014,
2,1,0,1,0,3268.52,0.341387,0.341113,0.259513,4,0.0273622,10,8.85234e-05,-3.58584,159.652,0.000369553,0.340999,
2,1,0,0,0,3272.32,0.360364,0.360106,0.257061,4,0.028408,10,9.2569e-05,-3.58996,-2.13552,-0.0276279,0.359993,
2,1,0,1,0,3276.11,0.379342,0.379037,0.25318,4,0.0294412,10,9.59646e-05,-3.59657,-1.54327,-0.0382305,0.378926,
2,1,0,1,0,3279.91,0.398318,0.39803,0.250842,4,0.0304646,10,9.98427e-05,-3.6006,2.12822,0.0277227,0.39792,
2,1,0,1,0,3283.7,0.417295,0.417013,0.249062,4,0.0314804,10,0.000103862,-3.60369,5.3894,0.0109474,0.416903,
2,1,0,1,0,3287.5,0.436272,0.436005,0.249053,4,0.03249,10,0.000108589,-3.60371,-31.8809,-0.00185064,0.435896,
2,1,0,1,0,3291.29,0.455249,0.454944,0.249056,4,0.033498,10,0.000113306,-3.6037,2.058,0.0286685,0.454834,
2,1,0,1,0,3295.09,0.474226,0.473924,0.249233,4,0.0345101,10,0.000118118,-3.60339,0.780298,0.0756121,0.473815,
2,1,0,1,0,3298.88,0.493203,0.492946,0.253843,4,0.0355308,10,0.000125131,-3.59544,2.15807,0.0273392,0.492834,
2,1,0,1,0,3302.68,0.512181,0.511907,0.258598,4,0.0365653,10,0.000132378,-3.58738,1.10402,0.0534409,0.511793,
2,1,0,0,0,3306.48,0.531158,0.530874,0.266569,4,0.0376239,10,0.000141514,-3.57419,1.38939,0.0424645,0.530756,
2,1,0,1,0,3310.27,0.550135,0.549859,0.279172,4,0.0387213,10,0.000153505,-3.55413,0.744235,0.0792761,0.549736,
2,1,0,0,0,3314.07,0.569112,0.568839,0.300613,4,0.0398809,10,0.000171,-3.52199,0.498598,0.118332,0.568707,
2,1,0,1,0,3317.86,0.588089,0.587819,0.337788,4,0.041146,10,0.000198558,-3.47136,0.323528,0.182365,0.58767,
2,1,0,0,0,3321.66,0.607066,0.606775,0.408972,4,0.0426085,10,0.000248154,-3.38831,0.183547,0.321443,0.606595,
2,1,0,1,0,3325.45,0.626043,0.625791,0.560896,4,0.0444872,10,0.000351004,-3.25112,0.114693,0.514418,0.625544,
2,1,0,1,0,3329.25,0.64502,0.64479,0.891512,4,0.047224,10,0.000574838,-3.04987,0.0793645,0.743405,0.644398,
2,1,0,1,0,3333.04,0.663997,0.663739,1.62434,4,0.0518896,10,0.00107814,-2.78932,0.0656239,0.899063,0.663025,
2,1,0,1,0,3336.84,0.682974,0.68271,3.1126,4,0.060652,10,0.00212501,-2.50688,0.0649257,0.908732,0.681341,
2,1,0,1,0,3340.63,0.701951,0.70164,5.65685,4,0.0770073,10,0.00396907,-2.24743,0.0737867,0.799602,0.699151,
2,1,0,1,0,3344.43,0.720928,0.720687,9.24317,4,0.105062,10,0.00666143,-2.03418,0.0901094,0.65476,0.71662,
2,1,0,1,0,3348.23,0.739905,0.73965,13.6182,4,0.148274,10,0.0100727,-1.86588,0.109155,0.540517,0.733658,
2,1,0,1,0,3352.02,0.758883,0.75865,19.0697,4,0.209895,10,0.0144672,-1.71966,0.112041,0.526594,0.750259,
2,1,0,0,0,3355.82,0.77786,0.777631,25.6498,4,0.294492,10,0.0199461,-1.59092,0.131102,0.45003,0.766345,
2,1,0,1,0,3359.61,0.796837,0.796583,33.1274,4,0.405892,10,0.0263887,-1.47981,0.15377,0.383689,0.782007,
2,1,0,0,0,3363.41,0.815814,0.815577,40.7409,4,0.546225,10,0.0332273,-1.38997,0.189684,0.311043,0.797651,
2,1,0,1,0,3367.2,0.834791,0.834556,48.3465,4,0.715458,10,0.0403479,-1.31563,0.252214,0.233929,0.813283,
2,1,0,1,0,3370.9,0.846726,0.8465,51.7726,4,0.905974,10,0.0438255,-1.2859,0.165439,0.356627,0.82372,
2,1,0,1,0,3374.69,0.827749,0.827539,43.7268,4,1.08679,10,0.0361856,-1.35925,0.199371,0.295931,0.808299,
2,1,0,1,0,3378.49,0.808772,0.808504,35.5816,4,1.23739,10,0.0287678,-1.44877,0.153784,0.383656,0.792848,
2,1,0,1,0,3382.28,0.789795,0.789555,26.9987,4,1.35616,10,0.0213169,-1.56866,0.125261,0.471018,0.777676,
2,1,0,1,0,3386.08,0.770818,0.770587,19.6859,4,1.44435,10,0.0151697,-1.70585,0.114323,0.516082,0.761925,
2,1,0,1,0,3389.88,0.751841,0.751585,13.6006,4,1.50715,10,0.010222,-1.86644,0.0958322,0.615659,0.7456,
2,1,0,1,0,3393.67,0.732865,0.73267,8.69017,4,1.54929,10,0.00636702,-2.06097,0.0854986,0.69007,0.728846,
2,1,0,1,0,3397.47,0.713887,0.71362,5.20347,4,1.57524,10,0.0037133,-2.28371,0.0717346,0.822476,0.71133,
2,1,0,0,0,3401.26,0.69491,0.694658,2.80807,4,1.59006,10,0.00195065,-2.55159,0.0611914,0.964187,0.693422,
2,1,0,1,0,3405.06,0.675933,0.675682,1.34104,4,1.59761,10,0.000906116,-2.87256,0.0532262,1.10848,0.675092,
2,1,0,0,0,3408.85,0.656956,0.656735,0.56038,4,1.60098,10,0.000368021,-3.25152,0.0452393,1.30418,0.656489,
2,1,0,1,0,3412.65,0.637979,0.637715,0.193709,4,1.60226,10,0.000123531,-3.71285,0.0365241,1.61537,0.63763,
2,1,0,0,0,3416.44,0.619002,0.61873,0.0344774,4,1.60259,10,2.13322e-05,-4.46247,0.0133841,4.4082,0.618715,
2,0,0,1,0,3420.24,0.600024,0.599735,-0.0325791,4,1.60251,10,-1.95389e-05,-4.48706,-0.0332882,-1.7724,0.59975,
2,0,0,1,0,3424.03,0.581047,0.580761,-0.0633224,4,1.60226,10,-3.67752e-05,-4.19844,-0.174067,-0.338949,0.580789,
2,0,0,1,0,3427.83,0.56207,0.561802,-0.0798432,4,1.60193,10,-4.48561e-05,-4.09776,-0.385614,-0.153003,0.561837,
2,0,0,1,0,3431.62,0.543093,0.542836,-0.0890751,4,1.60155,10,-4.83532e-05,-4.05024,-0.576948,-0.102262,0.542875,
2,0,0,1,0,3435.42,0.524116,0.523821,-0.0945542,4,1.60114,10,-4.95295e-05,-4.02432,-1.34007,-0.0440277,0.523863,
2,0,0,1,0,3439.22,0.505139,0.504881,-0.100753,4,1.6007,10,-5.08681e-05,-3.99674,-0.361238,-0.163327,0.504925,
2,0,0,1,0,3443.01,0.486162,0.485852,-0.106041,4,1.60025,10,-5.15203e-05,-3.97453,-0.525579,-0.112257,0.485899,
2,0,0,1,0,3446.81,0.467185,0.466836,-0.114278,4,1.59977,10,-5.33489e-05,-3.94204,-0.666029,-0.0885848,0.466886,
2,0,0,0,0,3450.6,0.448208,0.447928,-0.121471,4,1.59926,10,-5.44103e-05,-3.91553,-1.69803,-0.034746,0.447981,
2,0,0,1,0,3454.4,0.429231,0.428981,-0.128902,4,1.59873,10,-5.52965e-05,-3.88974,-1.6382,-0.0360152,0.429038,
2,0,0,0,0,3458.19,0.410254,0.409944,-0.139047,4,1.59816,10,-5.70016e-05,-3.85684,-2.28907,-0.0257747,0.410005,
2,0,0,1,0,3461.99,0.391277,0.390997,-0.149044,4,1.59755,10,-5.82759e-05,-3.82668,-0.424006,-0.139149,0.391063,
2,0,0,0,0,3465.78,0.3723,0.37201,-0.159508,4,1.59691,10,-5.93385e-05,-3.79722,-0.685775,-0.086034,0.37208,
2,0,0,1,0,3469.58,0.353322,0.353011,-0.169788,4,1.59622,10,-5.99369e-05,-3.77009,-0.332231,-0.177587,0.353086,
2,0,0,1,0,3473.37,0.334345,0.334036,-0.181782,4,1.59549,10,-6.07219e-05,-3.74045,-0.736205,-0.0801407,0.334116,
2,0,0,1,0,3477.17,0.315368,0.315069,-0.19415,4,1.59471,10,-6.11708e-05,-3.71186,-0.580893,-0.101568,0.315154,
2,0,0,1,0,3480.97,0.296391,0.296099,-0.207568,4,1.59389,10,-6.14609e-05,-3.68284,-0.773584,-0.0762684,0.296191,
2,0,0,1,0,3484.76,0.277414,0.277085,-0.21868,4,1.59301,10,-6.0593e-05,-3.66019,-0.935779,-0.0630491,0.277181,
2,0,0,1,0,3488.56,0.258437,0.258126,-0.232241,4,1.59209,10,-5.99473e-05,-3.63406,-0.641234,-0.0920101,0.258228,
2,0,0,1,0,3492.35,0.239461,0.239172,-0.243354,4,1.59113,10,-5.82034e-05,-3.61376,-0.952707,-0.0619288,0.239279,
2,0,0,1,0,3496.15,0.220483,0.220173,-0.257183,4,1.59011,10,-5.66249e-05,-3.58976,-0.459182,-0.128489,0.220287,
2,0,0,0,0,3499.94,0.201506,0.201171,-0.274837,4,1.58904,10,-5.52893e-05,-3.56092,-0.446367,-0.132178,0.201292,
2,0,0,1,0,3503.74,0.182529,0.182238,-0.304794,4,1.58787,10,-5.55452e-05,-3.51599,-0.245906,-0.239929,0.182373,
2,0,0,0,0,3507.53,0.163552,0.163189,-0.378231,4,1.58653,10,-6.17232e-05,-3.42224,-0.143042,-0.412465,0.163356,
2,0,0,1,0,3511.33,0.144575,0.1443,-0.607215,4,1.58467,10,-8.76214e-05,-3.21666,-0.073293,-0.804988,0.144568,
2,0,0,0,0,3515.12,0.125598,0.125275,-0.834953,4,1.58176,10,-0.000104598,-3.07834,-1.04554,-0.0564301,0.125642,
2,0,0,1,0,3518.92,0.10662,0.106267,-0.777,4,1.57859,10,-8.25699e-05,-3.10958,0.367173,0.160687,0.106609,
2,0,0,1,0,3522.71,0.0876433,0.0873531,-0.683443,4,1.57575,10,-5.97009e-05,-3.1653,0.322675,0.182847,0.0876538,
2,0,0,1,0,3526.51,0.0686664,0.0683686,-0.631238,4,1.5732,10,-4.31569e-05,-3.19981,0.697253,0.0846177,0.0686463,
2,0,0,1,0,3530.31,0.0496895,0.0493633,-0.570616,4,1.57084,10,-2.81675e-05,-3.24366,0.382258,0.154346,0.0496143,
2,0,0,1,0,3534.1,0.0307126,0.0303844,-0.511786,4,1.56872,10,-1.55503e-05,-3.29091,0.484154,0.121862,0.0306096,
2,0,0,1,0,3537.9,0.0117356,0.0114307,-0.484304,4,1.56676,10,-5.53596e-06,-3.31488,2.8931,0.0203934,0.0116438,
2,0,0,1,0,3540.19,0.000274105,-0.000111784,-0.48878,4,1.5656,10,5.46378e-08,-3.31089, , ,0.000103279,