File: Figure_codes/Fig_3-5/workspace_calculate_alpha_eff/20221101_1-115_003_TrumpetPlot_ParaChange_from10_every3_16_CV_C01_66.csv
mode,ox/red,error,control changes,counter inc.,time/s,control/V,Ewe/V,<I>/mA,cycle number,(Q-Qo)/C,I Range,P/W,log(|I|),Tafel slope mV/dec,alpha_eff,E-IR/V,
2,0,0,1,0,44573,2.44065e-05,-0.000344411,-0.0574159,67,0.0000000E+000,10,1.97747e-08,-4.24097, , ,-0.000319148,
2,1,0,1,0,44576.7,0.0187763,0.01847,0.264646,67,0.000890899,10,4.888e-06,-3.57734,0.178577,0.330389,0.0183535,
2,1,0,0,0,44580.5,0.0377538,0.0374082,0.329118,67,0.00207732,10,1.23117e-05,-3.48265,0.231459,0.254905,0.0372634,
2,1,0,1,0,44584.3,0.0567309,0.0564223,0.387593,67,0.00350371,10,2.18689e-05,-3.41162,0.337711,0.174706,0.0562518,
2,1,0,0,0,44588.1,0.075708,0.0753972,0.430893,67,0.00512607,10,3.24882e-05,-3.36563,0.611282,0.0965185,0.0752076,
2,1,0,1,0,44591.9,0.094685,0.0943806,0.481525,67,0.00690221,10,4.54467e-05,-3.31738,0.265459,0.222256,0.0941688,
2,1,0,0,0,44595.7,0.113662,0.113339,0.576113,67,0.00897116,10,6.52958e-05,-3.23949,0.368931,0.159921,0.113085,
2,1,0,1,0,44599.5,0.132639,0.132327,0.610823,67,0.0113062,10,8.08285e-05,-3.21408,-0.574685,-0.102665,0.132058,
2,1,0,1,0,44603.3,0.151617,0.151321,0.408885,67,0.0133657,10,6.18728e-05,-3.3884,-0.0828843,-0.711836,0.151141,
2,1,0,1,0,44607.1,0.170594,0.170288,0.319076,67,0.0147504,10,5.43347e-05,-3.49611,-0.351831,-0.167694,0.170147,
2,1,0,1,0,44610.9,0.189571,0.189278,0.301049,67,0.0159751,10,5.69821e-05,-3.52136,-0.948269,-0.0622186,0.189146,
2,1,0,1,0,44614.7,0.208547,0.208229,0.294663,67,0.0171562,10,6.13573e-05,-3.53067,-1.51016,-0.0390686,0.208099,
2,1,0,1,0,44618.5,0.227524,0.227211,0.289158,67,0.0183125,10,6.56998e-05,-3.53887,-1.05469,-0.0559406,0.227084,
2,1,0,1,0,44622.3,0.246501,0.246192,0.283672,67,0.0194507,10,6.9838e-05,-3.54718,-1.71314,-0.0344398,0.246068,
2,1,0,1,0,44626.1,0.265479,0.26515,0.279949,67,0.0205722,10,7.42283e-05,-3.55292,-2.71059,-0.0217665,0.265026,
2,1,0,0,0,44629.9,0.284456,0.284147,0.276673,67,0.0216782,10,7.86157e-05,-3.55803,-3.41216,-0.0172911,0.284025,
2,1,0,1,0,44633.7,0.303433,0.303115,0.272942,67,0.0227689,10,8.2733e-05,-3.56393,-1.5722,-0.0375271,0.302995,
2,1,0,0,0,44637.5,0.32241,0.322102,0.26942,67,0.0238448,10,8.67808e-05,-3.56957,-3.78554,-0.0155856,0.321983,
2,1,0,1,0,44641.3,0.341387,0.341074,0.266511,67,0.0249068,10,9.08999e-05,-3.57428,-1.44255,-0.0408999,0.340956,
2,1,0,0,0,44645.1,0.360364,0.360073,0.263084,67,0.025956,10,9.47293e-05,-3.57991,-8.99805,-0.00655697,0.359957,
2,1,0,1,0,44648.9,0.379342,0.379071,0.261749,67,0.0269952,10,9.92214e-05,-3.58211,-12.0766,-0.00488546,0.378956,
2,1,0,1,0,44652.6,0.398319,0.397971,0.258886,67,0.0280246,10,0.000103029,-3.58689,2.48685,0.0237248,0.397857,
2,1,0,1,0,44656.4,0.417295,0.417017,0.257012,67,0.0290461,10,0.000107179,-3.59005,30.5767,0.00192957,0.416904,
2,1,0,1,0,44660.2,0.436272,0.435944,0.257154,67,0.0300621,10,0.000112105,-3.58981,-15.1825,-0.00388606,0.435831,
2,1,0,1,0,44664,0.455249,0.454948,0.25576,67,0.0310746,10,0.000116357,-3.59217,4.40175,0.0134038,0.454835,
2,1,0,1,0,44667.8,0.474226,0.473909,0.256705,67,0.0320877,10,0.000121655,-3.59057,1.17054,0.050404,0.473796,
2,1,0,1,0,44671.6,0.493203,0.492882,0.258588,67,0.0331042,10,0.000127453,-3.58739,2.99707,0.0196859,0.492768,
2,1,0,1,0,44675.4,0.512181,0.511914,0.263088,67,0.0341306,10,0.000134678,-3.5799,1.15582,0.0510459,0.511798,
2,1,0,0,0,44679.2,0.531158,0.530825,0.268334,67,0.0351736,10,0.000142438,-3.57132,1.51281,0.0390002,0.530707,
2,1,0,1,0,44683,0.550135,0.549805,0.276638,67,0.036242,10,0.000152097,-3.55809,1.27283,0.0463535,0.549683,
2,1,0,0,0,44686.8,0.569112,0.568835,0.290358,67,0.0373496,10,0.000165166,-3.53707,0.770383,0.0765852,0.568707,
2,1,0,1,0,44690.6,0.588089,0.587789,0.309785,67,0.0385178,10,0.000182088,-3.50894,0.519911,0.113481,0.587653,
2,1,0,0,0,44694.4,0.607066,0.606766,0.344974,67,0.0397884,10,0.000209319,-3.46221,0.323813,0.182204,0.606614,
2,1,0,1,0,44698.2,0.626044,0.625754,0.412645,67,0.0412464,10,0.000258214,-3.38442,0.194777,0.30291,0.625572,
2,1,0,1,0,44702,0.64502,0.644747,0.548926,67,0.0430754,10,0.000353918,-3.26049,0.127664,0.46215,0.644505,
2,1,0,1,0,44705.8,0.663997,0.663696,0.832108,67,0.0456663,10,0.000552267,-3.07982,0.0926195,0.637015,0.66333,
2,1,0,1,0,44709.6,0.682974,0.682686,1.37996,67,0.0497932,10,0.000942077,-2.86013,0.082646,0.713889,0.682079,
2,1,0,1,0,44713.4,0.701951,0.701621,2.31554,67,0.0567048,10,0.00162463,-2.63535,0.0835509,0.706156,0.700602,
2,1,0,1,0,44717.2,0.720928,0.720619,3.70087,67,0.0680098,10,0.00266692,-2.4317,0.0959112,0.615152,0.718991,
2,1,0,1,0,44721,0.739905,0.739665,5.55633,67,0.0854593,10,0.00410983,-2.25521,0.109073,0.540923,0.73722,
2,1,0,1,0,44724.8,0.758883,0.758623,7.93698,67,0.110923,10,0.00602118,-2.10034,0.121629,0.485081,0.755131,
2,1,0,0,0,44728.6,0.77786,0.777595,10.9776,67,0.146603,10,0.00853617,-1.95949,0.128705,0.458414,0.772765,
2,1,0,1,0,44732.3,0.796837,0.796524,15.0176,67,0.195581,10,0.0119619,-1.8234,0.126483,0.466466,0.789917,
2,1,0,0,0,44736.1,0.815814,0.81551,20.2191,67,0.262075,10,0.0164889,-1.69424,0.125588,0.46979,0.806613,
2,1,0,1,0,44739.9,0.834791,0.834493,26.4395,67,0.350555,10,0.0220636,-1.57775,0.143534,0.411053,0.82286,
2,1,0,1,0,44743.6,0.846726,0.846496,29.9392,67,0.459652,10,0.0253434,-1.52376,0.102827,0.57378,0.833323,
2,1,0,1,0,44747.4,0.827749,0.827506,22.2635,67,0.557857,10,0.0184232,-1.65241,0.12263,0.481123,0.81771,
2,1,0,1,0,44751.2,0.808772,0.808479,16.3559,67,0.630641,10,0.0132234,-1.78633,0.121114,0.487146,0.801283,
2,1,0,1,0,44755,0.789795,0.7895,11.7287,67,0.683493,10,0.00925979,-1.93075,0.115774,0.509612,0.78434,
2,1,0,1,0,44758.8,0.770818,0.770536,8.24197,67,0.721049,10,0.00635073,-2.08397,0.111461,0.529334,0.76691,
2,1,0,1,0,44762.6,0.751841,0.751553,5.63905,67,0.747124,10,0.00423805,-2.24879,0.103409,0.570553,0.749072,
2,1,0,1,0,44766.4,0.732865,0.73257,3.68745,67,0.7646,10,0.00270131,-2.43327,0.0925361,0.637589,0.730947,
2,1,0,1,0,44770.2,0.713887,0.713591,2.27046,67,0.775731,10,0.00162018,-2.64389,0.0796837,0.740427,0.712592,
2,1,0,0,0,44774,0.69491,0.69461,1.25644,67,0.782262,10,0.000872737,-2.90086,0.0648763,0.909423,0.694057,
2,1,0,1,0,44777.8,0.675933,0.675705,0.604403,67,0.785654,10,0.000408398,-3.21867,0.0529575,1.1141,0.675439,
2,1,0,0,0,44781.6,0.656956,0.656669,0.237192,67,0.787142,10,0.000155757,-3.6249,0.0390775,1.50982,0.656564,
2,1,0,1,0,44785.4,0.637979,0.637674,0.0546641,67,0.787614,10,3.48578e-05,-4.2623,0.0188866,3.12391,0.63765,
2,0,0,0,0,44789.2,0.619002,0.618704,-0.02749,67,0.787606,10,-1.70082e-05,-4.56082,-0.026966,-2.18794,0.618716,
2,0,0,1,0,44793,0.600024,0.599716,-0.0630582,67,0.787389,10,-3.7817e-05,-4.20026,-0.107004,-0.551384,0.599744,
2,0,0,1,0,44796.8,0.581047,0.580774,-0.0804662,67,0.787078,10,-4.67327e-05,-4.09439,-0.361929,-0.163015,0.580809,
2,0,0,1,0,44800.6,0.56207,0.56179,-0.089115,67,0.786717,10,-5.00639e-05,-4.05005,-0.582141,-0.10135,0.561829,
2,0,0,1,0,44804.4,0.543093,0.542777,-0.0960038,67,0.786328,10,-5.21086e-05,-4.01771,-0.988203,-0.0597043,0.542819,
2,0,0,1,0,44808.2,0.524116,0.523795,-0.100788,67,0.785918,10,-5.27921e-05,-3.99659,-0.790384,-0.0746473,0.52384,
2,0,0,1,0,44812,0.505139,0.504869,-0.106427,67,0.785488,10,-5.37317e-05,-3.97295,-0.658525,-0.0895941,0.504915,
2,0,0,1,0,44815.7,0.486162,0.48581,-0.11207,67,0.785036,10,-5.44445e-05,-3.95051,-2.3969,-0.0246151,0.485859,
2,0,0,1,0,44819.5,0.467185,0.466847,-0.117901,67,0.78456,10,-5.50416e-05,-3.92848,-0.708791,-0.0832404,0.466899,
2,0,0,0,0,44823.3,0.448208,0.447907,-0.125442,67,0.784057,10,-5.61864e-05,-3.90156,-0.463112,-0.127399,0.447963,
2,0,0,1,0,44827.1,0.429231,0.428898,-0.133562,67,0.783525,10,-5.72842e-05,-3.87432,-7.95915,-0.00741285,0.428956,
2,0,0,0,0,44830.9,0.410254,0.40993,-0.144061,67,0.782958,10,-5.90547e-05,-3.84145,-0.699833,-0.0843059,0.409993,
2,0,0,1,0,44834.7,0.391277,0.390954,-0.152252,67,0.782354,10,-5.95237e-05,-3.81744,-1.07091,-0.0550932,0.391021,
2,0,0,0,0,44838.5,0.3723,0.372028,-0.162411,67,0.781712,10,-6.04216e-05,-3.78938,-0.43266,-0.136366,0.372099,
2,0,0,1,0,44842.3,0.353322,0.352995,-0.17214,67,0.781031,10,-6.07648e-05,-3.76412,-1.44118,-0.0409388,0.353071,
2,0,0,1,0,44846.1,0.334345,0.334068,-0.183654,67,0.780306,10,-6.13529e-05,-3.736,-0.551949,-0.106894,0.334149,
2,0,0,1,0,44849.9,0.315368,0.31503,-0.196092,67,0.779535,10,-6.17747e-05,-3.70754,-0.753683,-0.0782823,0.315116,
2,0,0,1,0,44853.7,0.296391,0.296078,-0.209731,67,0.77872,10,-6.2097e-05,-3.67834,-0.895998,-0.0658484,0.296171,
2,0,0,1,0,44857.5,0.277414,0.277085,-0.220181,67,0.777855,10,-6.10087e-05,-3.65722,-1.12681,-0.05236,0.277181,
2,0,0,1,0,44861.3,0.258437,0.258172,-0.23357,67,0.776941,10,-6.03014e-05,-3.63158,-0.731677,-0.0806367,0.258275,
2,0,0,1,0,44865.1,0.239461,0.239139,-0.24586,67,0.775979,10,-5.87947e-05,-3.60931,-0.886476,-0.0665556,0.239247,
2,0,0,1,0,44868.9,0.220483,0.220206,-0.256965,67,0.774973,10,-5.65853e-05,-3.59013,-0.60966,-0.0967752,0.220319,
2,0,0,0,0,44872.7,0.201506,0.201182,-0.269823,67,0.773917,10,-5.42833e-05,-3.56892,-0.503462,-0.117189,0.2013,
2,0,0,1,0,44876.5,0.182529,0.182229,-0.289154,67,0.772801,10,-5.26922e-05,-3.53887,-0.370945,-0.159053,0.182356,
2,0,0,0,0,44880.3,0.163552,0.163251,-0.322859,67,0.77159,10,-5.2707e-05,-3.49099,-0.288857,-0.204253,0.163393,
2,0,0,1,0,44884.1,0.144575,0.144255,-0.416328,67,0.770166,10,-6.00573e-05,-3.38056,-0.108353,-0.544518,0.144438,
2,0,0,0,0,44887.9,0.125598,0.125266,-0.629143,67,0.768125,10,-7.88103e-05,-3.20125,-0.175188,-0.336781,0.125543,
2,0,0,1,0,44891.7,0.10662,0.106318,-0.68291,67,0.765516,10,-7.26059e-05,-3.16564,-47.7737,-0.00123499,0.106619,
2,0,0,1,0,44895.5,0.0876433,0.087285,-0.653503,67,0.76291,10,-5.7041e-05,-3.18475,0.71373,0.0826643,0.0875726,
2,0,0,1,0,44899.2,0.0686664,0.0683656,-0.612984,67,0.76045,10,-4.1907e-05,-3.21255,0.7324,0.080557,0.0686353,
2,0,0,1,0,44903,0.0496895,0.0493717,-0.571233,67,0.75814,10,-2.82027e-05,-3.24319,0.555033,0.1063,0.049623,
2,0,0,1,0,44906.8,0.0307126,0.0304192,-0.523811,67,0.756001,10,-1.59339e-05,-3.28083,0.531333,0.111042,0.0306497,
2,0,0,1,0,44910.6,0.0117356,0.0114244,-0.492656,67,0.754016,10,-5.6283e-06,-3.30746,1.3342,0.0442212,0.0116412,
2,0,0,1,0,44912.9,0.000274105,-0.000101048,-0.494845,67,0.752848,10,5.00029e-08,-3.30553, , ,0.000116684,