File: Figure_codes/Fig_3-5/workspace_calculate_alpha_eff/20221101_1-115_003_TrumpetPlot_ParaChange_from10_every3_16_CV_C01_86.csv
mode,ox/red,error,control changes,counter inc.,time/s,control/V,Ewe/V,<I>/mA,cycle number,(Q-Qo)/C,I Range,P/W,log(|I|),Tafel slope mV/dec,alpha_eff,E-IR/V,
2,0,0,0,0,57133.8,2.44065e-05,-0.000382585,-0.103846,87,0.0000000E+000,10,3.97301e-08,-3.98361, , ,-0.000336893,
2,1,0,1,0,57137.5,0.0187763,0.0183734,0.203209,87,0.0006555,10,3.73364e-06,-3.69206,0.142854,0.41301,0.018284,
2,1,0,1,0,57141.3,0.0377538,0.0373976,0.267239,87,0.00160129,10,9.99407e-06,-3.5731,0.175561,0.336065,0.03728,
2,1,0,0,0,57145.1,0.0567309,0.0563226,0.325561,87,0.00278784,10,1.83364e-05,-3.48737,0.309942,0.190358,0.0561794,
2,1,0,1,0,57148.9,0.075708,0.0753824,0.371714,87,0.00417303,10,2.80207e-05,-3.42979,0.47257,0.124849,0.0752188,
2,1,0,0,0,57152.7,0.094685,0.0943785,0.423161,87,0.00572069,10,3.99373e-05,-3.37349,0.242214,0.243586,0.0941923,
2,1,0,1,0,57156.5,0.113662,0.11333,0.517404,87,0.00755755,10,5.86374e-05,-3.28617,0.327447,0.180182,0.113102,
2,1,0,0,0,57160.3,0.132639,0.132308,0.54891,87,0.00965796,10,7.26252e-05,-3.2605,-0.487756,-0.120962,0.132067,
2,1,0,1,0,57164.1,0.151617,0.151256,0.356311,87,0.011488,10,5.3894e-05,-3.44817,-0.0792041,-0.744911,0.151099,
2,1,0,1,0,57167.9,0.170594,0.170247,0.2718,87,0.0126804,10,4.62731e-05,-3.56575,-0.36752,-0.160535,0.170127,
2,1,0,1,0,57171.7,0.189571,0.189218,0.255436,87,0.0137232,10,4.83332e-05,-3.59272,-1.06325,-0.05549,0.189106,
2,1,0,1,0,57175.5,0.208547,0.208198,0.248976,87,0.0147264,10,5.18364e-05,-3.60384,-0.969488,-0.0608569,0.208088,
2,1,0,1,0,57179.3,0.227524,0.227165,0.243972,87,0.0157058,10,5.54218e-05,-3.61266,-1.19158,-0.0495142,0.227057,
2,1,0,1,0,57183.1,0.246501,0.246169,0.239274,87,0.0166685,10,5.89018e-05,-3.6211,-0.716073,-0.0823938,0.246064,
2,1,0,0,0,57186.9,0.265479,0.265156,0.236537,87,0.0176176,10,6.27191e-05,-3.6261,-1.21379,-0.0486083,0.265052,
2,1,0,1,0,57190.7,0.284456,0.284122,0.233354,87,0.018552,10,6.6301e-05,-3.63199,-1.91307,-0.0308404,0.28402,
2,1,0,0,0,57194.5,0.303433,0.3031,0.228632,87,0.0194691,10,6.92985e-05,-3.64086,5.41262,0.0109005,0.303,
2,1,0,1,0,57198.2,0.32241,0.322079,0.225287,87,0.0203717,10,7.25601e-05,-3.64726,-27.0161,-0.00218388,0.321979,
2,1,0,0,0,57202,0.341387,0.341081,0.223279,87,0.0212627,10,7.61561e-05,-3.65115,-3.15324,-0.0187109,0.340983,
2,1,0,1,0,57205.8,0.360364,0.360026,0.221805,87,0.0221434,10,7.98556e-05,-3.65403,4.02029,0.0146756,0.359929,
2,1,0,1,0,57209.6,0.379342,0.378989,0.218916,87,0.0230154,10,8.29667e-05,-3.65972,-2.85474,-0.0206674,0.378892,
2,1,0,1,0,57213.4,0.398319,0.397997,0.216845,87,0.0238792,10,8.63037e-05,-3.66385,8.04715,0.00733178,0.397901,
2,1,0,1,0,57217.2,0.417295,0.416966,0.216699,87,0.0247389,10,9.0356e-05,-3.66414,-1.91601,-0.0307932,0.41687,
2,1,0,1,0,57221,0.436272,0.435928,0.216158,87,0.0255943,10,9.42294e-05,-3.66523,2.22985,0.0264592,0.435833,
2,1,0,1,0,57224.8,0.455249,0.454928,0.21646,87,0.0264478,10,9.84737e-05,-3.66462,1.38482,0.0426048,0.454833,
2,1,0,1,0,57228.6,0.474226,0.473867,0.217327,87,0.0273034,10,0.000102984,-3.66289,1.14888,0.0513545,0.473771,
2,1,0,1,0,57232.4,0.493203,0.492902,0.220408,87,0.0281659,10,0.00010864,-3.65677,7.61586,0.00774699,0.492805,
2,1,0,0,0,57236.2,0.512181,0.511838,0.22461,87,0.0290392,10,0.000114964,-3.64857,2.35734,0.0250282,0.511739,
2,1,0,1,0,57240,0.531158,0.530817,0.230327,87,0.0299302,10,0.000122261,-3.63766,1.80177,0.0327455,0.530716,
2,1,0,0,0,57243.8,0.550135,0.549804,0.237681,87,0.0308457,10,0.000130678,-3.62401,0.935575,0.0630628,0.549699,
2,1,0,1,0,57247.6,0.569112,0.568809,0.249327,87,0.0317979,10,0.000141819,-3.60323,1.19822,0.0492398,0.568699,
2,1,0,0,0,57251.4,0.588089,0.587737,0.267984,87,0.032805,10,0.000157504,-3.57189,0.563054,0.104786,0.587619,
2,1,0,1,0,57255.2,0.607066,0.606784,0.297764,87,0.0339003,10,0.000180678,-3.52613,0.327392,0.180212,0.606653,
2,1,0,1,0,57259,0.626044,0.625722,0.351187,87,0.0351489,10,0.000219745,-3.45446,0.214399,0.275188,0.625567,
2,1,0,1,0,57262.8,0.64502,0.644673,0.459201,87,0.0366917,10,0.000296034,-3.338,0.134483,0.438716,0.64447,
2,1,0,1,0,57266.6,0.663997,0.66367,0.67658,87,0.0388264,10,0.000449026,-3.16968,0.0983883,0.599664,0.663372,
2,1,0,1,0,57270.4,0.682974,0.682672,1.09629,87,0.0421386,10,0.000748407,-2.96007,0.0867527,0.680094,0.68219,
2,1,0,1,0,57274.2,0.701951,0.701668,1.81402,87,0.0475838,10,0.00127284,-2.74136,0.0877316,0.672505,0.70087,
2,1,0,1,0,57278,0.720928,0.720628,2.88469,87,0.0564127,10,0.00207879,-2.5399,0.0977745,0.603429,0.719358,
2,1,0,1,0,57281.7,0.739905,0.739605,4.33184,87,0.070006,10,0.00320385,-2.36333,0.109266,0.539966,0.737699,
2,1,0,0,0,57285.5,0.758883,0.758555,6.21778,87,0.089899,10,0.00471652,-2.20636,0.122024,0.48351,0.755819,
2,1,0,1,0,57289.3,0.77786,0.777536,8.66306,87,0.117959,10,0.00673584,-2.06233,0.125835,0.468869,0.773724,
2,1,0,0,0,57293.1,0.796837,0.796531,11.8896,87,0.156693,10,0.00947047,-1.92483,0.127575,0.462472,0.791299,
2,1,0,1,0,57296.9,0.815814,0.815495,16.2041,87,0.209679,10,0.0132144,-1.79037,0.13796,0.42766,0.808365,
2,1,0,0,0,57300.7,0.834791,0.834548,21.4348,87,0.280683,10,0.0178884,-1.66888,0.138899,0.424769,0.825116,
2,1,0,0,0,57304.4,0.846726,0.846444,24.5605,87,0.369694,10,0.0207891,-1.60976,0.100957,0.584409,0.835638,
2,1,0,1,0,57308.2,0.827749,0.82746,17.8554,87,0.449452,10,0.0147747,-1.74823,0.116878,0.504802,0.819604,
2,1,0,1,0,57312,0.808772,0.808426,12.8669,87,0.507259,10,0.0104019,-1.89053,0.116823,0.505038,0.802765,
2,1,0,1,0,57315.8,0.789795,0.789512,9.12538,87,0.548521,10,0.0072046,-2.03975,0.118196,0.499172,0.785497,
2,1,0,1,0,57319.6,0.770818,0.770514,6.38943,87,0.57765,10,0.00492315,-2.19454,0.11364,0.519185,0.767703,
2,1,0,1,0,57323.4,0.751841,0.751503,4.36291,87,0.597839,10,0.00327874,-2.36022,0.107105,0.550859,0.749584,
2,1,0,1,0,57327.2,0.732865,0.732612,2.86209,87,0.611388,10,0.0020968,-2.54332,0.093317,0.632253,0.731353,
2,1,0,0,0,57331,0.713887,0.713564,1.75297,87,0.619989,10,0.00125085,-2.75623,0.0838203,0.703887,0.712792,
2,1,0,1,0,57334.8,0.69491,0.694575,0.968578,87,0.625043,10,0.00067275,-3.01387,0.064053,0.921112,0.694149,
2,1,0,0,0,57338.6,0.675933,0.675597,0.448176,87,0.627622,10,0.000302786,-3.34855,0.048914,1.2062,0.6754,
2,1,0,1,0,57342.4,0.656956,0.656645,0.151157,87,0.628671,10,9.92564e-05,-3.82057,0.0309443,1.90665,0.656579,
2,1,0,0,0,57346.2,0.637979,0.637701,0.00246382,87,0.628897,10,1.57118e-06,-5.60839,0.020803,2.83612,0.6377,
2,0,0,1,0,57350,0.619002,0.618681,-0.0625204,87,0.628737,10,-3.86802e-05,-4.20398,-0.0675825,-0.873008,0.618708,
2,0,0,0,0,57353.8,0.600024,0.599691,-0.0921986,87,0.628405,10,-5.52906e-05,-4.03528,-0.215539,-0.273733,0.599731,
2,0,0,1,0,57357.6,0.581047,0.580707,-0.105681,87,0.627995,10,-6.13695e-05,-3.976,-0.727478,-0.0811021,0.580754,
2,0,0,1,0,57361.4,0.56207,0.561751,-0.114091,87,0.627546,10,-6.40905e-05,-3.94275,-0.845041,-0.0698191,0.561802,
2,0,0,1,0,57365.1,0.543093,0.542748,-0.119116,87,0.627073,10,-6.46497e-05,-3.92403,-0.85046,-0.0693742,0.5428,
2,0,0,1,0,57368.9,0.524116,0.523739,-0.123809,87,0.626583,10,-6.48438e-05,-3.90725,-0.902228,-0.0653937,0.523794,
2,0,0,1,0,57372.7,0.505139,0.504813,-0.127551,87,0.626075,10,-6.43894e-05,-3.89432,-0.873696,-0.0675292,0.504869,
2,0,0,1,0,57376.5,0.486162,0.485799,-0.13397,87,0.625547,10,-6.50825e-05,-3.87299,-0.784056,-0.0752498,0.485858,
2,0,0,1,0,57380.3,0.467185,0.466849,-0.139069,87,0.624996,10,-6.4924e-05,-3.85677,-0.97788,-0.0603346,0.46691,
2,0,0,1,0,57384.1,0.448208,0.447823,-0.146023,87,0.624423,10,-6.53925e-05,-3.83558,-1.66045,-0.0355325,0.447887,
2,0,0,0,0,57387.9,0.429231,0.4289,-0.154025,87,0.623819,10,-6.60613e-05,-3.81241,-1.38134,-0.0427122,0.428967,
2,0,0,1,0,57391.7,0.410254,0.409887,-0.162305,87,0.623185,10,-6.65267e-05,-3.78967,-1.53151,-0.038524,0.409958,
2,0,0,0,0,57395.5,0.391277,0.390929,-0.171302,87,0.622516,10,-6.6967e-05,-3.76624,-0.604213,-0.0976477,0.391004,
2,0,0,1,0,57399.3,0.3723,0.371951,-0.179983,87,0.62181,10,-6.69448e-05,-3.74477,-1.06246,-0.0555314,0.37203,
2,0,0,1,0,57403.1,0.353322,0.352975,-0.19118,87,0.621065,10,-6.74819e-05,-3.71856,-0.657849,-0.0896863,0.353059,
2,0,0,1,0,57406.9,0.334345,0.334018,-0.201994,87,0.620279,10,-6.74698e-05,-3.69466,-0.657852,-0.0896859,0.334107,
2,0,0,1,0,57410.7,0.315368,0.315018,-0.212746,87,0.61945,10,-6.70188e-05,-3.67214,-0.678372,-0.086973,0.315112,
2,0,0,1,0,57414.5,0.296391,0.29606,-0.22492,87,0.618577,10,-6.65898e-05,-3.64797,-0.997102,-0.0591715,0.296159,
2,0,0,1,0,57418.3,0.277414,0.2771,-0.23589,87,0.617659,10,-6.53651e-05,-3.62729,-0.892779,-0.0660858,0.277204,
2,0,0,1,0,57422.1,0.258437,0.258058,-0.248026,87,0.616694,10,-6.40051e-05,-3.6055,-1.08812,-0.0542218,0.258167,
2,0,0,1,0,57425.9,0.239461,0.239098,-0.259887,87,0.615684,10,-6.21384e-05,-3.58522,-1.37272,-0.0429803,0.239212,
2,0,0,0,0,57429.7,0.220483,0.220108,-0.271189,87,0.614631,10,-5.96908e-05,-3.56673,-0.775002,-0.0761289,0.220227,
2,0,0,1,0,57433.5,0.201506,0.201142,-0.283511,87,0.613531,10,-5.7026e-05,-3.54743,-0.618238,-0.0954324,0.201267,
2,0,0,0,0,57437.3,0.182529,0.182207,-0.301184,87,0.612373,10,-5.48777e-05,-3.52117,-0.621242,-0.0949711,0.182339,
2,0,0,1,0,57441.1,0.163552,0.16324,-0.330867,87,0.61113,10,-5.40108e-05,-3.48035,-0.310264,-0.19016,0.163386,
2,0,0,0,0,57444.9,0.144575,0.144235,-0.411695,87,0.609701,10,-5.93806e-05,-3.38542,-0.120234,-0.490711,0.144416,
2,0,0,1,0,57448.6,0.125598,0.125255,-0.607054,87,0.607726,10,-7.60368e-05,-3.21677,-0.154425,-0.382063,0.125523,
2,0,0,1,0,57452.4,0.10662,0.106282,-0.674607,87,0.60518,10,-7.16987e-05,-3.17095,-7.84176,-0.00752382,0.106579,
2,0,0,1,0,57456.2,0.0876433,0.087264,-0.654218,87,0.602593,10,-5.70897e-05,-3.18428,0.783689,0.075285,0.0875518,
2,0,0,1,0,57460,0.0686664,0.0683062,-0.615612,87,0.60013,10,-4.20501e-05,-3.21069,0.656159,0.0899173,0.0685771,
2,0,0,1,0,57463.8,0.0496895,0.0493262,-0.572572,87,0.597815,10,-2.82428e-05,-3.24217,0.558439,0.105652,0.0495781,
2,0,0,1,0,57467.6,0.0307126,0.0303505,-0.525101,87,0.595673,10,-1.59371e-05,-3.27976,0.580948,0.101558,0.0305815,
2,0,0,1,0,57471.4,0.0117356,0.0114083,-0.49537,87,0.593687,10,-5.65135e-06,-3.30507,1.97533,0.0298684,0.0116263,
2,0,0,0,0,57473.7,0.000274105,-9.38898e-05,-0.497565,87,0.592518,10,4.67163e-08,-3.30315, , ,0.000125039,