File: Figure_codes/Fig_3-5/workspace_calculate_alpha_eff/20221101_1-115_003_TrumpetPlot_ParaChange_from10_every3_16_CV_C01_56.csv
mode,ox/red,error,control changes,counter inc.,time/s,control/V,Ewe/V,<I>/mA,cycle number,(Q-Qo)/C,I Range,P/W,log(|I|),Tafel slope mV/dec,alpha_eff,E-IR/V,
2,0,0,0,0,37432.5,2.44065e-05,-0.000458935,-0.113387,57,0.0000000E+000,10,5.20371e-08,-3.94544, , ,-0.000409045,
2,1,0,1,0,37436.2,0.0187763,0.0184233,0.209496,57,0.000680741,10,3.85961e-06,-3.67882,0.142518,0.413982,0.0183312,
2,1,0,1,0,37440,0.0377538,0.0374273,0.274336,57,0.00165933,10,1.02677e-05,-3.56172,0.180165,0.327478,0.0373066,
2,1,0,0,0,37443.8,0.0567309,0.0564043,0.337723,57,0.00288765,10,1.9049e-05,-3.47144,0.306944,0.192218,0.0562557,
2,1,0,1,0,37447.6,0.075708,0.0753219,0.384062,57,0.00432329,10,2.89283e-05,-3.4156,0.508463,0.116036,0.075153,
2,1,0,0,0,37451.4,0.094685,0.0943944,0.439332,57,0.00592957,10,4.14705e-05,-3.35721,0.252264,0.233882,0.0942011,
2,1,0,1,0,37455.2,0.113662,0.113366,0.537527,57,0.00784254,10,6.09374e-05,-3.2696,0.332231,0.177587,0.11313,
2,1,0,0,0,37459,0.132639,0.13235,0.581214,57,0.0100448,10,7.69235e-05,-3.23566,-0.723026,-0.0816015,0.132094,
2,1,0,1,0,37462.8,0.151617,0.151279,0.380337,57,0.0120025,10,5.7537e-05,-3.41983,-0.0727093,-0.811451,0.151112,
2,1,0,1,0,37466.6,0.170594,0.170281,0.281208,57,0.0132564,10,4.78843e-05,-3.55097,-0.320035,-0.184355,0.170157,
2,1,0,1,0,37470.4,0.189571,0.189274,0.260535,57,0.0143315,10,4.93125e-05,-3.58413,-1.00684,-0.058599,0.18916,
2,1,0,1,0,37474.2,0.208547,0.208208,0.250802,57,0.015354,10,5.22189e-05,-3.60067,-0.924596,-0.0638117,0.208097,
2,1,0,1,0,37478,0.227524,0.227233,0.244377,57,0.0163451,10,5.55304e-05,-3.61194,-1.19098,-0.0495391,0.227125,
2,1,0,1,0,37481.8,0.246501,0.246166,0.239998,57,0.0173157,10,5.90794e-05,-3.61979,-2.40294,-0.0245532,0.24606,
2,1,0,0,0,37485.6,0.265479,0.2652,0.236937,57,0.0182717,10,6.28359e-05,-3.62537,-1.20218,-0.0490776,0.265096,
2,1,0,1,0,37489.4,0.284456,0.284192,0.232744,57,0.0192126,10,6.61441e-05,-3.63312,-1.17401,-0.050255,0.28409,
2,1,0,0,0,37493.1,0.303433,0.303125,0.228318,57,0.0201357,10,6.9209e-05,-3.64146,-3.48546,-0.0169275,0.303024,
2,1,0,1,0,37496.9,0.32241,0.322133,0.225297,57,0.0210437,10,7.25756e-05,-3.64724,-1.97944,-0.0298064,0.322033,
2,1,0,0,0,37500.7,0.341387,0.341097,0.222415,57,0.0219396,10,7.58649e-05,-3.65284,2.79079,0.021141,0.340999,
2,1,0,1,0,37504.5,0.360364,0.360058,0.221042,57,0.0228257,10,7.95881e-05,-3.65552,5.66519,0.0104145,0.359961,
2,1,0,1,0,37508.3,0.379342,0.378987,0.219528,57,0.0237033,10,8.31984e-05,-3.65851,-4.22082,-0.0139783,0.37889,
2,1,0,1,0,37512.1,0.398319,0.398003,0.216941,57,0.0245729,10,8.63431e-05,-3.66366,2.90443,0.0203138,0.397907,
2,1,0,1,0,37515.9,0.417295,0.417004,0.21664,57,0.025438,10,9.03397e-05,-3.66426,2.19146,0.0269227,0.416909,
2,1,0,1,0,37519.7,0.436272,0.435979,0.216453,57,0.0262994,10,9.43688e-05,-3.66464,8.648,0.00682239,0.435884,
2,1,0,1,0,37523.5,0.455249,0.454992,0.216859,57,0.0271589,10,9.8669e-05,-3.66382,1.32539,0.0445152,0.454897,
2,1,0,1,0,37527.3,0.474226,0.473927,0.217892,57,0.0280214,10,0.000103265,-3.66176,1.22267,0.0482549,0.473831,
2,1,0,1,0,37531.1,0.493203,0.492873,0.222027,57,0.0288924,10,0.000109431,-3.65359,2.00323,0.0294524,0.492775,
2,1,0,0,0,37534.9,0.512181,0.511869,0.225724,57,0.0297773,10,0.000115541,-3.64642,1.9252,0.0306462,0.51177,
2,1,0,1,0,37538.7,0.531158,0.530894,0.231656,57,0.0306795,10,0.000122985,-3.63516,3.69946,0.0159483,0.530792,
2,1,0,0,0,37542.5,0.550135,0.54983,0.240484,57,0.0316094,10,0.000132225,-3.61891,0.732059,0.0805946,0.549725,
2,1,0,1,0,37546.3,0.569112,0.568814,0.253549,57,0.0325807,10,0.000144222,-3.59594,0.798573,0.0738818,0.568702,
2,1,0,0,0,37550.1,0.588089,0.587767,0.274716,57,0.0336158,10,0.000161469,-3.56112,0.526703,0.112018,0.587646,
2,1,0,1,0,37553.9,0.607066,0.606765,0.310386,57,0.0347559,10,0.000188331,-3.5081,0.286608,0.205856,0.606628,
2,1,0,1,0,37557.7,0.626044,0.625755,0.378914,57,0.0360856,10,0.000237107,-3.42146,0.178465,0.330598,0.625588,
2,1,0,1,0,37561.5,0.64502,0.64473,0.519128,57,0.037794,10,0.000334697,-3.28473,0.111364,0.529795,0.644501,
2,1,0,1,0,37565.3,0.663997,0.663741,0.80922,57,0.0402826,10,0.000537113,-3.09193,0.0866185,0.681148,0.663385,
2,1,0,1,0,37569.1,0.682974,0.682698,1.37546,57,0.0443532,10,0.000939024,-2.86155,0.0779574,0.756824,0.682093,
2,1,0,1,0,37572.9,0.701951,0.70165,2.34776,57,0.05131,10,0.00164731,-2.62935,0.083622,0.705556,0.700617,
2,1,0,1,0,37576.6,0.720928,0.720628,3.78287,57,0.0628282,10,0.00272604,-2.42218,0.0955644,0.617384,0.718963,
2,1,0,1,0,37580.4,0.739905,0.739633,5.70073,57,0.0807047,10,0.00421645,-2.24407,0.106992,0.551443,0.737125,
2,1,0,0,0,37584.2,0.758883,0.758563,8.14539,57,0.106836,10,0.00617879,-2.08909,0.123011,0.479633,0.754979,
2,1,0,1,0,37588,0.77786,0.777578,11.2736,57,0.143468,10,0.00876609,-1.94794,0.125378,0.470578,0.772618,
2,1,0,0,0,37591.8,0.796837,0.796588,15.4866,57,0.19387,10,0.0123364,-1.81004,0.12116,0.486959,0.789774,
2,1,0,1,0,37595.6,0.815814,0.815527,20.9515,57,0.262788,10,0.0170865,-1.67879,0.133962,0.440425,0.806308,
2,1,0,0,0,37599.4,0.834791,0.83456,27.3869,57,0.354372,10,0.022856,-1.56246,0.150972,0.390802,0.82251,
2,1,0,0,0,37603.1,0.846726,0.846471,31.0635,57,0.467015,10,0.0262943,-1.50775,0.116729,0.505446,0.832803,
2,1,0,1,0,37606.9,0.827749,0.827516,23.3065,57,0.569517,10,0.0192865,-1.63252,0.127398,0.463114,0.817261,
2,1,0,1,0,37610.7,0.808772,0.808448,17.171,57,0.645806,10,0.0138818,-1.7652,0.122127,0.483102,0.800892,
2,1,0,1,0,37614.5,0.789795,0.789499,12.2603,57,0.701224,10,0.00967951,-1.9115,0.112245,0.525635,0.784105,
2,1,0,1,0,37618.3,0.770818,0.770573,8.55688,57,0.740312,10,0.0065937,-2.06768,0.108108,0.545749,0.766808,
2,1,0,1,0,37622.1,0.751841,0.751556,5.79959,57,0.767258,10,0.00435872,-2.2366,0.102964,0.573015,0.749005,
2,1,0,1,0,37625.9,0.732865,0.732604,3.76588,57,0.785183,10,0.0027589,-2.42413,0.0907094,0.650429,0.730947,
2,1,0,0,0,37629.7,0.713887,0.713583,2.27807,57,0.796458,10,0.00162559,-2.64243,0.0762089,0.774188,0.71258,
2,1,0,1,0,37633.5,0.69491,0.694674,1.23942,57,0.802966,10,0.00086099,-2.90678,0.063439,0.930027,0.694128,
2,1,0,0,0,37637.3,0.675933,0.67567,0.579674,57,0.806278,10,0.000391669,-3.23682,0.0509951,1.15697,0.675415,
2,1,0,1,0,37641.1,0.656956,0.656685,0.210218,57,0.807666,10,0.000138047,-3.67733,0.0349181,1.68967,0.656592,
2,1,0,0,0,37644.9,0.637979,0.637674,0.0271233,57,0.808036,10,1.72958e-05,-4.56666,0.00951113,6.20326,0.637662,
2,0,0,1,0,37648.7,0.619002,0.618743,-0.0523056,57,0.80793,10,-3.23637e-05,-4.28145,-0.0468016,-1.26064,0.618766,
2,0,0,0,0,37652.5,0.600024,0.599718,-0.0871543,57,0.807619,10,-5.22681e-05,-4.05971,-0.185531,-0.318007,0.599757,
2,0,0,1,0,37656.3,0.581047,0.580745,-0.104846,57,0.807215,10,-6.08886e-05,-3.97945,-0.548691,-0.107529,0.580791,
2,0,0,1,0,37660,0.56207,0.561796,-0.112664,57,0.806765,10,-6.3294e-05,-3.94822,-0.932547,-0.0632676,0.561845,
2,0,0,1,0,37663.8,0.543093,0.542772,-0.118683,57,0.806289,10,-6.44176e-05,-3.92561,-0.544063,-0.108443,0.542825,
2,0,0,1,0,37667.6,0.524116,0.523856,-0.123529,57,0.805792,10,-6.47114e-05,-3.90823,-3.23573,-0.0182339,0.52391,
2,0,0,1,0,37671.4,0.505139,0.504817,-0.127475,57,0.805278,10,-6.43515e-05,-3.89458,-1.82339,-0.0323573,0.504873,
2,0,0,1,0,37675.2,0.486162,0.485861,-0.133028,57,0.804745,10,-6.46331e-05,-3.87606,-75.8902,-0.000777439,0.485919,
2,0,0,1,0,37679,0.467185,0.46683,-0.137458,57,0.804191,10,-6.41695e-05,-3.86183,-0.882411,-0.0668623,0.46689,
2,0,0,1,0,37682.8,0.448208,0.44791,-0.145346,57,0.803613,10,-6.51018e-05,-3.8376,-1.72362,-0.0342302,0.447973,
2,0,0,0,0,37686.6,0.429231,0.428959,-0.153081,57,0.803005,10,-6.56656e-05,-3.81508,5.50733,0.010713,0.429026,
2,0,0,1,0,37690.4,0.410254,0.409912,-0.162033,57,0.802366,10,-6.64192e-05,-3.7904,-2.91278,-0.0202556,0.409983,
2,0,0,0,0,37694.2,0.391277,0.390932,-0.171288,57,0.801692,10,-6.69618e-05,-3.76627,-0.719565,-0.081994,0.391007,
2,0,0,1,0,37698,0.3723,0.37201,-0.180194,57,0.800979,10,-6.70338e-05,-3.74426,-0.708167,-0.0833137,0.372089,
2,0,0,1,0,37701.8,0.353322,0.353005,-0.190459,57,0.800228,10,-6.72329e-05,-3.7202,-1.11665,-0.0528367,0.353089,
2,0,0,1,0,37705.6,0.334345,0.334031,-0.201553,57,0.799435,10,-6.73248e-05,-3.69561,-0.493314,-0.119599,0.33412,
2,0,0,1,0,37709.4,0.315368,0.315034,-0.213365,57,0.798599,10,-6.72172e-05,-3.67088,-0.98602,-0.0598365,0.315128,
2,0,0,1,0,37713.2,0.296391,0.296041,-0.22662,57,0.797718,10,-6.7089e-05,-3.6447,-0.646864,-0.0912093,0.296141,
2,0,0,1,0,37717,0.277414,0.277071,-0.237537,57,0.796791,10,-6.58145e-05,-3.62427,-1.60851,-0.0366799,0.277175,
2,0,0,1,0,37720.8,0.258437,0.258132,-0.248732,57,0.795817,10,-6.42057e-05,-3.60427,-0.86503,-0.0682057,0.258241,
2,0,0,1,0,37724.6,0.239461,0.239177,-0.260687,57,0.794799,10,-6.23505e-05,-3.58388,-1.40081,-0.0421185,0.239292,
2,0,0,0,0,37728.4,0.220483,0.220203,-0.272094,57,0.793736,10,-5.9916e-05,-3.56528,-0.610304,-0.0966731,0.220323,
2,0,0,1,0,37732.2,0.201506,0.201183,-0.284936,57,0.792625,10,-5.73241e-05,-3.54525,-0.69419,-0.0849912,0.201308,
2,0,0,0,0,37736,0.182529,0.182184,-0.305016,57,0.791453,10,-5.55692e-05,-3.51568,-0.483905,-0.121925,0.182319,
2,0,0,1,0,37739.8,0.163552,0.163214,-0.338292,57,0.790185,10,-5.52139e-05,-3.47071,-0.307483,-0.19188,0.163363,
2,0,0,0,0,37743.5,0.144575,0.144252,-0.438448,57,0.788693,10,-6.32467e-05,-3.35808,-0.103709,-0.568897,0.144444,
2,0,0,1,0,37747.3,0.125598,0.125272,-0.658609,57,0.786543,10,-8.25055e-05,-3.18137,-0.175703,-0.335794,0.125562,
2,0,0,1,0,37751.1,0.10662,0.106261,-0.706528,57,0.783834,10,-7.50765e-05,-3.15087,1.56313,0.0377447,0.106572,
2,0,0,1,0,37754.9,0.0876433,0.0873074,-0.669234,57,0.781158,10,-5.84291e-05,-3.17442,0.686453,0.0859491,0.0876019,
2,0,0,1,0,37758.7,0.0686664,0.0683328,-0.625131,57,0.778646,10,-4.27169e-05,-3.20403,0.741895,0.0795261,0.0686078,
2,0,0,1,0,37762.5,0.0496895,0.0493434,-0.579017,57,0.776295,10,-2.85707e-05,-3.23731,0.45958,0.128378,0.0495981,
2,0,0,1,0,37766.3,0.0307126,0.0303928,-0.530428,57,0.774125,10,-1.61212e-05,-3.27537,0.558718,0.105599,0.0306262,
2,0,0,1,0,37770.1,0.0117356,0.0114223,-0.49861,57,0.77212,10,-5.69526e-06,-3.30224,1.22939,0.0479914,0.0116417,
2,0,0,0,0,37772.4,0.000274105,-0.000120135,-0.499155,57,0.770943,10,5.99659e-08,-3.30176, , ,9.94934e-05,