File: Figure_codes/Fig_3-5/workspace_calculate_alpha_eff/20221101_1-115_003_TrumpetPlot_ParaChange_from10_every3_16_CV_C01_23.csv
mode,ox/red,error,control changes,counter inc.,time/s,control/V,Ewe/V,<I>/mA,cycle number,(Q-Qo)/C,I Range,P/W,log(|I|),Tafel slope mV/dec,alpha_eff,E-IR/V,
2,0,0,0,0,15761,2.44065e-05,-0.000325324,-0.105118,24,0.0000000E+000,10,3.41975e-08,-3.97832, , ,-0.000279071,
2,1,0,1,0,15764.8,0.0187763,0.0184274,0.219065,24,0.000730278,10,4.0368e-06,-3.65943,0.140283,0.420577,0.018331,
2,1,0,1,0,15768.6,0.0377538,0.03744,0.287968,24,0.00176329,10,1.07815e-05,-3.54066,0.174172,0.338745,0.0373133,
2,1,0,0,0,15772.4,0.0567309,0.0563831,0.35281,24,0.00305526,10,1.98925e-05,-3.45246,0.282877,0.208572,0.0562279,
2,1,0,1,0,15776.2,0.075708,0.0753845,0.404521,24,0.00456976,10,3.04946e-05,-3.39306,0.43173,0.13666,0.0752065,
2,1,0,0,0,15780,0.0946851,0.0943637,0.466156,24,0.00627337,10,4.39882e-05,-3.33147,0.249014,0.236935,0.0941586,
2,1,0,1,0,15783.8,0.113662,0.113348,0.573971,24,0.00831713,10,6.50585e-05,-3.24111,0.337522,0.174803,0.113096,
2,1,0,0,0,15787.6,0.132639,0.132345,0.641081,24,0.010705,10,8.4844e-05,-3.19309,-2.19066,-0.0269326,0.132063,
2,1,0,1,0,15791.4,0.151617,0.151315,0.425429,24,0.0128975,10,6.43739e-05,-3.37117,-0.0687954,-0.857616,0.151128,
2,1,0,1,0,15795.1,0.170594,0.170281,0.296861,24,0.0142641,10,5.05499e-05,-3.52745,-0.213186,-0.276753,0.170151,
2,1,0,1,0,15798.9,0.189571,0.189229,0.262708,24,0.0153794,10,4.97119e-05,-3.58053,-0.555505,-0.10621,0.189113,
2,1,0,1,0,15802.7,0.208547,0.208234,0.25017,24,0.0164161,10,5.2094e-05,-3.60176,-0.840431,-0.0702021,0.208124,
2,1,0,1,0,15806.5,0.227524,0.227252,0.241072,24,0.0174115,10,5.47842e-05,-3.61785,-1.35679,-0.0434851,0.227146,
2,1,0,1,0,15810.3,0.246501,0.246202,0.236366,24,0.0183824,10,5.81937e-05,-3.62642,-0.982044,-0.0600788,0.246098,
2,1,0,0,0,15814.1,0.265479,0.265179,0.233086,24,0.019336,10,6.18095e-05,-3.63248,-1.76582,-0.0334122,0.265077,
2,1,0,1,0,15817.9,0.284456,0.284144,0.229116,24,0.0202741,10,6.5102e-05,-3.63994,-0.920568,-0.0640908,0.284043,
2,1,0,0,0,15821.7,0.303433,0.303143,0.224192,24,0.0211957,10,6.79621e-05,-3.64938,-3.21681,-0.0183411,0.303044,
2,1,0,1,0,15825.5,0.32241,0.322109,0.220127,24,0.0221031,10,7.09048e-05,-3.65733,-1.23211,-0.0478852,0.322012,
2,1,0,0,0,15829.3,0.341387,0.341135,0.21908,24,0.0229975,10,7.47358e-05,-3.6594,2.03987,0.0289233,0.341039,
2,1,0,1,0,15833.1,0.360364,0.360081,0.218238,24,0.0238818,10,7.85833e-05,-3.66107,-1.6339,-0.0361099,0.359985,
2,1,0,1,0,15836.9,0.379342,0.379052,0.214322,24,0.0247571,10,8.12391e-05,-3.66893,-3.22079,-0.0183185,0.378958,
2,1,0,1,0,15840.7,0.398319,0.39802,0.213165,24,0.0256254,10,8.4844e-05,-3.67128,-2.33379,-0.0252807,0.397926,
2,1,0,1,0,15844.5,0.417295,0.417023,0.213961,24,0.0264904,10,8.92269e-05,-3.66966,4.17334,0.0141373,0.416929,
2,1,0,1,0,15848.3,0.436272,0.436035,0.213206,24,0.0273541,10,9.29653e-05,-3.6712,-9.96626,-0.00591998,0.435941,
2,1,0,1,0,15852.1,0.455249,0.454947,0.213656,24,0.0282177,10,9.72023e-05,-3.67028,11.146,0.00529338,0.454853,
2,1,0,1,0,15855.9,0.474226,0.473942,0.214935,24,0.029084,10,0.000101867,-3.66769,2.39621,0.0246222,0.473848,
2,1,0,1,0,15859.7,0.493203,0.492971,0.219046,24,0.0299597,10,0.000107983,-3.65946,1.33018,0.044355,0.492875,
2,1,0,0,0,15863.5,0.512181,0.511936,0.22369,24,0.0308498,10,0.000114515,-3.65035,1.77435,0.0332516,0.511837,
2,1,0,1,0,15867.3,0.531158,0.530893,0.230241,24,0.0317614,10,0.000122233,-3.63782,1.33864,0.0440745,0.530791,
2,1,0,0,0,15871.1,0.550135,0.549827,0.238925,24,0.0327054,10,0.000131367,-3.62174,0.752894,0.0783643,0.549722,
2,1,0,1,0,15874.9,0.569112,0.568874,0.25762,24,0.0336994,10,0.000146553,-3.58902,0.552386,0.106809,0.568761,
2,1,0,0,0,15878.6,0.588089,0.58779,0.283209,24,0.034773,10,0.000166467,-3.54789,0.324655,0.181731,0.587665,
2,1,0,1,0,15882.4,0.607066,0.606806,0.33256,24,0.0359833,10,0.0002018,-3.47813,0.228474,0.258235,0.60666,
2,1,0,1,0,15886.2,0.626044,0.62575,0.428281,24,0.0374555,10,0.000267997,-3.36827,0.139623,0.422567,0.625561,
2,1,0,1,0,15890,0.64502,0.644745,0.63016,24,0.0394673,10,0.000406292,-3.20055,0.092105,0.640573,0.644467,
2,1,0,1,0,15893.8,0.663997,0.663698,1.07073,24,0.0426484,10,0.000710639,-2.97032,0.0755594,0.780843,0.663227,
2,1,0,1,0,15897.6,0.682974,0.682742,1.95863,24,0.0482735,10,0.00133724,-2.70805,0.0700071,0.842772,0.68188,
2,1,0,1,0,15901.4,0.701951,0.701675,3.50855,24,0.0584707,10,0.00246186,-2.45487,0.0756176,0.780242,0.700132,
2,1,0,1,0,15905.2,0.720928,0.720666,5.81875,24,0.0759866,10,0.00419337,-2.23517,0.0889083,0.663605,0.718106,
2,1,0,1,0,15909,0.739905,0.739659,8.85407,24,0.103662,10,0.00654899,-2.05286,0.10502,0.561797,0.735763,
2,1,0,0,0,15912.8,0.758883,0.758619,12.6364,24,0.144231,10,0.0095862,-1.89838,0.116971,0.504399,0.753059,
2,1,0,1,0,15916.6,0.77786,0.777617,17.5381,24,0.201104,10,0.0136379,-1.75602,0.119538,0.493565,0.7699,
2,1,0,0,0,15920.4,0.796837,0.796548,23.9105,24,0.279314,10,0.0190458,-1.62141,0.124697,0.473146,0.786027,
2,1,0,1,0,15924.2,0.815814,0.815544,31.5114,24,0.384273,10,0.025699,-1.50153,0.145584,0.405263,0.801679,
2,1,0,0,0,15928,0.834791,0.834557,39.4536,24,0.518969,10,0.0329262,-1.40391,0.184058,0.320551,0.817198,
2,1,0,0,0,15931.7,0.846727,0.846533,43.3108,24,0.677465,10,0.0366641,-1.3634,0.135118,0.436655,0.827477,
2,1,0,1,0,15935.5,0.827749,0.827491,34.2816,24,0.82394,10,0.0283678,-1.46494,0.142716,0.413409,0.812407,
2,1,0,1,0,15939.3,0.808772,0.80857,26.5682,24,0.93841,10,0.0214822,-1.57564,0.126821,0.465222,0.79688,
2,1,0,1,0,15943.1,0.789795,0.789494,19.5034,24,1.0254,10,0.0153979,-1.70989,0.114086,0.517156,0.780913,
2,1,0,1,0,15946.9,0.770818,0.770582,13.7164,24,1.08802,10,0.0105696,-1.86276,0.10205,0.57815,0.764547,
2,1,0,1,0,15950.7,0.751841,0.751585,9.20922,24,1.13104,10,0.00692151,-2.03578,0.0947301,0.622822,0.747533,
2,1,0,1,0,15954.5,0.732865,0.732592,5.87098,24,1.15926,10,0.00430103,-2.23129,0.0831338,0.709699,0.730009,
2,1,0,0,0,15958.2,0.713887,0.713636,3.46462,24,1.17664,10,0.00247248,-2.46034,0.0725939,0.812741,0.712111,
2,1,0,1,0,15962,0.69491,0.694664,1.84866,24,1.18644,10,0.0012842,-2.73314,0.060864,0.969374,0.693851,
2,1,0,0,0,15965.8,0.675933,0.675679,0.865175,24,1.19136,10,0.00058458,-3.0629,0.0509685,1.15758,0.675298,
2,1,0,1,0,15969.6,0.656956,0.656656,0.334347,24,1.19347,10,0.000219551,-3.4758,0.0407243,1.44877,0.656509,
2,1,0,0,0,15973.4,0.637979,0.637657,0.0815364,24,1.19414,10,5.19922e-05,-4.08865,0.0218221,2.70368,0.637621,
2,0,0,1,0,15977.2,0.619002,0.618684,-0.0278743,24,1.19416,10,-1.72454e-05,-4.5548,-0.0174022,-3.39037,0.618696,
2,0,0,0,0,15981,0.600025,0.599725,-0.0744863,24,1.1939,10,-4.46713e-05,-4.12792,-0.108127,-0.545654,0.599758,
2,0,0,1,0,15984.8,0.581047,0.580717,-0.0961732,24,1.19351,10,-5.58494e-05,-4.01695,-0.378201,-0.156002,0.580759,
2,0,0,1,0,15988.6,0.56207,0.561786,-0.107234,24,1.19307,10,-6.02427e-05,-3.96967,-0.425496,-0.138662,0.561834,
2,0,0,1,0,15992.4,0.543093,0.542766,-0.114469,24,1.19259,10,-6.21298e-05,-3.94131,-0.818377,-0.0720939,0.542816,
2,0,0,1,0,15996.2,0.524116,0.523811,-0.118372,24,1.1921,10,-6.20044e-05,-3.92675,4.42854,0.0133227,0.523863,
2,0,0,1,0,16000,0.505139,0.504866,-0.122451,24,1.19159,10,-6.18214e-05,-3.91204,-1.42638,-0.0413633,0.50492,
2,0,0,1,0,16003.8,0.486162,0.485863,-0.130043,24,1.19105,10,-6.31829e-05,-3.88591,-0.780833,-0.0755604,0.48592,
2,0,0,1,0,16007.6,0.467185,0.466878,-0.134428,24,1.19049,10,-6.27616e-05,-3.87151,-1.61989,-0.0364222,0.466938,
2,0,0,1,0,16011.4,0.448208,0.447928,-0.141128,24,1.18991,10,-6.3215e-05,-3.85039,-1.73228,-0.0340591,0.44799,
2,0,0,0,0,16015.2,0.429231,0.428906,-0.149018,24,1.1893,10,-6.39146e-05,-3.82676,-1.64983,-0.0357614,0.428972,
2,0,0,1,0,16019,0.410254,0.40994,-0.157092,24,1.18866,10,-6.43982e-05,-3.80385,-3.93284,-0.0150019,0.410009,
2,0,0,0,0,16022.8,0.391277,0.390964,-0.167355,24,1.18798,10,-6.54298e-05,-3.77636,-0.664208,-0.0888276,0.391037,
2,0,0,1,0,16026.6,0.3723,0.371973,-0.176997,24,1.18726,10,-6.58382e-05,-3.75203,-0.610795,-0.0965954,0.372051,
2,0,0,1,0,16030.4,0.353322,0.353004,-0.186301,24,1.18651,10,-6.57649e-05,-3.72978,-0.556236,-0.10607,0.353086,
2,0,0,1,0,16034.2,0.334345,0.334049,-0.197826,24,1.18571,10,-6.60834e-05,-3.70372,-1.11742,-0.0528004,0.334136,
2,0,0,1,0,16038,0.315368,0.315068,-0.209186,24,1.18487,10,-6.59079e-05,-3.67947,-0.714587,-0.0825652,0.31516,
2,0,0,1,0,16041.7,0.296391,0.296045,-0.222361,24,1.18398,10,-6.58287e-05,-3.65294,-0.8035,-0.0734287,0.296142,
2,0,0,1,0,16045.5,0.277414,0.277111,-0.233919,24,1.18305,10,-6.48215e-05,-3.63093,-0.569618,-0.103578,0.277214,
2,0,0,1,0,16049.3,0.258437,0.258144,-0.245532,24,1.18207,10,-6.33825e-05,-3.60989,-0.722806,-0.0816263,0.258252,
2,0,0,1,0,16053.1,0.239461,0.239132,-0.257291,24,1.18105,10,-6.15264e-05,-3.58958,-0.971529,-0.060729,0.239245,
2,0,0,0,0,16056.9,0.220483,0.220177,-0.269237,24,1.17998,10,-5.92796e-05,-3.56987,-0.671178,-0.0879052,0.220295,
2,0,0,1,0,16060.7,0.201506,0.201203,-0.284275,24,1.17886,10,-5.71969e-05,-3.54626,-0.515533,-0.114445,0.201328,
2,0,0,0,0,16064.5,0.182529,0.182204,-0.30546,24,1.17767,10,-5.56558e-05,-3.51505,-0.315095,-0.187245,0.182338,
2,0,0,1,0,16068.3,0.163552,0.163223,-0.351623,24,1.17637,10,-5.73931e-05,-3.45392,-0.214651,-0.274864,0.163378,
2,0,0,0,0,16072.1,0.144575,0.144237,-0.494779,24,1.17475,10,-7.13653e-05,-3.30559,-0.0835951,-0.705783,0.144454,
2,0,0,1,0,16075.9,0.125598,0.125307,-0.746977,24,1.17227,10,-9.36018e-05,-3.12669,-0.256607,-0.229924,0.125636,
2,0,0,1,0,16079.7,0.10662,0.106302,-0.749873,24,1.1693,10,-7.97132e-05,-3.12501,0.608495,0.0969605,0.106632,
2,0,0,1,0,16083.5,0.0876433,0.0873223,-0.684401,24,1.1665,10,-5.97635e-05,-3.16469,0.503015,0.117293,0.0876235,
2,0,0,1,0,16087.3,0.0686664,0.0683813,-0.633368,24,1.16393,10,-4.33106e-05,-3.19834,0.691723,0.0852943,0.06866,
2,0,0,1,0,16091.1,0.0496895,0.0493644,-0.586312,24,1.16153,10,-2.89429e-05,-3.23187,0.573022,0.102963,0.0496223,
2,0,0,1,0,16094.9,0.0307126,0.0304255,-0.534953,24,1.15933,10,-1.62762e-05,-3.27168,0.510647,0.11554,0.0306609,
2,0,0,1,0,16098.7,0.0117356,0.0114392,-0.498823,24,1.1573,10,-5.70612e-06,-3.30205,1.25363,0.0470632,0.0116587,
2,0,0,0,0,16101,0.000274105,-0.000101048,-0.500291,24,1.15611,10,5.05532e-08,-3.30078, , ,0.000119081,