File: Figure_codes/Fig_3-5/workspace_calculate_alpha_eff/20221101_1-115_003_TrumpetPlot_ParaChange_from10_every3_16_CV_C01_51.csv
mode,ox/red,error,control changes,counter inc.,time/s,control/V,Ewe/V,<I>/mA,cycle number,(Q-Qo)/C,I Range,P/W,log(|I|),Tafel slope mV/dec,alpha_eff,E-IR/V,
2,0,0,1,0,34722.3,2.44065e-05,-0.000325324,-0.0497836,52,0.0000000E+000,10,1.61958e-08,-4.30291, , ,-0.000303419,
2,1,0,1,0,34726.1,0.0187763,0.0184648,0.265718,52,0.000890277,10,4.90641e-06,-3.57558,0.198021,0.297948,0.0183478,
2,1,0,0,0,34729.9,0.0377538,0.0374358,0.330706,52,0.0020822,10,1.23802e-05,-3.48056,0.222303,0.265403,0.0372902,
2,1,0,1,0,34733.7,0.0567309,0.0564064,0.390446,52,0.00351792,10,2.20237e-05,-3.40844,0.332709,0.177332,0.0562346,
2,1,0,0,0,34737.5,0.075708,0.0753782,0.43488,52,0.00515346,10,3.27805e-05,-3.36163,0.545437,0.10817,0.0751868,
2,1,0,1,0,34741.3,0.094685,0.0943435,0.486229,52,0.0069455,10,4.58726e-05,-3.31316,0.278969,0.211493,0.0941296,
2,1,0,0,0,34745.1,0.113662,0.113377,0.580422,52,0.00903431,10,6.58064e-05,-3.23626,0.386446,0.152673,0.113121,
2,1,0,1,0,34748.9,0.132639,0.132362,0.624394,52,0.0113981,10,8.26462e-05,-3.20454,-0.758757,-0.0777588,0.132088,
2,1,0,1,0,34752.7,0.151617,0.151317,0.423359,52,0.0135157,10,6.40617e-05,-3.37329,-0.0881554,-0.669272,0.151131,
2,1,0,1,0,34756.4,0.170594,0.170265,0.324406,52,0.0149368,10,5.52349e-05,-3.48891,-0.362255,-0.162869,0.170122,
2,1,0,1,0,34760.2,0.189571,0.189262,0.304544,52,0.0161772,10,5.76385e-05,-3.51635,-1.00119,-0.05893,0.189128,
2,1,0,1,0,34764,0.208547,0.208231,0.294501,52,0.0173644,10,6.13242e-05,-3.53091,-1.27638,-0.0462244,0.208101,
2,1,0,1,0,34767.8,0.227524,0.227231,0.287721,52,0.0185215,10,6.53793e-05,-3.54103,-1.01022,-0.0584033,0.227105,
2,1,0,1,0,34771.6,0.246501,0.24624,0.282964,52,0.0196579,10,6.9677e-05,-3.54827,-1.17642,-0.0501523,0.246116,
2,1,0,1,0,34775.4,0.265479,0.265181,0.278178,52,0.0207762,10,7.37675e-05,-3.55568,-0.847214,-0.06964,0.265059,
2,1,0,0,0,34779.2,0.284456,0.284179,0.274903,52,0.0218778,10,7.81216e-05,-3.56082,-4.59851,-0.0128302,0.284058,
2,1,0,1,0,34783,0.303433,0.303134,0.270891,52,0.0229628,10,8.21165e-05,-3.5672,-1.40708,-0.0419309,0.303015,
2,1,0,0,0,34786.8,0.32241,0.322079,0.266881,52,0.0240328,10,8.59566e-05,-3.57368,-6.59,-0.00895296,0.321961,
2,1,0,1,0,34790.6,0.341387,0.341085,0.263955,52,0.0250881,10,9.00313e-05,-3.57847,-2.00297,-0.0294562,0.340969,
2,1,0,0,0,34794.4,0.360364,0.360089,0.26129,52,0.0261311,10,9.40878e-05,-3.58288,-8.85936,-0.00665962,0.359974,
2,1,0,1,0,34798.2,0.379342,0.379008,0.260087,52,0.0271655,10,9.85751e-05,-3.58488,-9.42088,-0.00626269,0.378893,
2,1,0,1,0,34802,0.398319,0.398007,0.25637,52,0.02819,10,0.000102037,-3.59113,-1.57185,-0.0375354,0.397894,
2,1,0,1,0,34805.8,0.417295,0.417004,0.25577,52,0.0292057,10,0.000106657,-3.59215,13.7065,0.00430451,0.416892,
2,1,0,1,0,34809.6,0.436272,0.435988,0.254589,52,0.0302157,10,0.000110998,-3.59416,-33.6565,-0.001753,0.435876,
2,1,0,1,0,34813.4,0.455249,0.454968,0.254845,52,0.0312237,10,0.000115946,-3.59372,4.74144,0.0124435,0.454856,
2,1,0,1,0,34817.2,0.474226,0.473947,0.254944,52,0.0322318,10,0.00012083,-3.59356,1.44997,0.0406904,0.473835,
2,1,0,1,0,34821,0.493203,0.492908,0.257081,52,0.0332435,10,0.000126717,-3.58993,1.44545,0.0408179,0.492795,
2,1,0,1,0,34824.8,0.512181,0.511868,0.260624,52,0.0342655,10,0.000133405,-3.58399,41.5924,0.00141853,0.511753,
2,1,0,0,0,34828.6,0.531158,0.530913,0.266373,52,0.0353041,10,0.000141421,-3.57451,2.47624,0.0238265,0.530796,
2,1,0,1,0,34832.4,0.550135,0.549871,0.274652,52,0.0363686,10,0.000151023,-3.56122,0.835966,0.070577,0.54975,
2,1,0,0,0,34836.2,0.569112,0.56877,0.28856,52,0.0374731,10,0.000164125,-3.53976,0.816082,0.0722966,0.568644,
2,1,0,1,0,34839.9,0.588089,0.587761,0.308776,52,0.0386403,10,0.000181487,-3.51036,0.54109,0.109039,0.587625,
2,1,0,0,0,34843.7,0.607066,0.606781,0.345474,52,0.0399127,10,0.000209627,-3.46158,0.288338,0.204621,0.606629,
2,1,0,1,0,34847.5,0.626044,0.625791,0.415941,52,0.0413789,10,0.000260292,-3.38097,0.19462,0.303155,0.625608,
2,1,0,1,0,34851.3,0.64502,0.644726,0.557852,52,0.0432322,10,0.000359662,-3.25348,0.123279,0.478588,0.64448,
2,1,0,1,0,34855.1,0.663997,0.663735,0.858231,52,0.0458896,10,0.000569638,-3.0664,0.0892036,0.661408,0.663358,
2,1,0,1,0,34858.9,0.682974,0.682689,1.44688,52,0.050186,10,0.000987766,-2.83957,0.079745,0.739858,0.682052,
2,1,0,1,0,34862.7,0.701951,0.70167,2.46085,52,0.0574874,10,0.0017267,-2.60892,0.0820459,0.71911,0.700587,
2,1,0,1,0,34866.5,0.720928,0.720632,3.97259,52,0.0695718,10,0.00286277,-2.40093,0.0943611,0.625257,0.718884,
2,1,0,1,0,34870.3,0.739905,0.739624,5.99715,52,0.0883641,10,0.00443563,-2.22206,0.109645,0.538102,0.736985,
2,1,0,1,0,34874.1,0.758883,0.758613,8.56274,52,0.115852,10,0.00649581,-2.06739,0.122982,0.479744,0.754845,
2,1,0,0,0,34877.9,0.77786,0.77759,11.8061,52,0.154275,10,0.00918029,-1.92789,0.127517,0.462685,0.772395,
2,1,0,1,0,34881.7,0.796837,0.796592,16.1254,52,0.206964,10,0.0128453,-1.79249,0.129372,0.45605,0.789497,
2,1,0,0,0,34885.5,0.815814,0.815499,21.6128,52,0.278349,10,0.0176253,-1.66529,0.143893,0.410027,0.80599,
2,1,0,1,0,34889.3,0.834791,0.834553,27.8773,52,0.372081,10,0.023265,-1.55475,0.155955,0.378315,0.822287,
2,1,0,1,0,34893,0.846726,0.846482,31.4041,52,0.486259,10,0.0265831,-1.50301,0.116771,0.505262,0.832665,
2,1,0,1,0,34896.8,0.827749,0.827564,23.7766,52,0.59022,10,0.0196767,-1.62385,0.128769,0.458185,0.817103,
2,1,0,1,0,34900.6,0.808772,0.808504,17.6345,52,0.668387,10,0.0142576,-1.75364,0.121985,0.483667,0.800744,
2,1,0,1,0,34904.4,0.789795,0.789526,12.69,52,0.725517,10,0.0100191,-1.89654,0.114012,0.51749,0.783942,
2,1,0,1,0,34908.2,0.770818,0.770548,8.88479,52,0.766085,10,0.00684616,-2.05135,0.108703,0.542761,0.766639,
2,1,0,1,0,34912,0.751841,0.751551,6.0199,52,0.794075,10,0.00452426,-2.22041,0.101352,0.582132,0.748902,
2,1,0,1,0,34915.8,0.732865,0.732588,3.94716,52,0.81285,10,0.00289164,-2.40372,0.0900663,0.655073,0.730851,
2,1,0,1,0,34919.6,0.713887,0.713612,2.38918,52,0.82467,10,0.00170495,-2.62175,0.0782166,0.754316,0.712561,
2,1,0,0,0,34923.3,0.69491,0.694608,1.30491,52,0.831505,10,0.0009064,-2.88442,0.0651549,0.905534,0.694034,
2,1,0,1,0,34927.1,0.675933,0.67563,0.622798,52,0.835015,10,0.000420781,-3.20565,0.0515305,1.14495,0.675356,
2,1,0,0,0,34930.9,0.656956,0.656616,0.243212,52,0.836546,10,0.000159697,-3.61401,0.0400502,1.47315,0.656508,
2,1,0,1,0,34934.7,0.637979,0.637689,0.0568195,52,0.837033,10,3.62332e-05,-4.2455,0.0184342,3.20057,0.637664,
2,0,0,0,0,34938.5,0.619002,0.618699,-0.0259014,52,0.83703,10,-1.60252e-05,-4.58668,-0.0234886,-2.51186,0.61871,
2,0,0,1,0,34942.3,0.600024,0.599723,-0.0620224,52,0.836816,10,-3.71962e-05,-4.20745,-0.129044,-0.457209,0.59975,
2,0,0,1,0,34946.1,0.581047,0.58072,-0.0797341,52,0.836505,10,-4.63032e-05,-4.09836,-0.360924,-0.163469,0.580755,
2,0,0,1,0,34949.9,0.56207,0.561722,-0.0889041,52,0.836145,10,-4.99394e-05,-4.05108,-0.55388,-0.106521,0.561761,
2,0,0,1,0,34953.7,0.543093,0.542796,-0.0956134,52,0.835756,10,-5.18985e-05,-4.01948,-1.6117,-0.0366072,0.542838,
2,0,0,1,0,34957.5,0.524116,0.523825,-0.10079,52,0.835345,10,-5.27965e-05,-3.99658,-0.832284,-0.0708893,0.52387,
2,0,0,1,0,34961.3,0.505139,0.504837,-0.105593,52,0.834913,10,-5.33073e-05,-3.97636,-1.1323,-0.0521061,0.504883,
2,0,0,1,0,34965.1,0.486162,0.485822,-0.111369,52,0.834461,10,-5.41055e-05,-3.95324,-0.662169,-0.0891011,0.485871,
2,0,0,1,0,34968.9,0.467185,0.466865,-0.118001,52,0.833985,10,-5.50904e-05,-3.92811,-0.590469,-0.0999206,0.466917,
2,0,0,0,0,34972.7,0.448208,0.44789,-0.124965,52,0.833483,10,-5.59706e-05,-3.90321,-0.644421,-0.091555,0.447945,
2,0,0,1,0,34976.5,0.429231,0.428913,-0.133195,52,0.832951,10,-5.71291e-05,-3.87551,-1.7839,-0.0330737,0.428972,
2,0,0,0,0,34980.3,0.410254,0.409953,-0.142267,52,0.832385,10,-5.8323e-05,-3.84689,-1.23321,-0.0478428,0.410016,
2,0,0,1,0,34984.1,0.391277,0.390964,-0.151325,52,0.831783,10,-5.91625e-05,-3.82009,-0.554822,-0.10634,0.39103,
2,0,0,0,0,34987.9,0.3723,0.371971,-0.161735,52,0.831142,10,-6.01608e-05,-3.79119,-0.663794,-0.088883,0.372042,
2,0,0,1,0,34991.7,0.353322,0.352975,-0.172746,52,0.830459,10,-6.09752e-05,-3.76259,-0.556575,-0.106005,0.353051,
2,0,0,1,0,34995.5,0.334345,0.334046,-0.184497,52,0.829733,10,-6.16303e-05,-3.73401,-0.709009,-0.0832147,0.334127,
2,0,0,1,0,34999.3,0.315368,0.315046,-0.195787,52,0.828962,10,-6.1682e-05,-3.70822,-1.15897,-0.0509071,0.315132,
2,0,0,1,0,35003.1,0.296391,0.296072,-0.208472,52,0.828146,10,-6.17227e-05,-3.68095,-0.535073,-0.110265,0.296164,
2,0,0,1,0,35006.8,0.277414,0.277101,-0.22088,52,0.827281,10,-6.1206e-05,-3.65584,-1.52963,-0.0385715,0.277198,
2,0,0,1,0,35010.6,0.258437,0.258128,-0.233369,52,0.826368,10,-6.0239e-05,-3.63196,-0.766532,-0.0769701,0.258231,
2,0,0,1,0,35014.4,0.239461,0.239126,-0.244441,52,0.825407,10,-5.84523e-05,-3.61183,-1.09649,-0.0538079,0.239234,
2,0,0,1,0,35018.2,0.220483,0.220182,-0.257725,52,0.824401,10,-5.67463e-05,-3.58884,-0.703396,-0.0838788,0.220295,
2,0,0,0,0,35022,0.201506,0.201134,-0.271551,52,0.823346,10,-5.46181e-05,-3.56615,-0.414217,-0.142437,0.201253,
2,0,0,1,0,35025.8,0.182529,0.182263,-0.290433,52,0.822228,10,-5.29352e-05,-3.53695,-0.425609,-0.138625,0.182391,
2,0,0,0,0,35029.6,0.163552,0.163268,-0.326217,52,0.821011,10,-5.32608e-05,-3.48649,-0.244431,-0.241377,0.163411,
2,0,0,1,0,35033.4,0.144575,0.144246,-0.429144,52,0.819561,10,-6.19024e-05,-3.3674,-0.0977292,-0.603709,0.144435,
2,0,0,0,0,35037.2,0.125598,0.125303,-0.652334,52,0.81744,10,-8.17395e-05,-3.18553,-0.180603,-0.326683,0.12559,
2,0,0,1,0,35041,0.10662,0.106274,-0.696135,52,0.81476,10,-7.39808e-05,-3.15731,1.72608,0.0341816,0.10658,
2,0,0,1,0,35044.8,0.0876433,0.0873066,-0.659625,52,0.81212,10,-5.75896e-05,-3.1807,0.650619,0.0906829,0.0875969,
2,0,0,1,0,35048.6,0.0686664,0.0683264,-0.616892,52,0.809642,10,-4.215e-05,-3.20979,0.753799,0.0782702,0.0685979,
2,0,0,1,0,35052.4,0.0496895,0.0493761,-0.573855,52,0.807318,10,-2.83347e-05,-3.2412,0.550731,0.10713,0.0496286,
2,0,0,1,0,35056.2,0.0307126,0.0303992,-0.525235,52,0.805168,10,-1.59667e-05,-3.27965,0.528561,0.111624,0.0306303,
2,0,0,1,0,35060,0.0117356,0.0114234,-0.494526,52,0.803177,10,-5.64916e-06,-3.30581,1.21777,0.0484493,0.011641,
2,0,0,1,0,35062.3,0.000274105,-0.000117749,-0.495486,52,0.802009,10,5.8343e-08,-3.30497, , ,0.000100265,