File: Figure_codes/Fig_3-5/workspace_calculate_alpha_eff/20221101_1-115_003_TrumpetPlot_ParaChange_from10_every3_16_CV_C01_32.csv
mode,ox/red,error,control changes,counter inc.,time/s,control/V,Ewe/V,<I>/mA,cycle number,(Q-Qo)/C,I Range,P/W,log(|I|),Tafel slope mV/dec,alpha_eff,E-IR/V,
2,0,0,0,0,21671.4,2.44065e-05,-0.00042076,-0.105118,33,0.0000000E+000,10,4.42296e-08,-3.97832, , ,-0.000374508,
2,1,0,1,0,21675.2,0.0187763,0.0184212,0.216795,33,0.000712122,10,3.99364e-06,-3.66395,0.130689,0.451453,0.0183259,
2,1,0,1,0,21679,0.0377538,0.0374018,0.284978,33,0.00172803,10,1.06587e-05,-3.54519,0.183455,0.321606,0.0372764,
2,1,0,0,0,21682.8,0.0567309,0.0564319,0.348187,33,0.00300066,10,1.96488e-05,-3.45819,0.322262,0.183081,0.0562787,
2,1,0,1,0,21686.6,0.075708,0.0754079,0.397487,33,0.0044882,10,2.99736e-05,-3.40068,0.4986,0.118331,0.075233,
2,1,0,0,0,21690.4,0.0946851,0.094352,0.456576,33,0.00615724,10,4.30789e-05,-3.34049,0.228686,0.257995,0.0941511,
2,1,0,1,0,21694.2,0.113662,0.113309,0.561378,33,0.00815447,10,6.36091e-05,-3.25074,0.358908,0.164387,0.113062,
2,1,0,0,0,21697.9,0.132639,0.132301,0.619504,33,0.0104722,10,8.19608e-05,-3.20796,-1.25797,-0.0469009,0.132028,
2,1,0,1,0,21701.7,0.151617,0.151296,0.408528,33,0.0125711,10,6.18088e-05,-3.38878,-0.0711829,-0.828851,0.151117,
2,1,0,1,0,21705.5,0.170594,0.170287,0.291698,33,0.0138953,10,4.96724e-05,-3.53507,-0.210292,-0.280562,0.170158,
2,1,0,1,0,21709.3,0.189571,0.189252,0.263933,33,0.0149991,10,4.995e-05,-3.57851,-0.820692,-0.0718906,0.189136,
2,1,0,1,0,21713.1,0.208547,0.20822,0.251632,33,0.0160352,10,5.2395e-05,-3.59923,-0.969154,-0.0608778,0.20811,
2,1,0,1,0,21716.9,0.227524,0.227221,0.244141,33,0.0170326,10,5.5474e-05,-3.61236,-0.715954,-0.0824075,0.227113,
2,1,0,1,0,21720.7,0.246501,0.246203,0.238752,33,0.0180056,10,5.87815e-05,-3.62205,-0.764884,-0.0771358,0.246098,
2,1,0,0,0,21724.5,0.265479,0.265171,0.236183,33,0.0189622,10,6.26289e-05,-3.62675,-1.64749,-0.0358121,0.265067,
2,1,0,1,0,21728.3,0.284456,0.284165,0.230437,33,0.0199027,10,6.54821e-05,-3.63745,-2.35122,-0.0250934,0.284063,
2,1,0,0,0,21732.1,0.303433,0.303065,0.226597,33,0.020826,10,6.86738e-05,-3.64475,-0.84841,-0.0695418,0.302966,
2,1,0,1,0,21735.9,0.32241,0.322134,0.223394,33,0.0217342,10,7.19626e-05,-3.65093,26.1333,0.00225765,0.322035,
2,1,0,0,0,21739.7,0.341387,0.341114,0.221103,33,0.0226304,10,7.54212e-05,-3.65541,-3.93274,-0.0150022,0.341017,
2,1,0,1,0,21743.5,0.360364,0.360094,0.218981,33,0.0235163,10,7.88538e-05,-3.65959,24.2956,0.00242842,0.359998,
2,1,0,1,0,21747.3,0.379342,0.37905,0.216896,33,0.0243924,10,8.22145e-05,-3.66375,-4.93309,-0.01196,0.378955,
2,1,0,1,0,21751.1,0.398319,0.397986,0.215112,33,0.0252606,10,8.56115e-05,-3.66734,4.94377,0.0119342,0.397891,
2,1,0,1,0,21754.9,0.417295,0.41702,0.214516,33,0.0261251,10,8.94574e-05,-3.66854,3.81744,0.0154554,0.416926,
2,1,0,1,0,21758.7,0.436272,0.435959,0.215536,33,0.0269874,10,9.3965e-05,-3.66648,4.10484,0.0143733,0.435864,
2,1,0,1,0,21762.5,0.455249,0.454981,0.215837,33,0.0278487,10,9.82017e-05,-3.66587,95.9365,0.00061499,0.454886,
2,1,0,1,0,21766.3,0.474226,0.473895,0.216785,33,0.0287145,10,0.000102733,-3.66397,1.76227,0.0334796,0.4738,
2,1,0,1,0,21770.1,0.493203,0.492929,0.219844,33,0.0295882,10,0.000108368,-3.65789,1.33209,0.0442914,0.492833,
2,1,0,0,0,21773.9,0.512181,0.511871,0.224168,33,0.0304758,10,0.000114745,-3.64943,3.9531,0.014925,0.511773,
2,1,0,1,0,21777.7,0.531158,0.53088,0.231142,33,0.031384,10,0.000122709,-3.63612,1.71864,0.0343294,0.530778,
2,1,0,0,0,21781.4,0.550135,0.54986,0.241803,33,0.0323226,10,0.000132958,-3.61654,0.67663,0.0871968,0.549754,
2,1,0,1,0,21785.2,0.569112,0.568856,0.256439,33,0.0333075,10,0.000145877,-3.59102,0.606219,0.0973245,0.568744,
2,1,0,0,0,21789,0.588089,0.587837,0.281722,33,0.0343661,10,0.000165606,-3.55018,0.39855,0.148037,0.587713,
2,1,0,1,0,21792.8,0.607066,0.606786,0.32293,33,0.0355478,10,0.000195949,-3.49089,0.244742,0.24107,0.606644,
2,1,0,1,0,21796.6,0.626044,0.625756,0.408399,33,0.0369609,10,0.000255558,-3.38891,0.149147,0.395584,0.625576,
2,1,0,1,0,21800.4,0.64502,0.644773,0.583388,33,0.0388484,10,0.000376153,-3.23404,0.101803,0.579548,0.644517,
2,1,0,1,0,21804.2,0.663997,0.663725,0.96356,33,0.0417433,10,0.000639539,-3.01612,0.0782167,0.754315,0.663301,
2,1,0,1,0,21808,0.682974,0.682687,1.71347,33,0.0467198,10,0.00116977,-2.76612,0.0733604,0.804248,0.681933,
2,1,0,1,0,21811.8,0.701951,0.70169,3.01287,33,0.0555447,10,0.0021141,-2.52102,0.0794171,0.742913,0.700365,
2,1,0,1,0,21815.6,0.720928,0.720638,4.93571,33,0.0704748,10,0.00355686,-2.30665,0.092347,0.638895,0.718467,
2,1,0,1,0,21819.4,0.739905,0.739624,7.46971,33,0.0938705,10,0.00552478,-2.1267,0.108011,0.546243,0.736337,
2,1,0,0,0,21823.2,0.758883,0.758614,10.6416,33,0.128066,10,0.0080729,-1.97299,0.121239,0.486643,0.753932,
2,1,0,1,0,21827,0.77786,0.777546,14.7018,33,0.175841,10,0.0114313,-1.83263,0.118745,0.496862,0.771077,
2,1,0,0,0,21830.8,0.796837,0.79656,20.0086,33,0.241333,10,0.0159381,-1.69878,0.124497,0.473909,0.787756,
2,1,0,1,0,21834.6,0.815814,0.815538,26.4953,33,0.329374,10,0.0216079,-1.57683,0.143453,0.411284,0.80388,
2,1,0,0,0,21838.4,0.834791,0.834533,33.7111,33,0.443607,10,0.028133,-1.47223,0.17128,0.344466,0.8197,
2,1,0,0,0,21842.1,0.846727,0.846502,37.7603,33,0.580596,10,0.0319642,-1.42296,0.129113,0.456964,0.829887,
2,1,0,1,0,21845.9,0.827749,0.827567,29.3168,33,0.707317,10,0.0242616,-1.53288,0.1388,0.425071,0.814668,
2,1,0,1,0,21849.7,0.808772,0.808513,22.0802,33,0.804431,10,0.0178522,-1.656,0.120715,0.488754,0.798798,
2,1,0,1,0,21853.5,0.789795,0.789467,16.0371,33,0.876297,10,0.0126607,-1.79488,0.795868,0.0741329,0.78241,
2,1,0,1,0,21857.3,0.770818,0.770567,11.8294,33,0.930538,10,0.00911538,-1.92704,0.101356,0.582109,0.765362,
2,1,0,1,0,21861.1,0.751841,0.751567,7.89672,33,0.967611,10,0.00593491,-2.10255,0.0883396,0.667877,0.748092,
2,1,0,1,0,21864.8,0.732865,0.732611,5.05862,33,0.991864,10,0.003706,-2.29597,0.0878384,0.671688,0.730385,
2,1,0,0,0,21868.6,0.713887,0.713606,3.01626,33,1.00691,10,0.00215242,-2.52053,0.0741694,0.795476,0.712279,
2,1,0,1,0,21872.4,0.69491,0.694639,1.62218,33,1.01548,10,0.00112683,-2.7899,0.0622108,0.948389,0.693925,
2,1,0,0,0,21876.2,0.675933,0.675679,0.75895,33,1.01981,10,0.000512806,-3.11979,0.0512165,1.15197,0.675345,
2,1,0,1,0,21880,0.656956,0.656637,0.289458,33,1.02166,10,0.000190069,-3.53841,0.0382549,1.54229,0.656509,
2,1,0,0,0,21883.8,0.637979,0.637691,0.075235,33,1.02222,10,4.79766e-05,-4.12358,0.0243241,2.42558,0.637657,
2,0,0,1,0,21887.6,0.619002,0.618721,-0.0338901,33,1.02221,10,-2.09685e-05,-4.46993,-0.0237025,-2.48919,0.618736,
2,0,0,0,0,21891.4,0.600025,0.599724,-0.0780846,33,1.02194,10,-4.68292e-05,-4.10743,-0.125429,-0.470384,0.599758,
2,0,0,1,0,21895.2,0.581047,0.58075,-0.0990155,33,1.02155,10,-5.75032e-05,-4.0043,-0.230078,-0.256435,0.580793,
2,0,0,1,0,21899,0.56207,0.561777,-0.109183,33,1.0211,10,-6.13366e-05,-3.96184,-0.791376,-0.0745537,0.561825,
2,0,0,1,0,21902.8,0.543093,0.542804,-0.11493,33,1.02063,10,-6.23843e-05,-3.93957,-1.46424,-0.0402939,0.542855,
2,0,0,1,0,21906.6,0.524116,0.523809,-0.120244,33,1.02013,10,-6.29847e-05,-3.91994,-1.01712,-0.0580067,0.523862,
2,0,0,1,0,21910.4,0.505139,0.504849,-0.124074,33,1.01961,10,-6.26386e-05,-3.90632,-1.23042,-0.0479512,0.504904,
2,0,0,1,0,21914.2,0.486162,0.485868,-0.129691,33,1.01908,10,-6.30128e-05,-3.88709,-1.0919,-0.0540341,0.485925,
2,0,0,1,0,21918,0.467185,0.46685,-0.136297,33,1.01852,10,-6.36301e-05,-3.86551,-2.53559,-0.0232687,0.46691,
2,0,0,1,0,21921.8,0.448208,0.447933,-0.143857,33,1.01794,10,-6.44385e-05,-3.84207,-0.777723,-0.0758625,0.447996,
2,0,0,0,0,21925.6,0.429231,0.428918,-0.150184,33,1.01733,10,-6.44165e-05,-3.82338,-1.54459,-0.038198,0.428984,
2,0,0,1,0,21929.4,0.410254,0.409981,-0.159188,33,1.01669,10,-6.52642e-05,-3.79809,-1.62715,-0.0362598,0.410051,
2,0,0,0,0,21933.2,0.391277,0.39097,-0.16909,33,1.01601,10,-6.6109e-05,-3.77188,-0.772017,-0.0764232,0.391044,
2,0,0,1,0,21937,0.3723,0.372016,-0.178482,33,1.01529,10,-6.63982e-05,-3.74841,-0.68311,-0.0863697,0.372095,
2,0,0,1,0,21940.8,0.353322,0.353002,-0.189371,33,1.01454,10,-6.68484e-05,-3.72269,-0.866235,-0.0681108,0.353085,
2,0,0,1,0,21944.5,0.334345,0.334038,-0.199879,33,1.01374,10,-6.6767e-05,-3.69923,-0.746499,-0.0790356,0.334126,
2,0,0,1,0,21948.3,0.315368,0.315055,-0.211291,33,1.0129,10,-6.65682e-05,-3.67512,-0.796915,-0.0740355,0.315147,
2,0,0,1,0,21952.1,0.296391,0.296058,-0.224003,33,1.01201,10,-6.6318e-05,-3.64975,-0.829047,-0.071166,0.296157,
2,0,0,1,0,21955.9,0.277414,0.277128,-0.235399,33,1.01108,10,-6.52356e-05,-3.6282,-1.12333,-0.0525225,0.277232,
2,0,0,1,0,21959.7,0.258437,0.258148,-0.24857,33,1.0101,10,-6.41678e-05,-3.60455,-0.744793,-0.0792166,0.258257,
2,0,0,1,0,21963.5,0.239461,0.239166,-0.259591,33,1.00908,10,-6.20853e-05,-3.58571,-0.854688,-0.069031,0.23928,
2,0,0,0,0,21967.3,0.220483,0.2202,-0.271258,33,1.00801,10,-5.9731e-05,-3.56662,-0.653574,-0.0902729,0.220319,
2,0,0,1,0,21971.1,0.201506,0.201211,-0.284889,33,1.00689,10,-5.73228e-05,-3.54532,-0.561005,-0.105168,0.201337,
2,0,0,0,0,21974.9,0.182529,0.182255,-0.306604,33,1.0057,10,-5.58802e-05,-3.51342,-0.354566,-0.1664,0.18239,
2,0,0,1,0,21978.7,0.163552,0.1632,-0.348333,33,1.00441,10,-5.68479e-05,-3.45801,-0.248996,-0.236952,0.163353,
2,0,0,0,0,21982.5,0.144575,0.144311,-0.476102,33,1.00283,10,-6.87067e-05,-3.3223,-0.0879522,-0.670819,0.14452,
2,0,0,1,0,21986.3,0.125598,0.125255,-0.718462,33,1.00046,10,-8.99912e-05,-3.1436,-0.224002,-0.263391,0.125572,
2,0,0,1,0,21990.1,0.10662,0.106315,-0.737532,33,0.997567,10,-7.84108e-05,-3.13222,0.768635,0.0767594,0.10664,
2,0,0,1,0,21993.9,0.0876433,0.0872937,-0.681298,33,0.9948,10,-5.9473e-05,-3.16666,0.512192,0.115191,0.0875935,
2,0,0,1,0,21997.7,0.0686664,0.0683644,-0.632809,33,0.992242,10,-4.32616e-05,-3.19873,0.606778,0.0972349,0.0686428,
2,0,0,1,0,22001.5,0.0496895,0.0493515,-0.584511,33,0.989856,10,-2.88465e-05,-3.23321,0.484275,0.121832,0.0496087,
2,0,0,1,0,22005.3,0.0307126,0.0304159,-0.533913,33,0.987658,10,-1.62395e-05,-3.27253,0.47596,0.12396,0.0306508,
2,0,0,1,0,22009.1,0.0117356,0.0114222,-0.499644,33,0.985632,10,-5.70703e-06,-3.30134,0.877889,0.0672067,0.011642,
2,0,0,0,0,22011.4,0.000274105,-7.00306e-05,-0.500038,33,0.984444,10,3.5018e-08,-3.301, , ,0.000149986,