File: Figure_codes/Fig_3-5/workspace_calculate_alpha_eff/20221101_1-115_002_TrumpetPlot_ParaChange_18_CV_C01_5.csv
mode,ox/red,error,control changes,counter inc.,time/s,control/V,Ewe/V,<I>/mA,cycle number,(Q-Qo)/C,I Range,P/W,log(|I|),Tafel slope mV/dec,alpha_eff,E-IR/V,
2,1,0,0,0,7408.43,2.44065e-05,-0.000306236,0.0786949,6,0.0000000E+000,10,-2.40992e-08,-4.10405, , ,-0.000369192,
2,1,0,1,0,7412.08,0.0182777,0.0179893,0.263419,6,0.000957353,10,4.73871e-06,-3.57935,0.269706,0.218757,0.0177785,
2,1,0,0,0,7415.78,0.036755,0.0364952,0.305327,6,0.00208681,10,1.1143e-05,-3.51523,0.277608,0.21253,0.0362509,
2,1,0,1,0,7419.47,0.0552323,0.0549372,0.370373,6,0.00340189,10,2.03473e-05,-3.43136,0.189414,0.311487,0.0546409,
2,1,0,1,0,7423.17,0.0737106,0.0734241,0.453392,6,0.00500633,10,3.32899e-05,-3.34353,0.291273,0.202559,0.0730613,
2,1,0,1,0,7426.86,0.0921881,0.0918951,0.522249,6,0.00688963,10,4.79921e-05,-3.28212,0.304565,0.193719,0.0914773,
2,1,0,1,0,7430.56,0.110665,0.110337,0.631973,6,0.00906663,10,6.97303e-05,-3.1993,0.155379,0.379716,0.109832,
2,1,0,1,0,7434.26,0.129144,0.128875,0.81443,6,0.0118282,10,0.000104959,-3.08915,0.179832,0.328085,0.128223,
2,1,0,0,0,7437.95,0.147621,0.147312,0.81849,6,0.0150517,10,0.000120573,-3.08699,-0.138805,-0.425056,0.146657,
2,1,0,0,0,7441.65,0.166099,0.165781,0.486759,6,0.0175313,10,8.06955e-05,-3.31269,-0.0869941,-0.678207,0.165392,
2,1,0,1,0,7445.34,0.184576,0.184246,0.353,6,0.019113,10,6.50388e-05,-3.45223,-0.25811,-0.228585,0.183964,
2,1,0,1,0,7449.04,0.203054,0.202774,0.314829,6,0.0204144,10,6.38393e-05,-3.50192,-0.48072,-0.122733,0.202522,
2,1,0,1,0,7452.73,0.221532,0.221251,0.296122,6,0.0216148,10,6.55173e-05,-3.52853,-0.778284,-0.0758078,0.221014,
2,1,0,1,0,7456.43,0.240009,0.239719,0.284811,6,0.0227641,10,6.82744e-05,-3.54544,-0.802245,-0.0735436,0.239491,
2,1,0,1,0,7460.12,0.258488,0.258164,0.278079,6,0.0238825,10,7.17901e-05,-3.55583,-2.90418,-0.0203156,0.257942,
2,1,0,0,0,7463.82,0.276965,0.276635,0.274479,6,0.0249792,10,7.59305e-05,-3.56149,-1.33329,-0.0442514,0.276415,
2,1,0,1,0,7467.52,0.295442,0.295203,0.269774,6,0.0260595,10,7.96383e-05,-3.569,-3.73304,-0.0158048,0.294988,
2,1,0,1,0,7471.21,0.313921,0.313653,0.264981,6,0.0271241,10,8.3112e-05,-3.57679,-1.67184,-0.0352905,0.313441,
2,1,0,1,0,7474.91,0.332398,0.332103,0.262697,6,0.0281728,10,8.72422e-05,-3.58055,-1.42302,-0.0414613,0.331892,
2,1,0,1,0,7478.6,0.350875,0.350558,0.255881,6,0.0292081,10,8.97009e-05,-3.59196,-3.4649,-0.0170279,0.350353,
2,1,0,1,0,7482.3,0.369354,0.369062,0.253907,6,0.0302305,10,9.37074e-05,-3.59533,4.34394,0.0135821,0.368859,
2,1,0,0,0,7485.99,0.387831,0.387576,0.251648,6,0.0312408,10,9.75328e-05,-3.59921,-1.95698,-0.0301485,0.387374,
2,1,0,1,0,7489.69,0.406308,0.406036,0.249358,6,0.0322418,10,0.000101248,-3.60318,-0.96168,-0.061351,0.405836,
2,1,0,1,0,7493.38,0.424786,0.424514,0.248429,6,0.0332372,10,0.000105461,-3.6048,3.33623,0.0176846,0.424315,
2,1,0,1,0,7497.08,0.443264,0.443006,0.247461,6,0.034229,10,0.000109627,-3.60649,-2.76028,-0.0213746,0.442808,
2,1,0,1,0,7500.77,0.461741,0.46147,0.249392,6,0.0352216,10,0.000115087,-3.60312,3.34618,0.017632,0.46127,
2,1,0,1,0,7504.47,0.480219,0.479932,0.25098,6,0.0362181,10,0.000120453,-3.60036,5.51942,0.0106895,0.479731,
2,1,0,0,0,7508.17,0.498697,0.498417,0.254368,6,0.0372256,10,0.000126781,-3.59454,3.46417,0.0170315,0.498213,
2,1,0,1,0,7511.86,0.517174,0.516881,0.261236,6,0.0382533,10,0.000135028,-3.58297,2.53402,0.0232832,0.516672,
2,1,0,1,0,7515.56,0.535652,0.535384,0.271168,6,0.0393105,10,0.000145179,-3.56676,0.851191,0.0693146,0.535167,
2,1,0,1,0,7519.25,0.55413,0.553882,0.290442,6,0.0404183,10,0.000160871,-3.53694,0.50592,0.116619,0.55365,
2,1,0,1,0,7522.95,0.572608,0.57235,0.318678,6,0.04161,10,0.000182395,-3.49665,0.445897,0.132318,0.572095,
2,1,0,1,0,7526.64,0.591085,0.590818,0.37325,6,0.0429493,10,0.000220523,-3.428,0.235316,0.250726,0.59052,
2,1,0,0,0,7530.34,0.609563,0.609283,0.480347,6,0.0445726,10,0.000292668,-3.31844,0.133905,0.44061,0.608899,
2,1,0,0,0,7534.03,0.628041,0.627799,0.703334,6,0.0467768,10,0.000441553,-3.15284,0.091593,0.644154,0.627236,
2,1,0,1,0,7537.73,0.646518,0.646285,1.1973,6,0.0502434,10,0.000773795,-2.9218,0.0684925,0.861409,0.645327,
2,1,0,1,0,7541.43,0.664996,0.664743,2.27426,6,0.0564855,10,0.0015118,-2.64316,0.0601135,0.981477,0.662923,
2,1,0,1,0,7545.12,0.683474,0.683225,4.38469,6,0.068475,10,0.00299573,-2.35806,0.0590561,0.99905,0.679718,
2,1,0,1,0,7548.82,0.701951,0.701725,7.85117,6,0.0907474,10,0.00550937,-2.10507,0.0674506,0.874714,0.695444,
2,1,0,1,0,7552.51,0.720429,0.720154,12.4494,6,0.128071,10,0.00896551,-1.90485,0.0818884,0.720493,0.710195,
2,1,0,0,0,7556.21,0.738907,0.738675,17.9206,6,0.183934,10,0.0132375,-1.74665,0.0926859,0.636558,0.724339,
2,1,0,1,0,7559.9,0.757384,0.757128,24.4489,6,0.262423,10,0.0185109,-1.61174,0.275638,0.214049,0.737569,
2,1,0,1,0,7563.6,0.775862,0.775637,31.2655,6,0.36438,10,0.0242507,-1.50493,0.119155,0.495153,0.750625,
2,1,0,1,0,7567.29,0.79434,0.794102,39.2104,6,0.494779,10,0.031137,-1.4066,0.148021,0.398592,0.762733,
2,1,0,1,0,7570.99,0.812817,0.812603,46.7983,6,0.653921,10,0.0380284,-1.32977,0.191158,0.308646,0.775165,
2,1,0,1,0,7574.69,0.831295,0.831061,53.669,6,0.839755,10,0.0446022,-1.27028,0.277135,0.212892,0.788126,
2,1,0,0,0,7578.38,0.849748,0.84953,58.8991,6,1.04792,10,0.0500366,-1.22989,-0.681528,-0.0865702,0.802411,
2,1,0,1,0,7581.98,0.832244,0.832,51.3611,6,1.24564,10,0.0427324,-1.28937,0.233484,0.252694,0.790911,
2,1,0,1,0,7585.67,0.813766,0.813542,44.1775,6,1.42219,10,0.0359403,-1.3548,0.142165,0.41501,0.7782,
2,1,0,0,0,7589.37,0.795289,0.795051,36.549,6,1.5713,10,0.0290583,-1.43712,0.127687,0.462066,0.765811,
2,1,0,0,0,7593.06,0.776811,0.776554,28.4727,6,1.69154,10,0.0221106,-1.54557,0.093472,0.631205,0.753776,
2,1,0,1,0,7596.76,0.758333,0.75814,20.7538,6,1.78212,10,0.0157343,-1.6829,0.0861468,0.684878,0.741537,
2,1,0,1,0,7600.46,0.739856,0.739604,14.0997,6,1.84603,10,0.0104282,-1.85079,0.0741474,0.795712,0.728324,
2,1,0,1,0,7604.15,0.721378,0.721134,8.94544,6,1.88816,10,0.00645086,-2.0484,0.0668261,0.882889,0.713978,
2,1,0,1,0,7607.85,0.7029,0.70264,5.11102,6,1.9136,10,0.00359121,-2.29149,0.0616098,0.95764,0.698551,
2,1,0,0,0,7611.54,0.684423,0.684133,2.61693,6,1.92743,10,0.00179033,-2.58221,0.0541329,1.08991,0.68204,
2,1,0,0,0,7615.24,0.665945,0.665674,1.20109,6,1.93414,10,0.000799536,-2.92042,0.0489274,1.20587,0.664713,
2,1,0,1,0,7618.93,0.647467,0.647178,0.492073,6,1.93703,10,0.000318459,-3.30797,0.0445997,1.32288,0.646785,
2,1,0,1,0,7622.63,0.62899,0.628787,0.172406,6,1.93811,10,0.000108406,-3.76345,0.0352024,1.67602,0.628649,
2,1,0,1,0,7626.32,0.610512,0.610317,0.0303035,6,1.93838,10,1.84947e-05,-4.51851,0.0142516,4.13988,0.610293,
2,0,0,1,0,7630.02,0.592034,0.591724,-0.0319764,6,1.93829,10,-1.89212e-05,-4.49517,-0.0307244,-1.9203,0.59175,
2,0,0,1,0,7633.71,0.573556,0.573224,-0.0632442,6,1.93805,10,-3.62531e-05,-4.19898,-0.108381,-0.544374,0.573274,
2,0,0,0,0,7637.41,0.555079,0.554785,-0.0767413,6,1.93772,10,-4.25749e-05,-4.11497,-0.166424,-0.354516,0.554846,
2,0,0,1,0,7641.11,0.536601,0.536352,-0.0857329,6,1.93735,10,-4.5983e-05,-4.06685,-0.329686,-0.178958,0.53642,
2,0,0,1,0,7644.8,0.518123,0.517855,-0.0930783,6,1.93695,10,-4.82011e-05,-4.03115,-2.29256,-0.0257354,0.517929,
2,0,0,1,0,7648.5,0.499646,0.499347,-0.0971385,6,1.93652,10,-4.85058e-05,-4.01261,-2402.91,-2.45536e-05,0.499424,
2,0,0,1,0,7652.19,0.481168,0.480885,-0.104235,6,1.93608,10,-5.01252e-05,-3.98199,-0.895971,-0.0658503,0.480969,
2,0,0,1,0,7655.89,0.46269,0.462454,-0.111555,6,1.93561,10,-5.15892e-05,-3.95251,-0.521411,-0.113155,0.462543,
2,0,0,0,0,7659.58,0.444213,0.443937,-0.119899,6,1.93511,10,-5.32275e-05,-3.92119,-0.814818,-0.0724088,0.444033,
2,0,0,1,0,7663.28,0.425735,0.425469,-0.128429,6,1.93459,10,-5.46423e-05,-3.89134,-0.590982,-0.0998338,0.425571,
2,0,0,1,0,7666.97,0.407257,0.407,-0.138911,6,1.93403,10,-5.65368e-05,-3.85726,-0.604462,-0.0976075,0.407111,
2,0,0,1,0,7670.67,0.38878,0.388456,-0.147054,6,1.93343,10,-5.71239e-05,-3.83252,-1.21442,-0.0485829,0.388573,
2,0,0,1,0,7674.37,0.370303,0.370027,-0.158281,6,1.93279,10,-5.85681e-05,-3.80057,-2.13391,-0.0276488,0.370154,
2,0,0,1,0,7678.06,0.351824,0.351554,-0.170155,6,1.93212,10,-5.98186e-05,-3.76916,-0.37835,-0.15594,0.35169,
2,0,0,0,0,7681.76,0.333347,0.333012,-0.180859,6,1.93139,10,-6.02283e-05,-3.74266,-12.7609,-0.0046235,0.333157,
2,0,0,0,0,7685.45,0.314869,0.314611,-0.192877,6,1.93063,10,-6.06814e-05,-3.71472,-0.824687,-0.0715423,0.314765,
2,0,0,1,0,7689.15,0.296391,0.296091,-0.206352,6,1.92982,10,-6.10991e-05,-3.68539,-0.492329,-0.119839,0.296256,
2,0,0,1,0,7692.84,0.277914,0.27761,-0.219277,6,1.92896,10,-6.08736e-05,-3.65901,-1.06258,-0.0555253,0.277786,
2,0,0,1,0,7696.54,0.259436,0.259174,-0.229451,6,1.92806,10,-5.94677e-05,-3.63931,-0.510774,-0.115511,0.259358,
2,0,0,1,0,7700.23,0.240958,0.240666,-0.242726,6,1.92712,10,-5.84159e-05,-3.61488,-1.03829,-0.056824,0.24086,
2,0,0,0,0,7703.93,0.222481,0.222169,-0.257144,6,1.92612,10,-5.71294e-05,-3.58982,-0.827234,-0.071322,0.222375,
2,0,0,0,0,7707.63,0.204003,0.203671,-0.277573,6,1.92506,10,-5.65336e-05,-3.55662,-0.434733,-0.135716,0.203893,
2,0,0,1,0,7711.32,0.185526,0.185221,-0.313063,6,1.9239,10,-5.79857e-05,-3.50437,-0.268196,-0.219988,0.185471,
2,0,0,1,0,7715.02,0.167047,0.166705,-0.404472,6,1.92253,10,-6.74276e-05,-3.39311,-0.123659,-0.477117,0.167029,
2,0,0,1,0,7718.71,0.14857,0.148283,-0.679358,6,1.92053,10,-0.000100737,-3.1679,-0.0748396,-0.788353,0.148827,
2,0,0,1,0,7722.41,0.130092,0.129801,-0.918625,6,1.91738,10,-0.000119239,-3.03686,-1.39092,-0.0424179,0.130536,
2,0,0,1,0,7726.1,0.111614,0.111325,-0.819134,6,1.91404,10,-9.11897e-05,-3.08664,0.238653,0.247221,0.11198,
2,0,0,0,0,7729.8,0.0931369,0.0928409,-0.694972,6,1.9112,10,-6.45218e-05,-3.15803,0.414812,0.142233,0.0933969,
2,0,0,1,0,7733.49,0.0746596,0.0743436,-0.637262,6,1.90867,10,-4.73764e-05,-3.19568,0.527073,0.111939,0.0748534,
2,0,0,1,0,7737.19,0.0561813,0.0558771,-0.565453,6,1.90636,10,-3.15959e-05,-3.2476,0.297198,0.198521,0.0563295,
2,0,0,1,0,7740.89,0.0377039,0.0373403,-0.50318,6,1.90431,10,-1.87889e-05,-3.29828,0.377377,0.156342,0.0377429,
2,0,0,1,0,7744.58,0.0192267,0.018926,-0.48071,6,1.90243,10,-9.0979e-06,-3.31812,1.3396,0.0440429,0.0193105,
2,0,0,1,0,7748.28,0.00074842,0.000369174,-0.490145,6,1.90057,10,-1.80949e-07,-3.30968, , ,0.00076129,
2,0,0,0,0,7748.37,0.000274105,-6.0487e-05,-0.49002,6,1.90053,10,2.96398e-08,-3.30979, , ,0.000331529,