File: Figure_codes/Fig_3-5/workspace_calculate_alpha_eff/20221101_1-115_003_TrumpetPlot_ParaChange_from10_every3_16_CV_C01_48.csv
mode,ox/red,error,control changes,counter inc.,time/s,control/V,Ewe/V,<I>/mA,cycle number,(Q-Qo)/C,I Range,P/W,log(|I|),Tafel slope mV/dec,alpha_eff,E-IR/V,
2,0,0,1,0,32752.2,2.44065e-05,-0.000248974,-0.0491475,49,0.0000000E+000,10,1.22365e-08,-4.3085, , ,-0.000227349,
2,1,0,1,0,32756,0.0187763,0.018471,0.269722,49,0.000919763,10,4.98204e-06,-3.56908,0.166559,0.354229,0.0183523,
2,1,0,0,0,32759.8,0.0377538,0.037387,0.335602,49,0.00213651,10,1.25471e-05,-3.47418,0.202751,0.290997,0.0372393,
2,1,0,1,0,32763.5,0.0567309,0.0564202,0.395427,49,0.00359971,10,2.23101e-05,-3.40293,0.342024,0.172502,0.0562462,
2,1,0,0,0,32767.3,0.075708,0.0754036,0.439128,49,0.00526145,10,3.31118e-05,-3.35741,0.537286,0.109811,0.0752104,
2,1,0,1,0,32771.1,0.094685,0.0943658,0.491662,49,0.00708119,10,4.63961e-05,-3.30833,0.260107,0.226829,0.0941495,
2,1,0,0,0,32774.9,0.113662,0.113342,0.590995,49,0.00920764,10,6.69844e-05,-3.22842,0.400962,0.147146,0.113082,
2,1,0,1,0,32778.7,0.132639,0.132317,0.634356,49,0.0116222,10,8.39359e-05,-3.19767,-0.776359,-0.0759958,0.132038,
2,1,0,1,0,32782.5,0.151617,0.15133,0.423797,49,0.0137718,10,6.41332e-05,-3.37284,-0.0818031,-0.721244,0.151144,
2,1,0,1,0,32786.3,0.170594,0.170272,0.321098,49,0.015193,10,5.46739e-05,-3.49336,-0.316331,-0.186514,0.170131,
2,1,0,1,0,32790.1,0.189571,0.189227,0.301811,49,0.016431,10,5.71107e-05,-3.52026,-0.751134,-0.0785479,0.189094,
2,1,0,1,0,32793.9,0.208547,0.208197,0.292591,49,0.0176181,10,6.09166e-05,-3.53374,-2.82371,-0.0208945,0.208068,
2,1,0,1,0,32797.7,0.227524,0.227215,0.286689,49,0.018776,10,6.51401e-05,-3.54259,-0.926003,-0.0637147,0.227089,
2,1,0,1,0,32801.5,0.246501,0.246196,0.280848,49,0.0199144,10,6.91438e-05,-3.55153,-0.854589,-0.069039,0.246073,
2,1,0,1,0,32805.3,0.265479,0.265178,0.277462,49,0.0210361,10,7.35769e-05,-3.5568,-2.05053,-0.0287731,0.265056,
2,1,0,0,0,32809.1,0.284456,0.284151,0.272079,49,0.0221397,10,7.73116e-05,-3.5653,-2.78549,-0.0211812,0.284031,
2,1,0,1,0,32812.9,0.303433,0.303135,0.269098,49,0.0232265,10,8.15731e-05,-3.57009,-4.18893,-0.0140847,0.303017,
2,1,0,0,0,32816.7,0.32241,0.322135,0.265459,49,0.0242984,10,8.55134e-05,-3.576,-6.0861,-0.00969422,0.322018,
2,1,0,1,0,32820.5,0.341387,0.341052,0.262455,49,0.0253567,10,8.95109e-05,-3.58095,5.65112,0.0104404,0.340937,
2,1,0,0,0,32824.3,0.360364,0.360053,0.261293,49,0.0264036,10,9.40794e-05,-3.58287,8.18544,0.00720792,0.359938,
2,1,0,1,0,32828.1,0.379342,0.379014,0.258279,49,0.0274393,10,9.78915e-05,-3.58791,-5.57113,-0.0105903,0.378901,
2,1,0,1,0,32831.9,0.398319,0.39798,0.256005,49,0.0284663,10,0.000101885,-3.59175,2.52174,0.0233965,0.397867,
2,1,0,1,0,32835.7,0.417295,0.417025,0.255207,49,0.0294857,10,0.000106428,-3.59311,-3.73174,-0.0158103,0.416913,
2,1,0,1,0,32839.5,0.436272,0.43602,0.253219,49,0.0304978,10,0.000110409,-3.5965,-3.01207,-0.0195878,0.435909,
2,1,0,1,0,32843.2,0.455249,0.454982,0.253645,49,0.031507,10,0.000115404,-3.59577,2.99483,0.0197006,0.454871,
2,1,0,1,0,32847,0.474226,0.473931,0.253407,49,0.0325184,10,0.000120098,-3.59618,0.98726,0.0597614,0.47382,
2,1,0,1,0,32850.8,0.493203,0.492897,0.256764,49,0.0335347,10,0.000126558,-3.59047,1.2919,0.0456691,0.492784,
2,1,0,1,0,32854.6,0.512181,0.511848,0.260746,49,0.0345608,10,0.000133462,-3.58378,1.34451,0.0438823,0.511733,
2,1,0,0,0,32858.4,0.531158,0.530861,0.266479,49,0.0356047,10,0.000141463,-3.57434,1.09553,0.0538551,0.530744,
2,1,0,1,0,32862.2,0.550135,0.549806,0.275266,49,0.0366763,10,0.000151343,-3.56025,0.569714,0.103561,0.549685,
2,1,0,0,0,32866,0.569112,0.568846,0.289606,49,0.0377893,10,0.000164741,-3.53819,1.00745,0.0585634,0.568718,
2,1,0,1,0,32869.8,0.588089,0.58781,0.311876,49,0.0389673,10,0.000183324,-3.50602,0.415973,0.141836,0.587673,
2,1,0,0,0,32873.6,0.607066,0.606773,0.349492,49,0.040255,10,0.000212062,-3.45656,0.300759,0.19617,0.606619,
2,1,0,1,0,32877.4,0.626044,0.625708,0.423939,49,0.0417486,10,0.000265262,-3.3727,0.175163,0.336828,0.625522,
2,1,0,1,0,32881.2,0.64502,0.644761,0.574941,49,0.0436518,10,0.0003707,-3.24038,0.114666,0.514536,0.644508,
2,1,0,1,0,32885,0.663997,0.66372,0.8973,49,0.0464161,10,0.000595556,-3.04706,0.0846307,0.697147,0.663325,
2,1,0,1,0,32888.8,0.682974,0.682682,1.53162,49,0.0509423,10,0.00104561,-2.81485,0.0778856,0.757521,0.682008,
2,1,0,1,0,32892.6,0.701951,0.701659,2.63206,49,0.0587202,10,0.00184681,-2.5797,0.0822727,0.717127,0.700501,
2,1,0,1,0,32896.4,0.720928,0.720634,4.28036,49,0.0717005,10,0.00308457,-2.36852,0.0917609,0.642975,0.718751,
2,1,0,1,0,32900.2,0.739905,0.739644,6.50366,49,0.0920243,10,0.00481039,-2.18684,0.103972,0.567462,0.736782,
2,1,0,1,0,32904,0.758883,0.758579,9.34101,49,0.121927,10,0.0070859,-2.02961,0.118685,0.497115,0.754469,
2,1,0,0,0,32907.8,0.77786,0.777598,12.9751,49,0.164006,10,0.0100894,-1.88689,0.121445,0.485817,0.771889,
2,1,0,1,0,32911.6,0.796837,0.796622,17.9278,49,0.222276,10,0.0142817,-1.74647,0.118674,0.497159,0.788734,
2,1,0,0,0,32915.4,0.815814,0.815506,24.2015,49,0.301892,10,0.0197364,-1.61616,0.133589,0.441652,0.804857,
2,1,0,1,0,32919.2,0.834791,0.834564,31.3708,49,0.407171,10,0.0261809,-1.50347,0.149117,0.395663,0.820761,
2,1,0,1,0,32922.9,0.846726,0.846461,35.1683,49,0.535441,10,0.0297686,-1.45385,0.11341,0.520238,0.830987,
2,1,0,1,0,32926.6,0.827749,0.827481,26.6107,49,0.651894,10,0.0220199,-1.57494,0.124594,0.47354,0.815773,
2,1,0,1,0,32930.4,0.808772,0.808463,19.6537,49,0.739159,10,0.0158893,-1.70656,0.109844,0.537127,0.799816,
2,1,0,1,0,32934.2,0.789795,0.789482,14.065,49,0.802513,10,0.011104,-1.85186,0.11183,0.527586,0.783293,
2,1,0,1,0,32938,0.770818,0.770565,9.82507,49,0.847456,10,0.00757086,-2.00766,0.106585,0.553551,0.766242,
2,1,0,1,0,32941.8,0.751841,0.751599,6.6149,49,0.878261,10,0.00497175,-2.17948,0.0992355,0.594545,0.748688,
2,1,0,1,0,32945.6,0.732865,0.732552,4.27506,49,0.898657,10,0.00313171,-2.36906,0.0882399,0.668632,0.730671,
2,1,0,1,0,32949.4,0.713887,0.713603,2.57619,49,0.91143,10,0.00183837,-2.58902,0.0774736,0.76155,0.712469,
2,1,0,0,0,32953.2,0.69491,0.694634,1.4064,49,0.918791,10,0.000976936,-2.85189,0.0638856,0.923526,0.694016,
2,1,0,1,0,32957,0.675933,0.675671,0.671154,49,0.922569,10,0.000453479,-3.17318,0.051598,1.14345,0.675376,
2,1,0,0,0,32960.8,0.656956,0.656652,0.262892,49,0.924213,10,0.000172629,-3.58022,0.0399987,1.47505,0.656536,
2,1,0,1,0,32964.6,0.637979,0.637717,0.0645137,49,0.924742,10,4.11415e-05,-4.19035,0.0208466,2.8302,0.637689,
2,0,0,0,0,32968.4,0.619002,0.618724,-0.0225063,49,0.924753,10,-1.39252e-05,-4.6477,-0.0174273,-3.3855,0.618734,
2,0,0,1,0,32972.2,0.600024,0.599729,-0.0607449,49,0.92454,10,-3.64305e-05,-4.21649,-0.100435,-0.587445,0.599756,
2,0,0,1,0,32976,0.581047,0.580775,-0.0791105,49,0.924227,10,-4.59454e-05,-4.10177,-0.296133,-0.199235,0.58081,
2,0,0,1,0,32979.8,0.56207,0.561745,-0.0892989,49,0.923862,10,-5.01632e-05,-4.04915,-0.491159,-0.120124,0.561784,
2,0,0,1,0,32983.6,0.543093,0.542766,-0.0946895,49,0.923468,10,-5.13942e-05,-4.0237,-0.528179,-0.111705,0.542808,
2,0,0,1,0,32987.4,0.524116,0.523807,-0.100428,49,0.923054,10,-5.26046e-05,-3.99815,-0.828376,-0.0712237,0.523851,
2,0,0,1,0,32991.2,0.505139,0.504816,-0.10572,49,0.922619,10,-5.33693e-05,-3.97584,-0.770227,-0.0766008,0.504862,
2,0,0,1,0,32995,0.486162,0.485847,-0.111526,49,0.922163,10,-5.41847e-05,-3.95262,-0.79532,-0.074184,0.485896,
2,0,0,1,0,32998.8,0.467185,0.466866,-0.118444,49,0.921681,10,-5.52973e-05,-3.92649,-0.680938,-0.0866452,0.466918,
2,0,0,0,0,33002.6,0.448208,0.447932,-0.12503,49,0.921173,10,-5.60048e-05,-3.90299,-1.29573,-0.045534,0.447987,
2,0,0,1,0,33006.4,0.429231,0.428937,-0.133791,49,0.920635,10,-5.7388e-05,-3.87357,-1.79604,-0.0328501,0.428996,
2,0,0,0,0,33010.1,0.410254,0.409926,-0.142417,49,0.920063,10,-5.83806e-05,-3.84644,-0.647694,-0.0910924,0.409988,
2,0,0,1,0,33013.9,0.391277,0.390965,-0.152018,49,0.919455,10,-5.94338e-05,-3.8181,-0.500739,-0.117826,0.391032,
2,0,0,0,0,33017.7,0.3723,0.371993,-0.162216,49,0.918807,10,-6.03434e-05,-3.78991,-0.810609,-0.0727848,0.372064,
2,0,0,1,0,33021.5,0.353322,0.352982,-0.172084,49,0.918119,10,-6.07425e-05,-3.76426,-0.538748,-0.109513,0.353058,
2,0,0,1,0,33025.3,0.334345,0.334032,-0.183861,49,0.917388,10,-6.14155e-05,-3.73551,-0.43532,-0.135532,0.334113,
2,0,0,1,0,33029.1,0.315368,0.315047,-0.193999,49,0.916613,10,-6.11187e-05,-3.7122,-0.583559,-0.101104,0.315132,
2,0,0,1,0,33032.9,0.296391,0.296079,-0.207314,49,0.915794,10,-6.13813e-05,-3.68337,-0.63139,-0.0934446,0.29617,
2,0,0,1,0,33036.7,0.277414,0.277126,-0.218923,49,0.914928,10,-6.06692e-05,-3.65971,-0.680419,-0.0867113,0.277222,
2,0,0,1,0,33040.5,0.258437,0.258121,-0.231804,49,0.914013,10,-5.98337e-05,-3.63488,-0.638673,-0.0923791,0.258223,
2,0,0,1,0,33044.3,0.239461,0.239154,-0.243863,49,0.913051,10,-5.83208e-05,-3.61285,-0.675495,-0.0873433,0.239261,
2,0,0,1,0,33048.1,0.220483,0.220199,-0.255422,49,0.912045,10,-5.62437e-05,-3.59274,-0.712634,-0.0827915,0.220311,
2,0,0,0,0,33051.9,0.201506,0.20119,-0.269633,49,0.910987,10,-5.42474e-05,-3.56923,-0.417458,-0.141331,0.201309,
2,0,0,1,0,33055.7,0.182529,0.182177,-0.289657,49,0.909866,10,-5.27689e-05,-3.53812,-0.385874,-0.1529,0.182304,
2,0,0,0,0,33059.5,0.163552,0.163256,-0.325191,49,0.908643,10,-5.30895e-05,-3.48786,-0.266917,-0.221043,0.163399,
2,0,0,1,0,33063.3,0.144575,0.144302,-0.431752,49,0.907183,10,-6.23028e-05,-3.36477,-0.0963862,-0.612121,0.144492,
2,0,0,0,0,33067.1,0.125598,0.125252,-0.658537,49,0.90503,10,-8.24833e-05,-3.18142,-0.177422,-0.33254,0.125542,
2,0,0,1,0,33070.9,0.10662,0.106262,-0.701134,49,0.902318,10,-7.45039e-05,-3.1542,1.30703,0.0451404,0.106571,
2,0,0,1,0,33074.7,0.0876433,0.0873182,-0.66041,49,0.899659,10,-5.76658e-05,-3.18019,0.622749,0.0947412,0.0876088,
2,0,0,1,0,33078.5,0.0686664,0.0682978,-0.616356,49,0.897171,10,-4.20957e-05,-3.21017,0.682703,0.0864212,0.068569,
2,0,0,1,0,33082.3,0.0496895,0.0493571,-0.573994,49,0.894839,10,-2.83306e-05,-3.24109,0.575292,0.102557,0.0496096,
2,0,0,1,0,33086.1,0.0307126,0.030431,-0.526045,49,0.892681,10,-1.60081e-05,-3.27898,0.474394,0.124369,0.0306625,
2,0,0,1,0,33089.9,0.0117356,0.0114476,-0.492872,49,0.890685,10,-5.6422e-06,-3.30727,1.14228,0.0516509,0.0116645,
2,0,0,1,0,33092.1,0.000274105,-5.45222e-05,-0.493812,49,0.889514,10,2.69237e-08,-3.30644, , ,0.000162755,