File: Figure_codes/Fig_3-5/workspace_calculate_alpha_eff/20221101_1-115_003_TrumpetPlot_ParaChange_from10_every3_16_CV_C01_96.csv
mode,ox/red,error,control changes,counter inc.,time/s,control/V,Ewe/V,<I>/mA,cycle number,(Q-Qo)/C,I Range,P/W,log(|I|),Tafel slope mV/dec,alpha_eff,E-IR/V,
2,0,0,1,0,64274.3,2.44065e-05,-0.000363498,-0.0376989,97,0.0000000E+000,10,1.37035e-08,-4.42367, , ,-0.000346911,
2,1,0,1,0,64278,0.0187763,0.0184318,0.257142,97,0.000858886,10,4.73957e-06,-3.58983,0.167206,0.352857,0.0183186,
2,1,0,0,0,64281.8,0.0377538,0.0374336,0.319247,97,0.00200838,10,1.19506e-05,-3.49587,0.223281,0.264241,0.0372932,
2,1,0,1,0,64285.6,0.0567309,0.0563672,0.37471,97,0.00338575,10,2.11214e-05,-3.4263,0.366868,0.160821,0.0562023,
2,1,0,0,0,64289.4,0.075708,0.0753941,0.417513,97,0.00494843,10,3.1478e-05,-3.37933,0.625104,0.0943842,0.0752104,
2,1,0,1,0,64293.2,0.094685,0.0943414,0.463943,97,0.00665782,10,4.37691e-05,-3.33354,0.276147,0.213654,0.0941373,
2,1,0,0,0,64297,0.113662,0.113335,0.55278,97,0.00864431,10,6.26495e-05,-3.25745,0.346768,0.170143,0.113092,
2,1,0,1,0,64300.8,0.132639,0.132294,0.579782,97,0.0108723,10,7.67019e-05,-3.23674,-0.45665,-0.129202,0.132039,
2,1,0,1,0,64304.6,0.151617,0.151289,0.391104,97,0.0128186,10,5.91697e-05,-3.40771,-0.091893,-0.642051,0.151117,
2,1,0,1,0,64308.4,0.170594,0.170314,0.311501,97,0.0141527,10,5.30531e-05,-3.50654,-0.348143,-0.16947,0.170177,
2,1,0,1,0,64312.2,0.189571,0.189236,0.29691,97,0.0153483,10,5.61861e-05,-3.52738,-0.908217,-0.0649624,0.189106,
2,1,0,1,0,64316,0.208547,0.20825,0.291414,97,0.0165087,10,6.0687e-05,-3.53549,-1.60199,-0.0368293,0.208122,
2,1,0,1,0,64319.8,0.227524,0.227208,0.287067,97,0.0176498,10,6.52239e-05,-3.54202,-1.17486,-0.0502189,0.227082,
2,1,0,1,0,64323.6,0.246501,0.246227,0.282989,97,0.0187748,10,6.96796e-05,-3.54823,-0.924601,-0.0638113,0.246103,
2,1,0,1,0,64327.4,0.265479,0.265172,0.279861,97,0.0198852,10,7.42111e-05,-3.55306,-4.03888,-0.014608,0.265049,
2,1,0,0,0,64331.2,0.284456,0.284162,0.276062,97,0.0209818,10,7.84462e-05,-3.55899,-12.7673,-0.00462117,0.28404,
2,1,0,1,0,64335,0.303433,0.303117,0.272309,97,0.0220635,10,8.25416e-05,-3.56494,-3.62599,-0.0162714,0.302998,
2,1,0,0,0,64338.8,0.32241,0.322102,0.267704,97,0.0231287,10,8.62279e-05,-3.57235,17.3172,0.00340702,0.321984,
2,1,0,1,0,64342.6,0.341387,0.341045,0.265514,97,0.024181,10,9.05524e-05,-3.57591,-2.79452,-0.0211127,0.340928,
2,1,0,0,0,64346.4,0.360364,0.360032,0.264555,97,0.0252226,10,9.5248e-05,-3.57748,-6.37551,-0.00925416,0.359915,
2,1,0,1,0,64350.2,0.379342,0.379038,0.260608,97,0.026254,10,9.87801e-05,-3.58401,12.3434,0.00477989,0.378923,
2,1,0,1,0,64353.9,0.398319,0.397963,0.25887,97,0.027276,10,0.000103021,-3.58692,-6.14825,-0.00959622,0.397849,
2,1,0,1,0,64357.7,0.417295,0.416994,0.25638,97,0.0282903,10,0.000106909,-3.59112,-2.54072,-0.0232218,0.416881,
2,1,0,1,0,64361.5,0.436272,0.435967,0.256036,97,0.0292979,10,0.000111623,-3.5917,11.4322,0.00516084,0.435854,
2,1,0,1,0,64365.3,0.455249,0.454936,0.255243,97,0.0303016,10,0.000116119,-3.59305,2.3923,0.0246624,0.454823,
2,1,0,1,0,64369.1,0.474226,0.473912,0.256502,97,0.0313037,10,0.000121559,-3.59091,1.46449,0.0402871,0.473799,
2,1,0,1,0,64372.9,0.493203,0.49294,0.257667,97,0.0323097,10,0.000127015,-3.58894,1.80118,0.0327563,0.492827,
2,1,0,1,0,64376.7,0.512181,0.511847,0.261385,97,0.0333237,10,0.000133789,-3.58272,3.0095,0.0196046,0.511732,
2,1,0,0,0,64380.5,0.531158,0.530884,0.265198,97,0.0343519,10,0.000140789,-3.57643,1.92166,0.0307026,0.530768,
2,1,0,1,0,64384.3,0.550135,0.549823,0.273162,97,0.0354014,10,0.000150191,-3.56358,1.46939,0.0401528,0.549703,
2,1,0,0,0,64388.1,0.569112,0.56879,0.284414,97,0.0364847,10,0.000161772,-3.54605,0.953346,0.0618873,0.568664,
2,1,0,1,0,64391.9,0.588089,0.58778,0.301087,97,0.0376207,10,0.000176973,-3.52131,0.628672,0.0938486,0.587648,
2,1,0,0,0,64395.7,0.607066,0.606763,0.329754,97,0.0388404,10,0.000200082,-3.48181,0.4263,0.1384,0.606618,
2,1,0,1,0,64399.5,0.626044,0.625795,0.380984,97,0.0402051,10,0.000238418,-3.41909,0.234984,0.25108,0.625628,
2,1,0,1,0,64403.3,0.64502,0.644722,0.483476,97,0.0418513,10,0.000311708,-3.31563,0.143831,0.410204,0.64451,
2,1,0,1,0,64407.1,0.663997,0.663709,0.690227,97,0.044059,10,0.000458109,-3.16101,0.105268,0.560474,0.663405,
2,1,0,1,0,64410.9,0.682974,0.682703,1.08416,97,0.0473788,10,0.000740162,-2.9649,0.0909118,0.648981,0.682226,
2,1,0,1,0,64414.7,0.701951,0.701656,1.75764,97,0.0526978,10,0.00123326,-2.75507,0.0897731,0.657212,0.700883,
2,1,0,1,0,64418.5,0.720928,0.720639,2.76009,97,0.0611872,10,0.00198903,-2.55908,0.0992564,0.59442,0.719425,
2,1,0,1,0,64422.3,0.739905,0.739648,4.11878,97,0.0741477,10,0.00304645,-2.38523,0.113254,0.520952,0.737836,
2,1,0,1,0,64426.1,0.758883,0.758626,5.88731,97,0.0930168,10,0.00446626,-2.23008,0.122033,0.483477,0.756035,
2,1,0,0,0,64429.9,0.77786,0.777628,8.16764,97,0.119533,10,0.00635139,-2.0879,0.129666,0.455016,0.774034,
2,1,0,1,0,64433.7,0.796837,0.796549,11.1408,97,0.155935,10,0.00887421,-1.95308,0.133104,0.443261,0.791647,
2,1,0,0,0,64437.4,0.815814,0.815517,15.088,97,0.205427,10,0.0123045,-1.82137,0.13444,0.438857,0.808879,
2,1,0,1,0,64441.2,0.834791,0.83456,20.0445,97,0.27183,10,0.0167283,-1.69801,0.14659,0.402484,0.825741,
2,1,0,1,0,64444.9,0.846726,0.846462,22.8285,97,0.354833,10,0.0193235,-1.64152,0.0980534,0.601713,0.836418,
2,1,0,1,0,64448.7,0.827749,0.827493,16.3367,97,0.428169,10,0.0135185,-1.78684,0.11813,0.499449,0.820305,
2,1,0,1,0,64452.5,0.808772,0.808527,11.8254,97,0.481169,10,0.00956115,-1.92718,0.11911,0.495342,0.803324,
2,1,0,1,0,64456.3,0.789795,0.789508,8.43927,97,0.519285,10,0.00666287,-2.07369,0.118379,0.498398,0.785794,
2,1,0,1,0,64460.1,0.770818,0.770601,5.9307,97,0.546284,10,0.0045702,-2.22689,0.114041,0.517357,0.767991,
2,1,0,1,0,64463.9,0.751841,0.751556,4.06549,97,0.565049,10,0.00305544,-2.39089,0.107555,0.548554,0.749767,
2,1,0,1,0,64467.7,0.732865,0.732618,2.6758,97,0.57769,10,0.00196034,-2.57255,0.0943784,0.625143,0.731441,
2,1,0,1,0,64471.5,0.713887,0.713588,1.64341,97,0.585762,10,0.00117272,-2.78425,0.0792083,0.744871,0.712865,
2,1,0,0,0,64475.3,0.69491,0.694647,0.917655,97,0.590511,10,0.000637446,-3.03732,0.0658093,0.89653,0.694243,
2,1,0,1,0,64479.1,0.675933,0.675647,0.43613,97,0.592977,10,0.00029467,-3.36038,0.0513738,1.14845,0.675455,
2,1,0,0,0,64482.9,0.656956,0.65666,0.160764,97,0.594027,10,0.000105567,-3.79381,0.0354286,1.66532,0.656589,
2,1,0,1,0,64486.7,0.637979,0.637701,0.0210795,97,0.59431,10,1.34424e-05,-4.67614,0.0103067,5.72443,0.637692,
2,0,0,0,0,64490.5,0.619002,0.618695,-0.0407113,97,0.594229,10,-2.51879e-05,-4.39029,-0.0467159,-1.26295,0.618713,
2,0,0,1,0,64494.3,0.600024,0.599712,-0.0685889,97,0.593987,10,-4.11336e-05,-4.16375,-0.133434,-0.442167,0.599742,
2,0,0,1,0,64498.1,0.581047,0.580736,-0.0824124,97,0.593668,10,-4.78598e-05,-4.08401,-0.494019,-0.119429,0.580772,
2,0,0,1,0,64501.9,0.56207,0.561767,-0.0906297,97,0.593309,10,-5.09128e-05,-4.04273,-1.96438,-0.0300349,0.561807,
2,0,0,1,0,64505.7,0.543093,0.542806,-0.0965513,97,0.592925,10,-5.24087e-05,-4.01524,-0.993076,-0.0594113,0.542849,
2,0,0,1,0,64509.5,0.524116,0.523749,-0.101403,97,0.592521,10,-5.31099e-05,-3.99395,-1.08207,-0.054525,0.523793,
2,0,0,1,0,64513.3,0.505139,0.504831,-0.106988,97,0.592096,10,-5.40107e-05,-3.97067,-1.51795,-0.0388683,0.504879,
2,0,0,1,0,64517.1,0.486162,0.485843,-0.113224,97,0.591648,10,-5.50091e-05,-3.94606,-1.93822,-0.0304403,0.485893,
2,0,0,1,0,64520.8,0.467185,0.466866,-0.1195,97,0.591177,10,-5.57902e-05,-3.92263,-1.35201,-0.0436388,0.466918,
2,0,0,0,0,64524.6,0.448208,0.447857,-0.127357,97,0.590678,10,-5.70378e-05,-3.89498,-0.846406,-0.0697065,0.447913,
2,0,0,1,0,64528.4,0.429231,0.428884,-0.135236,97,0.590148,10,-5.80004e-05,-3.86891,6.4037,0.00921342,0.428943,
2,0,0,0,0,64532.2,0.410254,0.409964,-0.143478,97,0.589584,10,-5.88206e-05,-3.84322,-1.1111,-0.0531008,0.410027,
2,0,0,1,0,64536,0.391277,0.390972,-0.154133,97,0.588985,10,-6.02615e-05,-3.81211,-2.36163,-0.0249828,0.39104,
2,0,0,0,0,64539.8,0.3723,0.371969,-0.164099,97,0.588348,10,-6.10396e-05,-3.78489,-0.64792,-0.0910606,0.372041,
2,0,0,1,0,64543.6,0.353322,0.353016,-0.17376,97,0.587671,10,-6.13402e-05,-3.76005,-0.733724,-0.0804117,0.353093,
2,0,0,1,0,64547.4,0.334345,0.334024,-0.185109,97,0.58695,10,-6.18309e-05,-3.73257,-0.493497,-0.119555,0.334105,
2,0,0,1,0,64551.2,0.315368,0.315023,-0.196224,97,0.586187,10,-6.1815e-05,-3.70725,-0.699405,-0.0843574,0.31511,
2,0,0,1,0,64555,0.296391,0.296033,-0.208746,97,0.585379,10,-6.17956e-05,-3.68038,-1.09619,-0.0538226,0.296125,
2,0,0,1,0,64558.8,0.277414,0.27712,-0.220318,97,0.584523,10,-6.10543e-05,-3.65695,-0.837626,-0.0704372,0.277216,
2,0,0,1,0,64562.6,0.258437,0.258087,-0.23327,97,0.583619,10,-6.0204e-05,-3.63214,-0.776647,-0.0759676,0.25819,
2,0,0,1,0,64566.4,0.239461,0.239129,-0.244216,97,0.582669,10,-5.83991e-05,-3.61223,-0.665015,-0.0887198,0.239236,
2,0,0,1,0,64570.2,0.220483,0.220152,-0.256101,97,0.581675,10,-5.63812e-05,-3.59159,-0.534645,-0.110354,0.220265,
2,0,0,0,0,64574,0.201506,0.201152,-0.270111,97,0.580631,10,-5.43334e-05,-3.56846,-0.530301,-0.111257,0.201271,
2,0,0,1,0,64577.8,0.182529,0.182224,-0.28638,97,0.579531,10,-5.21852e-05,-3.54306,-0.448894,-0.131434,0.18235,
2,0,0,0,0,64581.6,0.163552,0.163237,-0.31518,97,0.578346,10,-5.1449e-05,-3.50144,-0.396748,-0.148709,0.163376,
2,0,0,1,0,64585.4,0.144575,0.144307,-0.390161,97,0.576987,10,-5.63028e-05,-3.40876,-0.131509,-0.448639,0.144478,
2,0,0,0,0,64589.2,0.125598,0.125268,-0.575498,97,0.575119,10,-7.20916e-05,-3.23996,-0.14357,-0.410948,0.125521,
2,0,0,1,0,64593,0.10662,0.106295,-0.651006,97,0.572681,10,-6.91988e-05,-3.18641,-2.25425,-0.0261727,0.106582,
2,0,0,1,0,64596.8,0.0876433,0.0873267,-0.638001,97,0.570174,10,-5.57145e-05,-3.19518,0.879868,0.0670555,0.0876074,
2,0,0,1,0,64600.6,0.0686664,0.0683369,-0.603463,97,0.567766,10,-4.12388e-05,-3.21935,0.681896,0.0865234,0.0686025,
2,0,0,1,0,64604.3,0.0496895,0.0493411,-0.563444,97,0.565494,10,-2.7801e-05,-3.24915,0.6571,0.0897884,0.049589,
2,0,0,1,0,64608.1,0.0307126,0.0303695,-0.520117,97,0.563383,10,-1.57957e-05,-3.2839,0.489043,0.120644,0.0305984,
2,0,0,1,0,64611.9,0.0117356,0.0114125,-0.490662,97,0.561418,10,-5.59966e-06,-3.30922,1.33807,0.0440935,0.0116284,
2,0,0,1,0,64614.2,0.000274105,-0.000104626,-0.492599,97,0.560261,10,5.15389e-08,-3.30751, , ,0.000112117,