File: Figure_codes/Fig_3-5/workspace_calculate_alpha_eff/20221101_1-115_003_TrumpetPlot_ParaChange_from10_every3_16_CV_C01_18.csv
mode,ox/red,error,control changes,counter inc.,time/s,control/V,Ewe/V,<I>/mA,cycle number,(Q-Qo)/C,I Range,P/W,log(|I|),Tafel slope mV/dec,alpha_eff,E-IR/V,
2,0,0,1,0,13050.9,2.44065e-05,-0.00042076,-0.0478754,19,0.0000000E+000,10,2.01441e-08,-4.31989, , ,-0.000399695,
2,1,0,1,0,13054.7,0.0187763,0.0184359,0.277206,19,0.000940722,10,5.11054e-06,-3.5572,0.176579,0.334128,0.0183139,
2,1,0,0,0,13058.4,0.0377538,0.037405,0.344441,19,0.00218849,10,1.28838e-05,-3.46288,0.225618,0.261504,0.0372534,
2,1,0,1,0,13062.2,0.0567309,0.0563926,0.406273,19,0.00368821,10,2.29108e-05,-3.39118,0.307771,0.191701,0.0562139,
2,1,0,0,0,13066,0.075708,0.0753697,0.455645,19,0.00539991,10,3.43418e-05,-3.34137,0.493316,0.119599,0.0751692,
2,1,0,1,0,13069.8,0.0946851,0.0943435,0.51493,19,0.00729164,10,4.85803e-05,-3.28825,0.280452,0.210374,0.094117,
2,1,0,0,0,13073.6,0.113662,0.113417,0.619232,19,0.00951373,10,7.02315e-05,-3.20815,0.352997,0.16714,0.113145,
2,1,0,1,0,13077.4,0.132639,0.132336,0.687639,19,0.0120715,10,9.09992e-05,-3.16264,-3.08283,-0.0191383,0.132033,
2,1,0,1,0,13081.2,0.151617,0.151288,0.473819,19,0.0144377,10,7.1683e-05,-3.32439,-0.0815189,-0.723759,0.151079,
2,1,0,1,0,13085,0.170594,0.170227,0.342764,19,0.0159854,10,5.83479e-05,-3.465,-0.262279,-0.224951,0.170077,
2,1,0,1,0,13088.8,0.189571,0.189238,0.310627,19,0.0172746,10,5.87825e-05,-3.50776,-0.734261,-0.0803529,0.189102,
2,1,0,1,0,13092.6,0.208547,0.208255,0.296979,19,0.0184834,10,6.18475e-05,-3.52727,-1.5907,-0.0370906,0.208125,
2,1,0,1,0,13096.4,0.227524,0.227205,0.287518,19,0.0196505,10,6.53254e-05,-3.54134,-1.07828,-0.0547166,0.227078,
2,1,0,1,0,13100.2,0.246501,0.246197,0.281915,19,0.0207899,10,6.94064e-05,-3.54988,-0.912893,-0.0646297,0.246073,
2,1,0,1,0,13104,0.265479,0.265151,0.27771,19,0.0219091,10,7.36349e-05,-3.55641,-1.76887,-0.0333546,0.265028,
2,1,0,0,0,13107.8,0.284456,0.28417,0.273301,19,0.0230089,10,7.76641e-05,-3.56336,-11.5959,-0.00508802,0.28405,
2,1,0,1,0,13111.6,0.303433,0.303133,0.267726,19,0.024091,10,8.11566e-05,-3.57231,-3.46822,-0.0170116,0.303016,
2,1,0,0,0,13115.4,0.32241,0.322114,0.264468,19,0.0251576,10,8.51886e-05,-3.57763,-2.37573,-0.0248345,0.321997,
2,1,0,1,0,13119.2,0.341387,0.341058,0.261346,19,0.0262108,10,8.91342e-05,-3.58278,5.25093,0.0112361,0.340943,
2,1,0,0,0,13123,0.360364,0.360053,0.258998,19,0.0272518,10,9.3253e-05,-3.5867,-173.78,-0.00033951,0.359939,
2,1,0,1,0,13126.8,0.379342,0.379072,0.256105,19,0.0282823,10,9.70822e-05,-3.59158,-4.04101,-0.0146003,0.378959,
2,1,0,1,0,13130.6,0.398319,0.397992,0.253476,19,0.0293034,10,0.000100882,-3.59606,7.74778,0.00761508,0.397881,
2,1,0,1,0,13134.4,0.417295,0.417017,0.253416,19,0.0303176,10,0.000105679,-3.59617,-17.2796,-0.00341443,0.416905,
2,1,0,1,0,13138.2,0.436272,0.435987,0.252258,19,0.0313259,10,0.000109981,-3.59816,3.42177,0.0172425,0.435876,
2,1,0,1,0,13141.9,0.455249,0.454912,0.252003,19,0.0323325,10,0.000114639,-3.59859,1.81841,0.032446,0.454801,
2,1,0,1,0,13145.7,0.474226,0.47395,0.251869,19,0.0333415,10,0.000119373,-3.59883,1.67464,0.0352315,0.473839,
2,1,0,1,0,13149.5,0.493203,0.492903,0.254818,19,0.0343568,10,0.000125601,-3.59377,3.60187,0.0163804,0.492791,
2,1,0,1,0,13153.3,0.512181,0.511887,0.259513,19,0.0353833,10,0.000132842,-3.58584,1.81411,0.0325228,0.511773,
2,1,0,0,0,13157.1,0.531158,0.530856,0.266042,19,0.03643,10,0.00014123,-3.57505,1.77469,0.0332452,0.530739,
2,1,0,1,0,13160.9,0.550135,0.549855,0.275692,19,0.0375068,10,0.000151591,-3.55958,0.76936,0.0766871,0.549734,
2,1,0,0,0,13164.7,0.569112,0.568837,0.292293,19,0.0386331,10,0.000166267,-3.53418,0.58962,0.100065,0.568709,
2,1,0,1,0,13168.5,0.588089,0.587809,0.320228,19,0.0398396,10,0.000188233,-3.49454,0.419811,0.140539,0.587668,
2,1,0,0,0,13172.3,0.607066,0.606773,0.370434,19,0.041188,10,0.000224769,-3.43129,0.227209,0.259673,0.60661,
2,1,0,1,0,13176.1,0.626044,0.625758,0.471731,19,0.0428149,10,0.000295189,-3.32631,0.146406,0.40299,0.625551,
2,1,0,1,0,13179.9,0.64502,0.644733,0.687149,19,0.0450138,10,0.000443028,-3.16295,0.0992241,0.594614,0.644431,
2,1,0,1,0,13183.7,0.663997,0.663697,1.15095,19,0.0484446,10,0.000763885,-2.93894,0.0743064,0.794009,0.663191,
2,1,0,1,0,13187.5,0.682974,0.682688,2.07843,19,0.0544405,10,0.00141892,-2.68226,0.0707589,0.833818,0.681773,
2,1,0,1,0,13191.3,0.701951,0.701668,3.69163,19,0.0652049,10,0.0025903,-2.43278,0.0764079,0.772172,0.700043,
2,1,0,1,0,13195.1,0.720928,0.72066,6.07418,19,0.0835531,10,0.00437741,-2.21651,0.0898931,0.656335,0.717987,
2,1,0,1,0,13198.9,0.739905,0.739645,9.16441,19,0.112317,10,0.00677841,-2.0379,0.106312,0.554971,0.735613,
2,1,0,1,0,13202.7,0.758883,0.758609,12.9202,19,0.154043,10,0.00980136,-1.88873,0.120686,0.488873,0.752924,
2,1,0,0,0,13206.5,0.77786,0.777593,17.7365,19,0.211866,10,0.0137917,-1.75113,0.124481,0.473967,0.769789,
2,1,0,1,0,13210.3,0.796837,0.796582,23.7477,19,0.290312,10,0.018917,-1.62438,0.133848,0.440797,0.786133,
2,1,0,0,0,13214.1,0.815814,0.815547,30.7115,19,0.393459,10,0.0250467,-1.5127,0.153971,0.383189,0.802034,
2,1,0,1,0,13217.9,0.834791,0.834592,38.0992,19,0.524001,10,0.0317973,-1.41908,0.185806,0.317535,0.817828,
2,1,0,1,0,13221.5,0.846727,0.846443,41.7929,19,0.676784,10,0.0353753,-1.3789,0.151306,0.389938,0.828054,
2,1,0,1,0,13225.3,0.827749,0.827532,33.4803,19,0.819316,10,0.027706,-1.47521,0.149081,0.395758,0.8128,
2,1,0,1,0,13229.1,0.808772,0.808523,25.8524,19,0.931695,10,0.0209023,-1.5875,0.12949,0.455635,0.797148,
2,1,0,1,0,13232.9,0.789795,0.789497,19.2223,19,1.01687,10,0.0151759,-1.7162,0.118258,0.498908,0.78104,
2,1,0,1,0,13236.7,0.770818,0.770535,13.6608,19,1.07884,10,0.0105262,-1.86452,0.105896,0.557153,0.764524,
2,1,0,1,0,13240.5,0.751841,0.751621,8.92987,19,1.12151,10,0.00671188,-2.04915,0.0977144,0.6038,0.747692,
2,1,0,1,0,13244.3,0.732865,0.732612,5.84429,19,1.1493,10,0.0042816,-2.23327,0.0865727,0.681508,0.730041,
2,1,0,1,0,13248.1,0.713887,0.713628,3.48048,19,1.16668,10,0.00248377,-2.45836,0.0823645,0.716328,0.712097,
2,1,0,0,0,13251.9,0.69491,0.694659,1.92989,19,1.17679,10,0.00134062,-2.71447,0.0632585,0.93268,0.69381,
2,1,0,1,0,13255.7,0.675933,0.675636,0.922746,19,1.18197,10,0.000623441,-3.03492,0.0531015,1.11108,0.67523,
2,1,0,0,0,13259.5,0.656956,0.656675,0.376571,19,1.18427,10,0.000247285,-3.42415,0.0431664,1.3668,0.656509,
2,1,0,1,0,13263.3,0.637979,0.637718,0.114341,19,1.18509,10,7.29171e-05,-3.9418,0.0294578,2.00286,0.637668,
2,1,0,0,0,13267.1,0.619002,0.618709,-0.00123017,19,1.18522,10,-7.61119e-07,-5.91003,-0.0358654,-1.64504,0.61871,
2,0,0,1,0,13270.9,0.600025,0.599682,-0.0496671,19,1.18506,10,-2.97845e-05,-4.30393,-0.0691403,-0.853338,0.599704,
2,0,0,1,0,13274.7,0.581047,0.580762,-0.0724069,19,1.18477,10,-4.20512e-05,-4.14022,-0.199362,-0.295944,0.580794,
2,0,0,1,0,13278.5,0.56207,0.561744,-0.0852803,19,1.18442,10,-4.79057e-05,-4.06915,-0.395509,-0.149175,0.561782,
2,0,0,1,0,13282.3,0.543093,0.542787,-0.092019,19,1.18403,10,-4.99468e-05,-4.03612,-1.17112,-0.0503792,0.542828,
2,0,0,1,0,13286.1,0.524116,0.523877,-0.0977611,19,1.18362,10,-5.12148e-05,-4.00983,-0.705919,-0.083579,0.52392,
2,0,0,1,0,13289.9,0.505139,0.504856,-0.102803,19,1.18319,10,-5.19005e-05,-3.988,-0.632171,-0.0933291,0.504901,
2,0,0,1,0,13293.7,0.486162,0.485863,-0.107801,19,1.18274,10,-5.23764e-05,-3.96738,-0.55255,-0.106778,0.48591,
2,0,0,1,0,13297.5,0.467185,0.466859,-0.114798,19,1.18226,10,-5.35946e-05,-3.94007,-0.95425,-0.0618287,0.46691,
2,0,0,0,0,13301.3,0.448208,0.44793,-0.122254,19,1.18176,10,-5.47614e-05,-3.91274,-0.900652,-0.0655081,0.447984,
2,0,0,1,0,13305,0.429231,0.428951,-0.130626,19,1.18123,10,-5.6032e-05,-3.88397,-2.9035,-0.0203203,0.429008,
2,0,0,0,0,13308.8,0.410254,0.409948,-0.138986,19,1.18066,10,-5.69769e-05,-3.85703,-2.03675,-0.0289678,0.410009,
2,0,0,1,0,13312.6,0.391277,0.390994,-0.14913,19,1.18005,10,-5.83089e-05,-3.82644,-0.569601,-0.103581,0.39106,
2,0,0,0,0,13316.4,0.3723,0.371979,-0.159275,19,1.17941,10,-5.92471e-05,-3.79785,-0.617618,-0.0955282,0.372049,
2,0,0,1,0,13320.2,0.353322,0.353027,-0.16991,19,1.17873,10,-5.99828e-05,-3.76978,-2.23086,-0.0264472,0.353102,
2,0,0,1,0,13324,0.334345,0.33404,-0.182177,19,1.178,10,-6.08545e-05,-3.73951,-0.711311,-0.0829454,0.33412,
2,0,0,1,0,13327.8,0.315368,0.315088,-0.193772,19,1.17722,10,-6.10552e-05,-3.71271,-0.977226,-0.060375,0.315173,
2,0,0,1,0,13331.6,0.296391,0.296058,-0.206546,19,1.1764,10,-6.11498e-05,-3.68498,-0.67014,-0.0880413,0.296149,
2,0,0,1,0,13335.4,0.277414,0.277055,-0.218342,19,1.17554,10,-6.04927e-05,-3.66086,-0.855643,-0.068954,0.277151,
2,0,0,1,0,13339.2,0.258437,0.258129,-0.231797,19,1.17462,10,-5.98334e-05,-3.63489,-1.24576,-0.0473606,0.258231,
2,0,0,1,0,13343,0.239461,0.23914,-0.243835,19,1.17366,10,-5.83108e-05,-3.6129,-0.819745,-0.0719736,0.239248,
2,0,0,1,0,13346.8,0.220483,0.220162,-0.256852,19,1.17265,10,-5.65489e-05,-3.59032,-0.936791,-0.0629809,0.220275,
2,0,0,0,0,13350.6,0.201506,0.201182,-0.271868,19,1.17158,10,-5.46948e-05,-3.56564,-0.395587,-0.149145,0.201301,
2,0,0,1,0,13354.4,0.182529,0.182241,-0.295159,19,1.17044,10,-5.379e-05,-3.52994,-0.349568,-0.16878,0.18237,
2,0,0,0,0,13358.2,0.163552,0.163217,-0.344066,19,1.16918,10,-5.61574e-05,-3.46336,-0.212752,-0.277318,0.163368,
2,0,0,1,0,13362,0.144575,0.144247,-0.495917,19,1.16758,10,-7.15347e-05,-3.30459,-0.0802145,-0.735528,0.144466,
2,0,0,0,0,13365.8,0.125598,0.125282,-0.748598,19,1.1651,10,-9.37858e-05,-3.12575,-0.285762,-0.206465,0.125611,
2,0,0,1,0,13369.6,0.10662,0.106334,-0.74425,19,1.16215,10,-7.91393e-05,-3.12828,0.585814,0.100715,0.106662,
2,0,0,1,0,13373.4,0.0876433,0.0872842,-0.676733,19,1.15938,10,-5.90681e-05,-3.16958,0.462506,0.127566,0.087582,
2,0,0,1,0,13377.2,0.0686664,0.0683857,-0.626056,19,1.15684,10,-4.28132e-05,-3.20339,0.622316,0.0948072,0.0686611,
2,0,0,1,0,13381,0.0496895,0.0493156,-0.580176,19,1.15448,10,-2.86117e-05,-3.23644,0.48339,0.122055,0.0495709,
2,0,0,1,0,13384.8,0.0307126,0.0303969,-0.529064,19,1.1523,10,-1.60819e-05,-3.27649,0.567801,0.10391,0.0306297,
2,0,0,1,0,13388.5,0.0117356,0.0113873,-0.494843,19,1.15029,10,-5.6349e-06,-3.30553,1.40962,0.0418552,0.011605,
2,0,0,1,0,13390.8,0.000274105,-0.000110591,-0.493991,19,1.14912,10,5.4631e-08,-3.30628, , ,0.000106765,