File: Figure_codes/Fig_3-5/workspace_calculate_alpha_eff/20221101_1-115_003_TrumpetPlot_ParaChange_from10_every3_16_CV_C01_54.csv
mode,ox/red,error,control changes,counter inc.,time/s,control/V,Ewe/V,<I>/mA,cycle number,(Q-Qo)/C,I Range,P/W,log(|I|),Tafel slope mV/dec,alpha_eff,E-IR/V,
2,0,0,1,0,36692.5,2.44065e-05,-0.000382585,-0.0427872,55,0.0000000E+000,10,1.63698e-08,-4.36869, , ,-0.000363759,
2,1,0,1,0,36696.2,0.0187763,0.0184425,0.267521,55,0.000894538,10,4.93376e-06,-3.57264,0.166537,0.354276,0.0183248,
2,1,0,0,0,36700,0.0377538,0.0373986,0.332407,55,0.00209175,10,1.24316e-05,-3.47833,0.24091,0.244904,0.0372524,
2,1,0,1,0,36703.8,0.0567309,0.0563873,0.392061,55,0.00353178,10,2.21073e-05,-3.40665,0.338076,0.174517,0.0562148,
2,1,0,0,0,36707.6,0.075708,0.0754004,0.436263,55,0.00517112,10,3.28944e-05,-3.36025,0.585452,0.100777,0.0752085,
2,1,0,1,0,36711.4,0.094685,0.0943626,0.488416,55,0.00696402,10,4.60882e-05,-3.31121,0.261277,0.225814,0.0941477,
2,1,0,0,0,36715.2,0.113662,0.113413,0.583183,55,0.00905417,10,6.61404e-05,-3.2342,0.361994,0.162986,0.113156,
2,1,0,1,0,36719,0.132639,0.132269,0.626132,55,0.0114245,10,8.28178e-05,-3.20333,-0.817111,-0.0722056,0.131993,
2,1,0,1,0,36722.8,0.151617,0.151269,0.42387,55,0.0135439,10,6.41182e-05,-3.37277,-0.0842843,-0.700012,0.151082,
2,1,0,1,0,36726.6,0.170594,0.170284,0.324482,55,0.0149592,10,5.52539e-05,-3.48881,-0.323282,-0.182503,0.170141,
2,1,0,1,0,36730.4,0.189571,0.18925,0.304481,55,0.0161965,10,5.76232e-05,-3.51644,-0.924612,-0.0638106,0.189116,
2,1,0,1,0,36734.2,0.208547,0.208248,0.294064,55,0.017382,10,6.12382e-05,-3.53156,-1.19057,-0.0495562,0.208119,
2,1,0,1,0,36738,0.227524,0.227195,0.28798,55,0.0185376,10,6.54278e-05,-3.54064,-0.77984,-0.0756565,0.227068,
2,1,0,1,0,36741.8,0.246501,0.246192,0.282454,55,0.0196713,10,6.9538e-05,-3.54905,-1.25128,-0.0471516,0.246068,
2,1,0,1,0,36745.6,0.265479,0.265214,0.279463,55,0.0207878,10,7.41176e-05,-3.55368,-1.93169,-0.0305432,0.265091,
2,1,0,0,0,36749.4,0.284456,0.284161,0.275043,55,0.0218892,10,7.81564e-05,-3.5606,-2.98757,-0.0197485,0.28404,
2,1,0,1,0,36753.1,0.303433,0.303162,0.270713,55,0.0229738,10,8.20699e-05,-3.56749,-1.71586,-0.0343851,0.303043,
2,1,0,0,0,36756.9,0.32241,0.322133,0.268088,55,0.0240426,10,8.63599e-05,-3.57172,-6.76168,-0.00872564,0.322015,
2,1,0,1,0,36760.7,0.341387,0.34109,0.265264,55,0.0250992,10,9.04788e-05,-3.57632,-2.57783,-0.0228875,0.340973,
2,1,0,0,0,36764.5,0.360364,0.360059,0.263053,55,0.0261447,10,9.47146e-05,-3.57996,-2.63817,-0.022364,0.359943,
2,1,0,1,0,36768.3,0.379342,0.379033,0.259686,55,0.0271809,10,9.84298e-05,-3.58555,-5.14811,-0.0114605,0.378919,
2,1,0,1,0,36772.1,0.398319,0.398033,0.258069,55,0.0282068,10,0.00010272,-3.58826,-3.26804,-0.0180537,0.397919,
2,1,0,1,0,36775.9,0.417295,0.416948,0.25703,55,0.0292252,10,0.000107168,-3.59002,-9.97481,-0.0059149,0.416835,
2,1,0,1,0,36779.7,0.436272,0.435958,0.256225,55,0.0302379,10,0.000111703,-3.59138,-20.1183,-0.00293266,0.435845,
2,1,0,1,0,36783.5,0.455249,0.454958,0.255088,55,0.0312474,10,0.000116054,-3.59331,3.00994,0.0196017,0.454846,
2,1,0,1,0,36787.3,0.474226,0.473911,0.255468,55,0.0322557,10,0.000121069,-3.59266,4.47149,0.0131947,0.473798,
2,1,0,1,0,36791.1,0.493203,0.492896,0.258499,55,0.0332694,10,0.000127413,-3.58754,1.69081,0.0348945,0.492782,
2,1,0,1,0,36794.9,0.512181,0.511904,0.262062,55,0.0342942,10,0.000134151,-3.5816,1.22225,0.0482718,0.511789,
2,1,0,0,0,36798.7,0.531158,0.530828,0.267361,55,0.0353349,10,0.000141923,-3.5729,1.34545,0.0438515,0.53071,
2,1,0,1,0,36802.5,0.550135,0.549876,0.276024,55,0.0364013,10,0.000151779,-3.55905,0.98251,0.0600503,0.549755,
2,1,0,0,0,36806.3,0.569112,0.568842,0.28932,55,0.0375075,10,0.000164577,-3.53862,0.761684,0.07746,0.568714,
2,1,0,1,0,36810.1,0.588089,0.587775,0.310478,55,0.0386765,10,0.000182491,-3.50797,0.538092,0.109647,0.587638,
2,1,0,0,0,36813.9,0.607066,0.606771,0.345772,55,0.0399493,10,0.000209804,-3.46121,0.306421,0.192546,0.606619,
2,1,0,1,0,36817.7,0.626044,0.625734,0.415147,55,0.0414121,10,0.000259772,-3.3818,0.182369,0.323521,0.625551,
2,1,0,1,0,36821.5,0.64502,0.644692,0.555199,55,0.0432573,10,0.000357932,-3.25555,0.124518,0.473826,0.644447,
2,1,0,1,0,36825.3,0.663997,0.663722,0.848453,55,0.0458917,10,0.000563136,-3.07137,0.0899154,0.656172,0.663348,
2,1,0,1,0,36829.1,0.682974,0.682693,1.41857,55,0.0501193,10,0.000968448,-2.84815,0.0804163,0.733682,0.682069,
2,1,0,1,0,36832.9,0.701951,0.701675,2.39532,55,0.0572474,10,0.00168074,-2.62064,0.083258,0.708641,0.700621,
2,1,0,1,0,36836.6,0.720928,0.720626,3.84095,55,0.0689629,10,0.00276789,-2.41556,0.0947741,0.622533,0.718936,
2,1,0,1,0,36840.4,0.739905,0.739631,5.76795,55,0.087078,10,0.00426616,-2.23898,0.111624,0.528561,0.737093,
2,1,0,1,0,36844.2,0.758883,0.758622,8.20701,55,0.113463,10,0.00622602,-2.08582,0.123389,0.478162,0.755011,
2,1,0,0,0,36848,0.77786,0.777596,11.2706,55,0.150225,10,0.00876397,-1.94805,0.13003,0.45374,0.772637,
2,1,0,1,0,36851.8,0.796837,0.796583,15.2617,55,0.20036,10,0.0121572,-1.8164,0.137282,0.429772,0.789868,
2,1,0,0,0,36855.6,0.815814,0.815554,20.4281,55,0.267769,10,0.0166602,-1.68977,0.13385,0.440793,0.806566,
2,1,0,1,0,36859.4,0.834791,0.83452,26.4669,55,0.356703,10,0.0220872,-1.5773,0.157977,0.373473,0.822874,
2,1,0,1,0,36863.1,0.846726,0.846467,29.9463,55,0.465446,10,0.0253486,-1.52366,0.116826,0.505025,0.833291,
2,1,0,1,0,36866.9,0.827749,0.827495,22.7643,55,0.564776,10,0.0188374,-1.64275,0.128253,0.46003,0.817478,
2,1,0,1,0,36870.7,0.808772,0.80847,16.8647,55,0.639542,10,0.0136346,-1.77302,0.12082,0.488329,0.801049,
2,1,0,1,0,36874.5,0.789795,0.789489,12.1726,55,0.694243,10,0.00961011,-1.91462,0.112128,0.526183,0.784133,
2,1,0,1,0,36878.3,0.770818,0.770557,8.52138,55,0.733144,10,0.00656621,-2.06949,0.109336,0.539621,0.766808,
2,1,0,1,0,36882.1,0.751841,0.751558,5.83108,55,0.760062,10,0.00438239,-2.23425,0.102672,0.574645,0.748993,
2,1,0,1,0,36885.9,0.732865,0.732603,3.79603,55,0.778105,10,0.00278098,-2.42067,0.0914349,0.645268,0.730933,
2,1,0,1,0,36889.7,0.713887,0.713621,2.3154,55,0.789496,10,0.00165232,-2.63537,0.0778044,0.758312,0.712602,
2,1,0,0,0,36893.5,0.69491,0.694638,1.27454,55,0.796141,10,0.000885342,-2.89465,0.0654818,0.901014,0.694077,
2,1,0,1,0,36897.3,0.675933,0.67568,0.60882,55,0.799575,10,0.000411367,-3.21551,0.0518175,1.13861,0.675412,
2,1,0,0,0,36901.1,0.656956,0.656629,0.237937,55,0.801071,10,0.000156236,-3.62354,0.0404635,1.45811,0.656525,
2,1,0,1,0,36904.9,0.637979,0.637667,0.0542607,55,0.801545,10,3.46002e-05,-4.26551,0.0196548,3.00181,0.637643,
2,0,0,0,0,36908.7,0.619002,0.618682,-0.0273988,55,0.801536,10,-1.69511e-05,-4.56227,-0.0221039,-2.66921,0.618694,
2,0,0,1,0,36912.5,0.600024,0.599716,-0.0627246,55,0.801319,10,-3.7617e-05,-4.20256,-0.119372,-0.494252,0.599744,
2,0,0,1,0,36916.3,0.581047,0.580721,-0.080985,55,0.801005,10,-4.70297e-05,-4.0916,-0.407883,-0.144649,0.580757,
2,0,0,1,0,36920,0.56207,0.561769,-0.0900552,55,0.800644,10,-5.05903e-05,-4.04549,-0.512647,-0.115089,0.561809,
2,0,0,1,0,36923.8,0.543093,0.542775,-0.096126,55,0.800254,10,-5.21748e-05,-4.01716,-0.620706,-0.0950531,0.542817,
2,0,0,1,0,36927.6,0.524116,0.523775,-0.101505,55,0.799842,10,-5.3166e-05,-3.99351,-0.999475,-0.059031,0.52382,
2,0,0,1,0,36931.4,0.505139,0.504851,-0.106629,55,0.799409,10,-5.38315e-05,-3.97213,-1.65276,-0.0356978,0.504897,
2,0,0,1,0,36935.2,0.486162,0.485868,-0.112061,55,0.798957,10,-5.4447e-05,-3.95054,-1.72804,-0.0341426,0.485917,
2,0,0,1,0,36939,0.467185,0.466892,-0.117441,55,0.798481,10,-5.48324e-05,-3.93018,-1.06046,-0.0556364,0.466944,
2,0,0,0,0,36942.8,0.448208,0.4479,-0.125253,55,0.797978,10,-5.6101e-05,-3.90221,-2.37688,-0.0248225,0.447955,
2,0,0,1,0,36946.6,0.429231,0.428892,-0.134296,55,0.797444,10,-5.75986e-05,-3.87194,-3.25582,-0.0181214,0.428951,
2,0,0,0,0,36950.4,0.410254,0.409907,-0.143784,55,0.796877,10,-5.89379e-05,-3.84229,-1.01306,-0.0582392,0.40997,
2,0,0,1,0,36954.2,0.391277,0.390917,-0.152909,55,0.796273,10,-5.97747e-05,-3.81557,-0.445469,-0.132445,0.390984,
2,0,0,0,0,36958,0.3723,0.37194,-0.163647,55,0.79563,10,-6.08669e-05,-3.78609,-0.64904,-0.0909034,0.372012,
2,0,0,1,0,36961.8,0.353322,0.353031,-0.172954,55,0.794946,10,-6.10583e-05,-3.76207,-0.649739,-0.0908057,0.353107,
2,0,0,1,0,36965.6,0.334345,0.334008,-0.184611,55,0.794222,10,-6.16614e-05,-3.73374,-0.724653,-0.0814183,0.334089,
2,0,0,1,0,36969.4,0.315368,0.315036,-0.1952,55,0.793453,10,-6.14952e-05,-3.70952,-0.522719,-0.112871,0.315122,
2,0,0,1,0,36973.2,0.296391,0.296089,-0.208152,55,0.792639,10,-6.16317e-05,-3.68162,-0.743,-0.0794078,0.296181,
2,0,0,1,0,36977,0.277414,0.277089,-0.220137,55,0.791777,10,-6.09975e-05,-3.65731,-0.6135,-0.0961694,0.277186,
2,0,0,1,0,36980.8,0.258437,0.258104,-0.231868,55,0.790866,10,-5.9846e-05,-3.63476,-1.09134,-0.0540621,0.258206,
2,0,0,1,0,36984.6,0.239461,0.239159,-0.2459,55,0.789908,10,-5.88092e-05,-3.60924,-0.747034,-0.078979,0.239267,
2,0,0,1,0,36988.4,0.220483,0.22019,-0.256725,55,0.788906,10,-5.65284e-05,-3.59053,-0.715957,-0.0824072,0.220303,
2,0,0,0,0,36992.2,0.201506,0.201173,-0.270493,55,0.787853,10,-5.44158e-05,-3.56784,-0.389941,-0.151305,0.201292,
2,0,0,1,0,36996,0.182529,0.182231,-0.290523,55,0.786737,10,-5.29423e-05,-3.53682,-0.375949,-0.156936,0.182359,
2,0,0,0,0,36999.7,0.163552,0.163249,-0.324426,55,0.785523,10,-5.29621e-05,-3.48888,-0.265737,-0.222024,0.163391,
2,0,0,1,0,37003.5,0.144575,0.144262,-0.425234,55,0.784084,10,-6.13451e-05,-3.37137,-0.100374,-0.587803,0.144449,
2,0,0,0,0,37007.3,0.125598,0.125246,-0.644699,55,0.781989,10,-8.07459e-05,-3.19064,-0.180667,-0.326568,0.12553,
2,0,0,1,0,37011.1,0.10662,0.106304,-0.691228,55,0.779333,10,-7.348e-05,-3.16038,4.20638,0.0140263,0.106608,
2,0,0,1,0,37014.9,0.0876433,0.0873139,-0.657326,55,0.776706,10,-5.73938e-05,-3.18222,0.662556,0.0890491,0.0876032,
2,0,0,1,0,37018.7,0.0686664,0.0683328,-0.614811,55,0.774236,10,-4.20117e-05,-3.21126,0.741756,0.079541,0.0686033,
2,0,0,1,0,37022.5,0.0496895,0.0494132,-0.573028,55,0.771917,10,-2.83151e-05,-3.24182,0.594159,0.0992999,0.0496653,
2,0,0,1,0,37026.3,0.0307126,0.0303758,-0.527119,55,0.769768,10,-1.60117e-05,-3.27809,0.56808,0.103859,0.0306078,
2,0,0,1,0,37030.1,0.0117356,0.0114466,-0.494717,55,0.767777,10,-5.66284e-06,-3.30564,1.24509,0.0473861,0.0116643,
2,0,0,1,0,37032.4,0.000274105,-9.62757e-05,-0.494807,55,0.76661,10,4.76379e-08,-3.30556, , ,0.000121439,