File: Figure_codes/Fig_3-5/workspace_calculate_alpha_eff/20221101_1-115_003_TrumpetPlot_ParaChange_from10_every3_16_CV_C01_79.csv
mode,ox/red,error,control changes,counter inc.,time/s,control/V,Ewe/V,<I>/mA,cycle number,(Q-Qo)/C,I Range,P/W,log(|I|),Tafel slope mV/dec,alpha_eff,E-IR/V,
2,0,0,0,0,52823.5,2.44065e-05,-0.000382585,-0.10003,80,0.0000000E+000,10,3.82701e-08,-3.99987, , ,-0.000338572,
2,1,0,1,0,52827.3,0.0187763,0.0184232,0.213777,80,0.000694219,10,3.93846e-06,-3.67004,0.139394,0.423261,0.0183291,
2,1,0,1,0,52831.1,0.0377538,0.0374156,0.276477,80,0.00167974,10,1.03446e-05,-3.55834,0.197585,0.298606,0.037294,
2,1,0,0,0,52834.9,0.0567309,0.0563651,0.337632,80,0.00290731,10,1.90306e-05,-3.47156,0.309151,0.190845,0.0562165,
2,1,0,1,0,52838.6,0.075708,0.0753612,0.382656,80,0.00433466,10,2.88374e-05,-3.41719,0.487495,0.121027,0.0751928,
2,1,0,0,0,52842.4,0.094685,0.094335,0.43397,80,0.00592484,10,4.09386e-05,-3.36254,0.251276,0.234802,0.0941441,
2,1,0,1,0,52846.2,0.113662,0.113343,0.527539,80,0.00780301,10,5.97927e-05,-3.27775,0.335027,0.176105,0.113111,
2,1,0,0,0,52850,0.132639,0.132315,0.562633,80,0.00995007,10,7.44445e-05,-3.24977,-0.646602,-0.0912462,0.132067,
2,1,0,1,0,52853.8,0.151617,0.151288,0.372962,80,0.0118469,10,5.64246e-05,-3.42834,-0.0786269,-0.75038,0.151124,
2,1,0,1,0,52857.6,0.170594,0.170272,0.284109,80,0.0130936,10,4.83757e-05,-3.54652,-0.337859,-0.174629,0.170147,
2,1,0,1,0,52861.4,0.189571,0.18926,0.266097,80,0.0141808,10,5.03617e-05,-3.57496,-0.931306,-0.0633519,0.189143,
2,1,0,1,0,52865.2,0.208547,0.208268,0.259231,80,0.0152251,10,5.39895e-05,-3.58631,-2.8563,-0.0206561,0.208154,
2,1,0,1,0,52869,0.227524,0.227243,0.253291,80,0.0162434,10,5.75586e-05,-3.59638,-1.02723,-0.0574362,0.227131,
2,1,0,1,0,52872.8,0.246501,0.246201,0.249453,80,0.0172433,10,6.14154e-05,-3.60301,-0.757816,-0.0778553,0.246091,
2,1,0,0,0,52876.6,0.265479,0.265145,0.245387,80,0.0182298,10,6.50631e-05,-3.61015,-1.39835,-0.0421927,0.265037,
2,1,0,1,0,52880.4,0.284456,0.284105,0.24223,80,0.0192006,10,6.88189e-05,-3.61577,-1.92003,-0.0307287,0.283999,
2,1,0,0,0,52884.2,0.303433,0.303097,0.237165,80,0.0201536,10,7.18842e-05,-3.62495,-3.88217,-0.0151977,0.302993,
2,1,0,1,0,52888,0.32241,0.322104,0.233944,80,0.0210913,10,7.53543e-05,-3.63089,-6.73902,-0.00875498,0.322001,
2,1,0,0,0,52891.8,0.341387,0.341074,0.230988,80,0.0220162,10,7.87838e-05,-3.63641,-2.52611,-0.0233561,0.340972,
2,1,0,1,0,52895.6,0.360364,0.36003,0.230129,80,0.02293,10,8.28536e-05,-3.63803,-7.32058,-0.00805947,0.359929,
2,1,0,1,0,52899.4,0.379342,0.379034,0.227369,80,0.0238347,10,8.61808e-05,-3.64327,-2.12067,-0.0278214,0.378934,
2,1,0,1,0,52903.2,0.398319,0.398051,0.225545,80,0.024732,10,8.97784e-05,-3.64677,3.41445,0.0172795,0.397951,
2,1,0,1,0,52907,0.417295,0.417016,0.225036,80,0.0256238,10,9.38434e-05,-3.64775,4.8794,0.0120917,0.416917,
2,1,0,1,0,52910.8,0.436272,0.435975,0.223964,80,0.0265124,10,9.76428e-05,-3.64982,-6.37243,-0.00925863,0.435876,
2,1,0,1,0,52914.6,0.455249,0.454921,0.223634,80,0.0273981,10,0.000101736,-3.65046,4.69,0.01258,0.454822,
2,1,0,1,0,52918.3,0.474226,0.473974,0.225021,80,0.0282847,10,0.000106654,-3.64778,1.61023,0.0366407,0.473875,
2,1,0,1,0,52922.1,0.493203,0.492921,0.227966,80,0.0291777,10,0.000112369,-3.64213,-52.8386,-0.00111661,0.492821,
2,1,0,0,0,52925.9,0.512181,0.511796,0.231528,80,0.0300823,10,0.000118495,-3.6354,1.9025,0.0310118,0.511694,
2,1,0,1,0,52929.7,0.531158,0.530833,0.238011,80,0.0310045,10,0.000126344,-3.6234,4.11011,0.0143549,0.530729,
2,1,0,0,0,52933.5,0.550135,0.549858,0.245893,80,0.031953,10,0.000135206,-3.60925,1.09186,0.0540362,0.54975,
2,1,0,1,0,52937.3,0.569112,0.568819,0.258094,80,0.0329397,10,0.000146809,-3.58822,0.719996,0.0819449,0.568706,
2,1,0,0,0,52941.1,0.588089,0.587724,0.277419,80,0.0339843,10,0.000163046,-3.55686,0.454799,0.129728,0.587602,
2,1,0,1,0,52944.9,0.607066,0.606772,0.309836,80,0.0351226,10,0.000188,-3.50887,0.329696,0.178953,0.606636,
2,1,0,1,0,52948.7,0.626044,0.625781,0.367794,80,0.0364261,10,0.000230159,-3.4344,0.19557,0.301682,0.62562,
2,1,0,1,0,52952.5,0.64502,0.644741,0.485701,80,0.0380504,10,0.000313151,-3.31363,0.129832,0.454433,0.644528,
2,1,0,1,0,52956.3,0.663997,0.663695,0.72376,80,0.0403229,10,0.000480356,-3.14041,0.0939648,0.627895,0.663376,
2,1,0,1,0,52960.1,0.682974,0.682703,1.18491,80,0.0438893,10,0.00080894,-2.92632,0.0838239,0.703857,0.682181,
2,1,0,1,0,52963.9,0.701951,0.701695,1.99285,80,0.0497949,10,0.00139837,-2.70053,0.0790028,0.746809,0.700819,
2,1,0,1,0,52967.7,0.720928,0.720656,3.16795,80,0.0594874,10,0.002283,-2.49922,0.0969639,0.608474,0.719262,
2,1,0,1,0,52971.5,0.739905,0.73961,4.75853,80,0.0744259,10,0.00351946,-2.32253,0.110494,0.533966,0.737516,
2,1,0,0,0,52975.3,0.758883,0.758585,6.81676,80,0.0962592,10,0.0051711,-2.16642,0.121351,0.486194,0.755586,
2,1,0,1,0,52979.1,0.77786,0.777561,9.44821,80,0.126946,10,0.00734656,-2.02465,0.127669,0.462132,0.773404,
2,1,0,0,0,52982.9,0.796837,0.796562,12.9457,80,0.169128,10,0.0103121,-1.88787,0.12535,0.470682,0.790865,
2,1,0,1,0,52986.7,0.815814,0.815502,17.6313,80,0.22682,10,0.0143784,-1.75371,0.129073,0.457107,0.807744,
2,1,0,0,0,52990.5,0.834791,0.834577,23.3426,80,0.304395,10,0.0194812,-1.63185,0.147561,0.399835,0.824306,
2,1,0,0,0,52994.2,0.846726,0.846499,26.5665,80,0.400932,10,0.0224885,-1.57567,0.102422,0.576051,0.83481,
2,1,0,1,0,52998,0.827749,0.827486,19.3375,80,0.487092,10,0.0160015,-1.7136,0.111591,0.528718,0.818977,
2,1,0,1,0,53001.7,0.808772,0.808487,14.0701,80,0.549912,10,0.0113755,-1.8517,0.118569,0.497602,0.802296,
2,1,0,1,0,53005.5,0.789795,0.789491,10.0582,80,0.59529,10,0.00794087,-1.99748,0.116181,0.50783,0.785065,
2,1,0,1,0,53009.3,0.770818,0.770531,7.03082,80,0.627415,10,0.00541746,-2.15299,0.111209,0.530533,0.767437,
2,1,0,1,0,53013.1,0.751841,0.751564,4.80117,80,0.649624,10,0.00360838,-2.31865,0.105024,0.561775,0.749451,
2,1,0,1,0,53016.9,0.732865,0.732587,3.14407,80,0.664517,10,0.00230331,-2.50251,0.0919621,0.641569,0.731203,
2,1,0,0,0,53020.7,0.713887,0.713625,1.92048,80,0.673977,10,0.0013705,-2.71659,0.0797025,0.740252,0.71278,
2,1,0,1,0,53024.5,0.69491,0.694622,1.06108,80,0.679512,10,0.000737051,-2.97425,0.0644761,0.915068,0.694155,
2,1,0,0,0,53028.3,0.675933,0.675637,0.49889,80,0.682354,10,0.000337068,-3.302,0.0504124,1.17035,0.675418,
2,1,0,1,0,53032.1,0.656956,0.656644,0.178272,80,0.683541,10,0.000117061,-3.74892,0.0333594,1.76862,0.656566,
2,1,0,0,0,53035.9,0.637979,0.637666,0.0165404,80,0.683841,10,1.05473e-05,-4.78145,0.00536775,10.9916,0.637659,
2,0,0,1,0,53039.7,0.619002,0.618717,-0.0535865,80,0.683722,10,-3.31549e-05,-4.27094,-0.0592561,-0.995678,0.61874,
2,0,0,0,0,53043.5,0.600024,0.599714,-0.0854034,80,0.683418,10,-5.12176e-05,-4.06852,-0.188892,-0.312349,0.599752,
2,0,0,1,0,53047.3,0.581047,0.580739,-0.101224,80,0.68303,10,-5.87847e-05,-3.99472,-0.373263,-0.158066,0.580783,
2,0,0,1,0,53051.1,0.56207,0.561738,-0.108959,80,0.682599,10,-6.12065e-05,-3.96274,-1.10745,-0.0532754,0.561786,
2,0,0,1,0,53054.9,0.543093,0.542767,-0.114847,80,0.682143,10,-6.23349e-05,-3.93988,5.11695,0.0115303,0.542818,
2,0,0,1,0,53058.7,0.524116,0.523765,-0.119159,80,0.681668,10,-6.24115e-05,-3.92387,94.6953,0.000623051,0.523817,
2,0,0,1,0,53062.5,0.505139,0.504821,-0.123188,80,0.681175,10,-6.21879e-05,-3.90943,-0.80215,-0.0735523,0.504875,
2,0,0,1,0,53066.3,0.486162,0.48578,-0.12838,80,0.680664,10,-6.23646e-05,-3.8915,-1.46344,-0.0403159,0.485837,
2,0,0,1,0,53070.1,0.467185,0.466837,-0.134348,80,0.68013,10,-6.27188e-05,-3.87177,-1.57664,-0.0374214,0.466896,
2,0,0,1,0,53073.9,0.448208,0.447946,-0.141677,80,0.679572,10,-6.34636e-05,-3.8487,-0.785489,-0.0751125,0.448008,
2,0,0,0,0,53077.7,0.429231,0.428932,-0.148979,80,0.678985,10,-6.39021e-05,-3.82687,-1.13663,-0.0519078,0.428998,
2,0,0,1,0,53081.5,0.410254,0.409893,-0.157598,80,0.678365,10,-6.45984e-05,-3.80245,-2.24777,-0.0262482,0.409962,
2,0,0,0,0,53085.2,0.391277,0.390947,-0.167857,80,0.67771,10,-6.56232e-05,-3.77506,-0.826571,-0.0713792,0.39102,
2,0,0,1,0,53089,0.3723,0.371926,-0.177598,80,0.677018,10,-6.60534e-05,-3.75056,-1.10194,-0.053542,0.372004,
2,0,0,1,0,53092.8,0.353322,0.353023,-0.186301,80,0.676288,10,-6.57684e-05,-3.72979,-0.937877,-0.062908,0.353105,
2,0,0,1,0,53096.6,0.334345,0.334033,-0.197957,80,0.675516,10,-6.61243e-05,-3.70343,-0.69731,-0.0846109,0.33412,
2,0,0,1,0,53100.4,0.315368,0.315048,-0.208853,80,0.674702,10,-6.57987e-05,-3.68016,-1.02315,-0.0576648,0.31514,
2,0,0,1,0,53104.2,0.296391,0.296027,-0.221295,80,0.673842,10,-6.55091e-05,-3.65503,-0.609695,-0.0967697,0.296124,
2,0,0,1,0,53108,0.277414,0.277072,-0.233151,80,0.672936,10,-6.45997e-05,-3.63236,-0.918324,-0.0642475,0.277174,
2,0,0,1,0,53111.8,0.258437,0.258136,-0.245084,80,0.671983,10,-6.3265e-05,-3.61069,-0.782609,-0.0753888,0.258244,
2,0,0,1,0,53115.6,0.239461,0.239114,-0.256648,80,0.670985,10,-6.1368e-05,-3.59066,-1.12935,-0.0522426,0.239227,
2,0,0,0,0,53119.4,0.220483,0.220181,-0.268043,80,0.669944,10,-5.90179e-05,-3.5718,-0.581476,-0.101466,0.220299,
2,0,0,1,0,53123.2,0.201506,0.201189,-0.280151,80,0.668856,10,-5.63633e-05,-3.55261,-0.631709,-0.0933974,0.201312,
2,0,0,0,0,53127,0.182529,0.182175,-0.298238,80,0.667711,10,-5.43315e-05,-3.52544,-0.507698,-0.116211,0.182306,
2,0,0,1,0,53130.8,0.163552,0.163197,-0.327856,80,0.666478,10,-5.35051e-05,-3.48432,-0.348754,-0.169174,0.163341,
2,0,0,0,0,53134.6,0.144575,0.144238,-0.411346,80,0.665054,10,-5.93316e-05,-3.38579,-0.119007,-0.495769,0.144419,
2,0,0,1,0,53138.4,0.125598,0.125269,-0.610656,80,0.663071,10,-7.64964e-05,-3.2142,-0.150541,-0.39192,0.125538,
2,0,0,1,0,53142.2,0.10662,0.106277,-0.674608,80,0.660517,10,-7.16953e-05,-3.17095,6.05635,0.00974184,0.106574,
2,0,0,1,0,53146,0.0876433,0.0873425,-0.652654,80,0.657929,10,-5.70044e-05,-3.18532,0.818563,0.0720775,0.0876296,
2,0,0,1,0,53149.8,0.0686664,0.0682976,-0.615909,80,0.655466,10,-4.20651e-05,-3.21048,0.641245,0.0920086,0.0685686,
2,0,0,1,0,53153.6,0.0496895,0.049342,-0.574084,80,0.653147,10,-2.83265e-05,-3.24102,0.594692,0.099211,0.0495946,
2,0,0,1,0,53157.4,0.0307126,0.0303589,-0.528007,80,0.650998,10,-1.60297e-05,-3.27736,0.592968,0.0994994,0.0305913,
2,0,0,1,0,53161.2,0.0117356,0.0113904,-0.498436,80,0.649003,10,-5.6774e-06,-3.30239,1.13782,0.0518535,0.0116097,
2,0,0,0,0,53163.4,0.000274105,-0.000135643,-0.499249,80,0.647829,10,6.77198e-08,-3.30168, , ,8.40265e-05,