File: Figure_codes/Fig_3-5/workspace_calculate_alpha_eff/20221101_1-115_003_TrumpetPlot_ParaChange_from10_every3_16_CV_C01_92.csv
mode,ox/red,error,control changes,counter inc.,time/s,control/V,Ewe/V,<I>/mA,cycle number,(Q-Qo)/C,I Range,P/W,log(|I|),Tafel slope mV/dec,alpha_eff,E-IR/V,
2,0,0,0,0,61074,2.44065e-05,-0.000382585,-0.098122,93,0.0000000E+000,10,3.754e-08,-4.00823, , ,-0.000339412,
2,1,0,1,0,61077.8,0.0187763,0.0184083,0.202701,93,0.000649204,10,3.73139e-06,-3.69314,0.148738,0.396671,0.0183191,
2,1,0,1,0,61081.6,0.0377538,0.0373541,0.265067,93,0.00158806,10,9.90134e-06,-3.57664,0.189629,0.311133,0.0372375,
2,1,0,0,0,61085.4,0.0567309,0.0563693,0.324562,93,0.00276356,10,1.82954e-05,-3.4887,0.279767,0.21089,0.0562265,
2,1,0,1,0,61089.2,0.075708,0.0753294,0.3696,93,0.00413723,10,2.78417e-05,-3.43227,0.501293,0.117696,0.0751667,
2,1,0,0,0,61093,0.094685,0.0943276,0.421607,93,0.00567352,10,3.97692e-05,-3.37509,0.245682,0.240148,0.0941421,
2,1,0,1,0,61096.8,0.113662,0.113278,0.512529,93,0.00749261,10,5.80583e-05,-3.29028,0.330107,0.17873,0.113053,
2,1,0,0,0,61100.6,0.132639,0.132291,0.544252,93,0.0095726,10,7.19998e-05,-3.2642,-0.584185,-0.100995,0.132052,
2,1,0,1,0,61104.4,0.151617,0.151231,0.356883,93,0.0113905,10,5.39719e-05,-3.44747,-0.0793893,-0.743173,0.151074,
2,1,0,1,0,61108.1,0.170594,0.170228,0.272543,93,0.012583,10,4.63944e-05,-3.56456,-0.303527,-0.194382,0.170108,
2,1,0,1,0,61111.9,0.189571,0.189201,0.25593,93,0.0136252,10,4.84223e-05,-3.59188,-1.31313,-0.0449308,0.189089,
2,1,0,1,0,61115.7,0.208547,0.208186,0.24971,93,0.014627,10,5.19862e-05,-3.60256,-1.55873,-0.0378514,0.208077,
2,1,0,1,0,61119.5,0.227524,0.227213,0.244565,93,0.0156069,10,5.55684e-05,-3.61161,-1.03874,-0.0567995,0.227106,
2,1,0,1,0,61123.3,0.246501,0.246153,0.240557,93,0.0165704,10,5.92137e-05,-3.61878,-1.91456,-0.0308165,0.246047,
2,1,0,0,0,61127.1,0.265479,0.265105,0.238408,93,0.0175188,10,6.32032e-05,-3.62268,-1.4702,-0.0401306,0.265,
2,1,0,1,0,61130.9,0.284456,0.284141,0.234805,93,0.0184528,10,6.67179e-05,-3.62929,-8.04236,-0.00733616,0.284038,
2,1,0,0,0,61134.7,0.303433,0.303103,0.229783,93,0.0193717,10,6.96479e-05,-3.63868,-2.33519,-0.0252656,0.303001,
2,1,0,1,0,61138.5,0.32241,0.322063,0.226203,93,0.0202745,10,7.28514e-05,-3.6455,135.607,0.00043508,0.321963,
2,1,0,0,0,61142.3,0.341387,0.341075,0.224115,93,0.0211647,10,7.644e-05,-3.64953,2.90035,0.0203424,0.340976,
2,1,0,1,0,61146.1,0.360364,0.360062,0.222043,93,0.0220457,10,7.99495e-05,-3.65356,-10.9118,-0.00540698,0.359965,
2,1,0,1,0,61149.9,0.379342,0.378984,0.219768,93,0.0229181,10,8.32883e-05,-3.65804,-1.47509,-0.0399974,0.378887,
2,1,0,1,0,61153.7,0.398319,0.398008,0.218009,93,0.0237829,10,8.67694e-05,-3.66153,-7.99226,-0.00738214,0.397912,
2,1,0,1,0,61157.5,0.417295,0.416962,0.216865,93,0.0246416,10,9.04242e-05,-3.66381,7.68449,0.00767781,0.416866,
2,1,0,1,0,61161.3,0.436272,0.435933,0.216712,93,0.0254966,10,9.44721e-05,-3.66412,339.297,0.000173889,0.435838,
2,1,0,1,0,61165.1,0.455249,0.454891,0.217073,93,0.0263504,10,9.87448e-05,-3.66339,-9.79768,-0.00602183,0.454796,
2,1,0,1,0,61168.9,0.474226,0.473905,0.217332,93,0.0272049,10,0.000102995,-3.66288,1.78264,0.0330971,0.473809,
2,1,0,1,0,61172.7,0.493203,0.492857,0.220835,93,0.0280648,10,0.00010884,-3.65593,1.64162,0.03594,0.49276,
2,1,0,0,0,61176.5,0.512181,0.511879,0.223087,93,0.0289358,10,0.000114194,-3.65153,10.1198,0.00583016,0.51178,
2,1,0,1,0,61180.3,0.531158,0.530826,0.228756,93,0.0298233,10,0.000121429,-3.64063,3.5607,0.0165698,0.530725,
2,1,0,0,0,61184.1,0.550135,0.549822,0.236375,93,0.0307336,10,0.000129964,-3.6264,1.15777,0.0509601,0.549718,
2,1,0,1,0,61187.8,0.569112,0.568793,0.248315,93,0.0316792,10,0.00014124,-3.605,0.715831,0.0824217,0.568683,
2,1,0,0,0,61191.6,0.588089,0.587752,0.266449,93,0.0326797,10,0.000156606,-3.57439,0.604889,0.0975385,0.587634,
2,1,0,1,0,61195.4,0.607066,0.606721,0.293968,93,0.0337646,10,0.000178357,-3.5317,0.352704,0.167279,0.606592,
2,1,0,1,0,61199.2,0.626044,0.625744,0.344658,93,0.0349925,10,0.000215668,-3.46261,0.219266,0.26908,0.625593,
2,1,0,1,0,61203,0.64502,0.644745,0.444698,93,0.0364929,10,0.000286717,-3.35193,0.137116,0.430291,0.644549,
2,1,0,1,0,61206.8,0.663997,0.663672,0.644225,93,0.038542,10,0.000427554,-3.19096,0.100176,0.588964,0.663388,
2,1,0,1,0,61210.6,0.682974,0.682687,1.03184,93,0.0416762,10,0.000704422,-2.98639,0.0879855,0.670565,0.682233,
2,1,0,1,0,61214.4,0.701951,0.701616,1.69103,93,0.0467718,10,0.00118645,-2.77185,0.0868266,0.679516,0.700872,
2,1,0,1,0,61218.2,0.720928,0.720624,2.67703,93,0.054982,10,0.00192913,-2.57235,0.098577,0.598517,0.719447,
2,1,0,1,0,61222,0.739905,0.739571,4.00935,93,0.0675803,10,0.0029652,-2.39693,0.109865,0.537023,0.737806,
2,1,0,0,0,61225.8,0.758883,0.758594,5.74175,93,0.0859697,10,0.00435566,-2.24096,0.12097,0.487726,0.756067,
2,1,0,1,0,61229.6,0.77786,0.777572,7.9786,93,0.111854,10,0.00620394,-2.09807,0.129411,0.455913,0.774061,
2,1,0,0,0,61233.4,0.796837,0.796505,10.8834,93,0.147438,10,0.00866872,-1.96323,0.133152,0.443101,0.791717,
2,1,0,1,0,61237.2,0.815814,0.815515,14.7602,93,0.195768,10,0.0120372,-1.83091,0.12931,0.456268,0.809021,
2,1,0,0,0,61241,0.834791,0.834533,19.7175,93,0.260879,10,0.0164549,-1.70515,0.135155,0.436535,0.825857,
2,1,0,0,0,61244.7,0.846726,0.846459,22.6693,93,0.342936,10,0.0191886,-1.64456,0.104893,0.562476,0.836484,
2,1,0,1,0,61248.5,0.827749,0.827484,16.5259,93,0.416691,10,0.0136749,-1.78183,0.120497,0.489637,0.820212,
2,1,0,1,0,61252.3,0.808772,0.808494,11.8666,93,0.47013,10,0.00959408,-1.92567,0.119314,0.494495,0.803273,
2,1,0,1,0,61256.1,0.789795,0.789496,8.45714,93,0.508369,10,0.00667688,-2.07278,0.113476,0.519932,0.785775,
2,1,0,1,0,61259.9,0.770818,0.770565,5.92726,93,0.53539,10,0.00456734,-2.22715,0.114097,0.517103,0.767957,
2,1,0,1,0,61263.7,0.751841,0.7515,4.05703,93,0.554138,10,0.00304886,-2.39179,0.108223,0.545173,0.749715,
2,1,0,1,0,61267.5,0.732865,0.732513,2.65827,93,0.566736,10,0.00194722,-2.5754,0.0939591,0.627932,0.731344,
2,1,0,0,0,61271.2,0.713887,0.713533,1.62319,93,0.574735,10,0.0011582,-2.78963,0.0790429,0.74643,0.712819,
2,1,0,1,0,61275,0.69491,0.694596,0.886471,93,0.579385,10,0.00061574,-3.05234,0.0624,0.945513,0.694206,
2,1,0,0,0,61278.8,0.675933,0.675604,0.406828,93,0.581738,10,0.000274855,-3.39059,0.0475769,1.2401,0.675425,
2,1,0,1,0,61282.6,0.656956,0.656694,0.131256,93,0.58268,10,8.61949e-05,-3.88188,0.0290419,2.03155,0.656636,
2,0,0,0,0,61286.4,0.637979,0.637676,-0.0051347,93,0.58286,10,-3.27427e-06,-5.28948,-0.0084025,-7.02172,0.637678,
2,0,0,1,0,61290.2,0.619002,0.618683,-0.0661305,93,0.582683,10,-4.09138e-05,-4.1796,-0.0724638,-0.814199,0.618712,
2,0,0,0,0,61294,0.600024,0.599717,-0.0940574,93,0.582345,10,-5.64078e-05,-4.02661,-0.202439,-0.291446,0.599759,
2,0,0,1,0,61297.8,0.581047,0.580718,-0.107101,93,0.581934,10,-6.21954e-05,-3.97021,-0.545934,-0.108072,0.580765,
2,0,0,1,0,61301.6,0.56207,0.561722,-0.114083,93,0.581486,10,-6.40831e-05,-3.94278,-1.02405,-0.0576146,0.561772,
2,0,0,1,0,61305.4,0.543093,0.54273,-0.11891,93,0.581016,10,-6.4536e-05,-3.92478,-1.07383,-0.0549437,0.542782,
2,0,0,1,0,61309.2,0.524116,0.523766,-0.123224,93,0.580529,10,-6.45404e-05,-3.90931,-11.415,-0.00516862,0.52382,
2,0,0,1,0,61313,0.505139,0.504821,-0.127563,93,0.580025,10,-6.43962e-05,-3.89428,-1.21754,-0.0484584,0.504877,
2,0,0,1,0,61316.8,0.486162,0.485846,-0.132198,93,0.579503,10,-6.4228e-05,-3.87877,-1.00503,-0.0587047,0.485904,
2,0,0,1,0,61320.6,0.467185,0.466824,-0.138938,93,0.578959,10,-6.48597e-05,-3.85718,-3.74633,-0.0157487,0.466886,
2,0,0,1,0,61324.4,0.448208,0.447873,-0.145396,93,0.57839,10,-6.5119e-05,-3.83745,-1.61255,-0.0365881,0.447937,
2,0,0,0,0,61328.2,0.429231,0.428878,-0.154094,93,0.577791,10,-6.60877e-05,-3.81221,-1.66099,-0.0355209,0.428946,
2,0,0,1,0,61332,0.410254,0.409928,-0.162139,93,0.577161,10,-6.64653e-05,-3.79011,-1.10628,-0.0533317,0.409999,
2,0,0,0,0,61335.8,0.391277,0.390917,-0.170694,93,0.576496,10,-6.67273e-05,-3.76778,-0.536075,-0.110059,0.390992,
2,0,0,1,0,61339.6,0.3723,0.371953,-0.180773,93,0.575795,10,-6.72391e-05,-3.74287,-0.639339,-0.0922828,0.372032,
2,0,0,1,0,61343.4,0.353322,0.352999,-0.190962,93,0.575054,10,-6.74094e-05,-3.71905,-0.667221,-0.0884264,0.353083,
2,0,0,1,0,61347.2,0.334345,0.334025,-0.202119,93,0.574273,10,-6.75129e-05,-3.69439,-0.879162,-0.0671093,0.334114,
2,0,0,1,0,61351,0.315368,0.315035,-0.212974,93,0.573448,10,-6.70942e-05,-3.67167,-0.897846,-0.0657128,0.315129,
2,0,0,1,0,61354.7,0.296391,0.296056,-0.224593,93,0.57258,10,-6.64923e-05,-3.6486,-1.05018,-0.0561809,0.296155,
2,0,0,1,0,61358.5,0.277414,0.277067,-0.236684,93,0.571666,10,-6.55772e-05,-3.62583,-0.984026,-0.0599578,0.277171,
2,0,0,1,0,61362.3,0.258437,0.258061,-0.248353,93,0.570706,10,-6.40901e-05,-3.60493,-0.832555,-0.0708662,0.25817,
2,0,0,1,0,61366.1,0.239461,0.239053,-0.259245,93,0.569702,10,-6.19734e-05,-3.58629,-0.790678,-0.0746195,0.239168,
2,0,0,0,0,61369.9,0.220483,0.220154,-0.270871,93,0.568655,10,-5.96334e-05,-3.56724,-0.706116,-0.0835557,0.220274,
2,0,0,1,0,61373.7,0.201506,0.20113,-0.283564,93,0.567561,10,-5.7033e-05,-3.54735,-0.561086,-0.105153,0.201254,
2,0,0,0,0,61377.5,0.182529,0.182177,-0.300221,93,0.566412,10,-5.46934e-05,-3.52256,-0.45474,-0.129745,0.182309,
2,0,0,1,0,61381.3,0.163552,0.163231,-0.329964,93,0.565179,10,-5.38603e-05,-3.48153,-0.337307,-0.174915,0.163376,
2,0,0,0,0,61385.1,0.144575,0.144262,-0.405352,93,0.563768,10,-5.84769e-05,-3.39217,-0.132261,-0.446088,0.144441,
2,0,0,1,0,61388.9,0.125598,0.125238,-0.593794,93,0.561838,10,-7.43659e-05,-3.22636,-0.147389,-0.400302,0.1255,
2,0,0,1,0,61392.7,0.10662,0.106256,-0.664581,93,0.559343,10,-7.06157e-05,-3.17745,-2.26174,-0.0260861,0.106548,
2,0,0,1,0,61396.5,0.0876433,0.0873097,-0.650078,93,0.556787,10,-5.67581e-05,-3.18703,0.868258,0.0679522,0.0875957,
2,0,0,1,0,61400.3,0.0686664,0.0683179,-0.613543,93,0.55434,10,-4.1916e-05,-3.21215,0.692048,0.0852541,0.0685878,
2,0,0,1,0,61404.1,0.0496895,0.0493612,-0.571074,93,0.552039,10,-2.81889e-05,-3.24331,0.530667,0.111181,0.0496125,
2,0,0,1,0,61407.9,0.0307126,0.0303991,-0.525992,93,0.549906,10,-1.59897e-05,-3.27902,0.571418,0.103252,0.0306306,
2,0,0,1,0,61411.7,0.0117356,0.0114307,-0.496857,93,0.547924,10,-5.67942e-06,-3.30377,1.68034,0.035112,0.0116493,
2,0,0,0,0,61414,0.000274105,-0.000101048,-0.497484,93,0.546758,10,5.02695e-08,-3.30322, , ,0.000117845,