File: Figure_codes/Fig_3-5/workspace_calculate_alpha_eff/20221101_1-115_003_TrumpetPlot_ParaChange_from10_every3_16_CV_C01_16.csv
mode,ox/red,error,control changes,counter inc.,time/s,control/V,Ewe/V,<I>/mA,cycle number,(Q-Qo)/C,I Range,P/W,log(|I|),Tafel slope mV/dec,alpha_eff,E-IR/V,
2,0,0,0,0,11450.8,2.44065e-05,-0.000287149,-0.0815851,17,0.0000000E+000,10,2.34271e-08,-4.08839, , ,-0.000251251,
2,1,0,1,0,11454.5,0.0187763,0.0184213,0.227316,17,0.000761186,10,4.18745e-06,-3.64337,0.153394,0.384631,0.0183213,
2,1,0,1,0,11458.3,0.0377538,0.0374061,0.295697,17,0.00182677,10,1.10608e-05,-3.52915,0.175295,0.336576,0.037276,
2,1,0,0,0,11462.1,0.0567309,0.0563852,0.36067,17,0.00315129,10,2.03365e-05,-3.44289,0.311028,0.189693,0.0562265,
2,1,0,1,0,11465.9,0.075708,0.0753909,0.415516,17,0.00470188,10,3.13262e-05,-3.38141,0.453318,0.130151,0.0752081,
2,1,0,0,0,11469.7,0.0946851,0.0943478,0.476798,17,0.00644886,10,4.49848e-05,-3.32167,0.246456,0.239394,0.094138,
2,1,0,1,0,11473.5,0.113662,0.113351,0.588011,17,0.00854027,10,6.66518e-05,-3.23061,0.319615,0.184597,0.113093,
2,1,0,0,0,11477.3,0.132639,0.132328,0.659356,17,0.0109871,10,8.72514e-05,-3.18088,-3.56366,-0.016556,0.132038,
2,1,0,1,0,11481.1,0.151617,0.151304,0.447079,17,0.0132609,10,6.76446e-05,-3.34962,-0.0738394,-0.799031,0.151107,
2,1,0,1,0,11484.9,0.170594,0.170299,0.31147,17,0.014701,10,5.30429e-05,-3.50658,-0.212133,-0.278128,0.170162,
2,1,0,1,0,11488.7,0.189571,0.189246,0.276391,17,0.0158718,10,5.23058e-05,-3.55848,-0.562373,-0.104912,0.189124,
2,1,0,1,0,11492.5,0.208547,0.208223,0.261388,17,0.0169551,10,5.44269e-05,-3.58271,-0.913719,-0.0645713,0.208108,
2,1,0,1,0,11496.3,0.227524,0.227199,0.251238,17,0.0179913,10,5.70812e-05,-3.59991,-0.801079,-0.0736506,0.227089,
2,1,0,1,0,11500.1,0.246501,0.246217,0.245515,17,0.0189979,10,6.04499e-05,-3.60992,-0.533288,-0.110634,0.246109,
2,1,0,0,0,11503.9,0.265479,0.265182,0.240281,17,0.0199825,10,6.37183e-05,-3.61928,-0.933183,-0.0632245,0.265077,
2,1,0,1,0,11507.7,0.284456,0.284181,0.235487,17,0.0209479,10,6.69209e-05,-3.62803,-2.40289,-0.0245538,0.284077,
2,1,0,0,0,11511.5,0.303433,0.303135,0.231752,17,0.0218958,10,7.02522e-05,-3.63498,-1.29033,-0.0457247,0.303033,
2,1,0,1,0,11515.2,0.32241,0.322107,0.229097,17,0.0228291,10,7.37939e-05,-3.63998,10.9054,0.00541014,0.322006,
2,1,0,0,0,11519,0.341387,0.34111,0.225939,17,0.02375,10,7.70701e-05,-3.64601,-15.3545,-0.00384251,0.34101,
2,1,0,1,0,11522.8,0.360364,0.360106,0.222507,17,0.0246587,10,8.01262e-05,-3.65266,-7.44372,-0.00792614,0.360008,
2,1,0,1,0,11526.6,0.379342,0.379065,0.219728,17,0.0255566,10,8.32912e-05,-3.65811,-4.05446,-0.0145519,0.378969,
2,1,0,1,0,11530.4,0.398319,0.398011,0.218393,17,0.0264472,10,8.69227e-05,-3.66076,-2.30552,-0.0255907,0.397915,
2,1,0,1,0,11534.2,0.417295,0.417016,0.218497,17,0.0273334,10,9.11169e-05,-3.66055,-3.59353,-0.0164184,0.416919,
2,1,0,1,0,11538,0.436272,0.435972,0.217743,17,0.028216,10,9.49299e-05,-3.66205,-4.50912,-0.0130846,0.435876,
2,1,0,1,0,11541.8,0.455249,0.454993,0.218297,17,0.0290993,10,9.93234e-05,-3.66095,1.3305,0.0443442,0.454897,
2,1,0,1,0,11545.6,0.474226,0.473927,0.221241,17,0.0299869,10,0.000104852,-3.65514,1.54551,0.0381751,0.47383,
2,1,0,1,0,11549.4,0.493203,0.492919,0.22365,17,0.0308843,10,0.000110241,-3.65043,1.63939,0.035989,0.492821,
2,1,0,0,0,11553.2,0.512181,0.511906,0.228803,17,0.031796,10,0.000117126,-3.64054,6.7133,0.00878852,0.511806,
2,1,0,1,0,11557,0.531158,0.530879,0.235307,17,0.0327297,10,0.00012492,-3.62836,1.91941,0.0307386,0.530775,
2,1,0,0,0,11560.8,0.550135,0.549823,0.245973,17,0.0336954,10,0.000135242,-3.60911,0.785996,0.075064,0.549715,
2,1,0,1,0,11564.6,0.569112,0.568833,0.262991,17,0.0347138,10,0.000149598,-3.58006,0.5253,0.112317,0.568717,
2,1,0,0,0,11568.4,0.588089,0.587792,0.291602,17,0.0358156,10,0.000171401,-3.53521,0.324676,0.181719,0.587664,
2,1,0,1,0,11572.2,0.607066,0.606774,0.343493,17,0.0370629,10,0.000208423,-3.46408,0.197313,0.299018,0.606623,
2,1,0,1,0,11576,0.626044,0.62575,0.446476,17,0.0385926,10,0.000279382,-3.3502,0.131239,0.44956,0.625553,
2,1,0,1,0,11579.8,0.64502,0.644772,0.669278,17,0.0407087,10,0.000431532,-3.17439,0.0909349,0.648816,0.644478,
2,1,0,1,0,11583.6,0.663997,0.663731,1.1502,17,0.0441008,10,0.000763423,-2.93923,0.0732899,0.805022,0.663225,
2,1,0,1,0,11587.4,0.682974,0.682707,2.11997,17,0.0501665,10,0.00144732,-2.67367,0.0691608,0.853085,0.681774,
2,1,0,1,0,11591.2,0.701951,0.701682,3.80907,17,0.061224,10,0.00267275,-2.41918,0.0754532,0.781942,0.700006,
2,1,0,1,0,11595,0.720928,0.72066,6.30022,17,0.0802167,10,0.00454031,-2.20064,0.0902617,0.653655,0.717888,
2,1,0,1,0,11598.7,0.739905,0.739668,9.51919,17,0.110079,10,0.00704104,-2.0214,0.105851,0.557387,0.73548,
2,1,0,0,0,11602.5,0.758883,0.758662,13.4723,17,0.15349,10,0.0102209,-1.87056,0.118275,0.498837,0.752734,
2,1,0,1,0,11606.3,0.77786,0.777629,18.5985,17,0.213955,10,0.0144627,-1.73052,0.121466,0.485734,0.769446,
2,1,0,0,0,11610.1,0.796837,0.796622,25.1029,17,0.296579,10,0.0199975,-1.60028,0.132639,0.444817,0.785577,
2,1,0,1,0,11613.9,0.815814,0.815581,32.5295,17,0.405917,10,0.0265304,-1.48772,0.152343,0.387284,0.801268,
2,1,0,0,0,11617.7,0.834791,0.834542,40.1233,17,0.544064,10,0.0334846,-1.3966,0.234293,0.251821,0.816888,
2,1,0,0,0,11621.4,0.846727,0.846459,43.8259,17,0.703766,10,0.0370969,-1.35827,0.131642,0.448184,0.827176,
2,1,0,1,0,11625.2,0.827749,0.827466,35.0289,17,0.852759,10,0.0289852,-1.45557,0.152748,0.386256,0.812053,
2,1,0,1,0,11629,0.808772,0.808557,27.1079,17,0.970459,10,0.0219183,-1.5669,0.132152,0.446454,0.796629,
2,1,0,1,0,11632.8,0.789795,0.789504,20.1373,17,1.05974,10,0.0158984,-1.696,0.108261,0.544978,0.780643,
2,1,0,1,0,11636.6,0.770818,0.770537,14.326,17,1.12459,10,0.0110387,-1.84388,0.104292,0.565717,0.764234,
2,1,0,1,0,11640.4,0.751841,0.75156,9.67696,17,1.16971,10,0.00727282,-2.01426,0.0940674,0.62721,0.747303,
2,1,0,1,0,11644.2,0.732865,0.732589,6.17881,17,1.19943,10,0.00452653,-2.2091,0.0843206,0.69971,0.72987,
2,1,0,0,0,11648,0.713887,0.713602,3.64787,17,1.21773,10,0.00260313,-2.43796,0.0729699,0.808553,0.711997,
2,1,0,1,0,11651.8,0.69491,0.694667,1.95218,17,1.22806,10,0.00135611,-2.70948,0.0617253,0.955848,0.693808,
2,1,0,0,0,11655.6,0.675933,0.67566,0.918172,17,1.23327,10,0.000620372,-3.03708,0.0516663,1.14194,0.675256,
2,1,0,1,0,11659.4,0.656956,0.65669,0.370355,17,1.23554,10,0.000243209,-3.43138,0.0408475,1.4444,0.656527,
2,1,0,0,0,11663.2,0.637979,0.637701,0.100968,17,1.23631,10,6.43873e-05,-3.99582,0.0249206,2.36752,0.637657,
2,0,0,1,0,11667,0.619002,0.618697,-0.016227,17,1.23638,10,-1.00396e-05,-4.78976,-0.00855133,-6.89951,0.618704,
2,0,0,0,0,11670.8,0.600025,0.599763,-0.0656588,17,1.23616,10,-3.93797e-05,-4.18271,-0.112876,-0.522699,0.599792,
2,0,0,1,0,11674.6,0.581047,0.58074,-0.089085,17,1.2358,10,-5.17352e-05,-4.0502,-0.239335,-0.246516,0.580779,
2,0,0,1,0,11678.4,0.56207,0.56181,-0.101661,17,1.23539,10,-5.7114e-05,-3.99285,-0.395141,-0.149314,0.561854,
2,0,0,1,0,11682.1,0.543093,0.542787,-0.108094,17,1.23494,10,-5.8672e-05,-3.9662,-0.598052,-0.0986536,0.542835,
2,0,0,1,0,11685.9,0.524116,0.523809,-0.112573,17,1.23446,10,-5.89666e-05,-3.94857,-1.645,-0.0358662,0.523859,
2,0,0,1,0,11689.7,0.505139,0.504797,-0.117679,17,1.23397,10,-5.94039e-05,-3.9293,-0.530909,-0.11113,0.504849,
2,0,0,1,0,11693.5,0.486162,0.485844,-0.122843,17,1.23346,10,-5.96826e-05,-3.91065,-0.862079,-0.0684392,0.485898,
2,0,0,1,0,11697.3,0.467185,0.466846,-0.129151,17,1.23292,10,-6.02935e-05,-3.8889,2.39013,0.0246848,0.466903,
2,0,0,1,0,11701.1,0.448208,0.447935,-0.136528,17,1.23236,10,-6.11558e-05,-3.86478,-1.35798,-0.0434469,0.447995,
2,0,0,0,0,11704.9,0.429231,0.428938,-0.14372,17,1.23178,10,-6.16471e-05,-3.84248,-3.65919,-0.0161238,0.429001,
2,0,0,1,0,11708.7,0.410254,0.4099,-0.152043,17,1.23115,10,-6.23226e-05,-3.81803,-1.98407,-0.0297369,0.409967,
2,0,0,0,0,11712.5,0.391277,0.391,-0.163006,17,1.2305,10,-6.37353e-05,-3.7878,-0.589621,-0.100064,0.391071,
2,0,0,1,0,11716.3,0.3723,0.371971,-0.172517,17,1.2298,10,-6.41714e-05,-3.76317,-0.725898,-0.0812787,0.372047,
2,0,0,1,0,11720.1,0.353322,0.353006,-0.18304,17,1.22907,10,-6.4614e-05,-3.73746,-0.648021,-0.0910464,0.353086,
2,0,0,1,0,11723.9,0.334345,0.334069,-0.194069,17,1.22829,10,-6.48324e-05,-3.71204,-0.745518,-0.0791396,0.334155,
2,0,0,1,0,11727.7,0.315368,0.31505,-0.206858,17,1.22747,10,-6.51707e-05,-3.68433,-0.524524,-0.112483,0.315141,
2,0,0,1,0,11731.5,0.296391,0.296081,-0.21919,17,1.2266,10,-6.48979e-05,-3.65918,-1.28513,-0.0459098,0.296177,
2,0,0,1,0,11735.3,0.277414,0.277124,-0.230355,17,1.22569,10,-6.38369e-05,-3.6376,-0.596898,-0.0988443,0.277225,
2,0,0,1,0,11739.1,0.258437,0.258149,-0.242366,17,1.22473,10,-6.25665e-05,-3.61553,-0.528041,-0.111734,0.258256,
2,0,0,1,0,11742.9,0.239461,0.239151,-0.255916,17,1.22372,10,-6.12024e-05,-3.5919,-0.71496,-0.0825221,0.239264,
2,0,0,0,0,11746.7,0.220483,0.220178,-0.266612,17,1.22267,10,-5.87019e-05,-3.57412,-0.669125,-0.0881749,0.220295,
2,0,0,1,0,11750.5,0.201506,0.201189,-0.281717,17,1.22156,10,-5.66784e-05,-3.55019,-0.399316,-0.147753,0.201313,
2,0,0,0,0,11754.3,0.182529,0.182268,-0.304959,17,1.22038,10,-5.55843e-05,-3.51576,-0.367848,-0.160393,0.182402,
2,0,0,1,0,11758.1,0.163552,0.163235,-0.354282,17,1.21908,10,-5.78313e-05,-3.45065,-0.185056,-0.318823,0.163391,
2,0,0,0,0,11761.9,0.144575,0.144249,-0.507512,17,1.21744,10,-7.32083e-05,-3.29455,-0.083182,-0.709288,0.144473,
2,0,0,1,0,11765.6,0.125598,0.125304,-0.760554,17,1.2149,10,-9.53007e-05,-3.11887,-0.292456,-0.20174,0.125639,
2,0,0,1,0,11769.4,0.10662,0.106323,-0.755266,17,1.21191,10,-8.03019e-05,-3.1219,0.509414,0.115819,0.106655,
2,0,0,1,0,11773.2,0.0876433,0.0873204,-0.685986,17,1.2091,10,-5.99005e-05,-3.16368,0.488783,0.120708,0.0876222,
2,0,0,1,0,11777,0.0686664,0.0683541,-0.635534,17,1.20653,10,-4.34413e-05,-3.19686,0.59963,0.098394,0.0686337,
2,0,0,1,0,11780.8,0.0496895,0.0493834,-0.588169,17,1.20414,10,-2.90458e-05,-3.2305,0.437819,0.134759,0.0496422,
2,0,0,1,0,11784.6,0.0307126,0.0304203,-0.536542,17,1.20193,10,-1.63218e-05,-3.2704,0.522317,0.112958,0.0306564,
2,0,0,1,0,11788.4,0.0117356,0.0114434,-0.501276,17,1.1999,10,-5.73632e-06,-3.29992,2.06001,0.0286406,0.011664,
2,0,0,0,0,11790.7,0.000274105,-0.00010224,-0.498617,17,1.19871,10,5.09788e-08,-3.30223, , ,0.000117151,