File: Figure_codes/Fig_3-5/workspace_calculate_alpha_eff/20221101_1-115_003_TrumpetPlot_ParaChange_from10_every3_16_CV_C01_103.csv
mode,ox/red,error,control changes,counter inc.,time/s,control/V,Ewe/V,<I>/mA,cycle number,(Q-Qo)/C,I Range,P/W,log(|I|),Tafel slope mV/dec,alpha_eff,E-IR/V,
2,0,0,0,0,68584.6,2.44065e-05,-0.000287149,-0.0943058,104,0.0000000E+000,10,2.70798e-08,-4.02546, , ,-0.000245654,
2,1,0,1,0,68588.3,0.0187763,0.0184284,0.209505,104,0.000676977,10,3.86085e-06,-3.67881,0.161544,0.365226,0.0183363,
2,1,0,1,0,68592.1,0.0377538,0.0374082,0.270426,104,0.00163941,10,1.01161e-05,-3.56795,0.189598,0.311184,0.0372892,
2,1,0,0,0,68595.9,0.0567309,0.0564054,0.328783,104,0.00283745,10,1.85451e-05,-3.48309,0.339386,0.173843,0.0562607,
2,1,0,1,0,68599.7,0.075708,0.0754269,0.373998,104,0.00423293,10,2.82095e-05,-3.42713,0.48637,0.121307,0.0752624,
2,1,0,0,0,68603.5,0.094685,0.0943753,0.424605,104,0.00578981,10,4.00722e-05,-3.37202,0.248227,0.237685,0.0941885,
2,1,0,1,0,68607.3,0.113662,0.113313,0.513848,104,0.00762313,10,5.82257e-05,-3.28917,0.317739,0.185687,0.113087,
2,1,0,0,0,68611.1,0.132639,0.132321,0.543841,104,0.00971063,10,7.19616e-05,-3.26453,-0.46114,-0.127944,0.132082,
2,1,0,1,0,68614.9,0.151617,0.151276,0.360842,104,0.0115329,10,5.45868e-05,-3.44268,-0.0855114,-0.689966,0.151117,
2,1,0,1,0,68618.7,0.170594,0.170277,0.280459,104,0.0127466,10,4.77558e-05,-3.55213,-0.30607,-0.192766,0.170154,
2,1,0,1,0,68622.5,0.189571,0.189239,0.264897,104,0.013821,10,5.0129e-05,-3.57692,-2.53627,-0.0232625,0.189123,
2,1,0,1,0,68626.3,0.208547,0.208222,0.258578,104,0.0148587,10,5.38416e-05,-3.58741,-1.03952,-0.0567567,0.208108,
2,1,0,1,0,68630.1,0.227524,0.227236,0.253801,104,0.0158746,10,5.76729e-05,-3.59551,-0.822522,-0.0717306,0.227125,
2,1,0,1,0,68633.8,0.246501,0.246174,0.249523,104,0.0168751,10,6.14261e-05,-3.60289,-0.964521,-0.0611703,0.246065,
2,1,0,0,0,68637.6,0.265479,0.265161,0.24521,104,0.017861,10,6.50202e-05,-3.61046,-0.917666,-0.0642935,0.265053,
2,1,0,1,0,68641.4,0.284456,0.284189,0.242142,104,0.0188301,10,6.88141e-05,-3.61593,-1.33096,-0.0443288,0.284083,
2,1,0,0,0,68645.2,0.303433,0.303118,0.238464,104,0.0197832,10,7.22828e-05,-3.62258,-1.11152,-0.0530806,0.303014,
2,1,0,1,0,68649,0.32241,0.322081,0.235773,104,0.0207218,10,7.59378e-05,-3.62751,-2.71828,-0.0217049,0.321977,
2,1,0,0,0,68652.8,0.341387,0.341064,0.233533,104,0.021648,10,7.96498e-05,-3.63165,44.3623,0.00132996,0.340961,
2,1,0,1,0,68656.6,0.360364,0.36009,0.230282,104,0.0225628,10,8.29224e-05,-3.63774,-5.07996,-0.0116143,0.359989,
2,1,0,1,0,68660.4,0.379342,0.379057,0.228929,104,0.0234689,10,8.67771e-05,-3.6403,3.41455,0.017279,0.378956,
2,1,0,1,0,68664.2,0.398319,0.398011,0.226989,104,0.0243681,10,9.03443e-05,-3.64399,-2.39797,-0.0246042,0.397911,
2,1,0,1,0,68668,0.417295,0.416996,0.225935,104,0.0252619,10,9.42139e-05,-3.64602,2.45661,0.0240168,0.416896,
2,1,0,1,0,68671.8,0.436272,0.435958,0.224987,104,0.0261512,10,9.80847e-05,-3.64784,2.10245,0.0280624,0.435859,
2,1,0,1,0,68675.6,0.455249,0.454915,0.225828,104,0.0270386,10,0.000102733,-3.64622,2.26781,0.0260162,0.454816,
2,1,0,1,0,68679.4,0.474226,0.47391,0.226662,104,0.0279277,10,0.000107418,-3.64462,1.50013,0.03933,0.473811,
2,1,0,1,0,68683.2,0.493203,0.492951,0.229454,104,0.028824,10,0.000113109,-3.6393,1.39674,0.0422413,0.49285,
2,1,0,0,0,68687,0.512181,0.511875,0.23319,104,0.0297301,10,0.000119364,-3.63229,1.78537,0.0330464,0.511773,
2,1,0,1,0,68690.8,0.531158,0.530894,0.238289,104,0.0306523,10,0.000126506,-3.6229,1.42374,0.0414401,0.530789,
2,1,0,0,0,68694.6,0.550135,0.549852,0.246304,104,0.0316002,10,0.000135431,-3.60853,0.837995,0.0704062,0.549743,
2,1,0,1,0,68698.4,0.569112,0.568851,0.258793,104,0.0325842,10,0.000147215,-3.58705,0.766147,0.0770088,0.568737,
2,1,0,0,0,68702.2,0.588089,0.58777,0.277104,104,0.033623,10,0.000162874,-3.55736,0.558068,0.105722,0.587648,
2,1,0,1,0,68706,0.607066,0.606792,0.306179,104,0.0347513,10,0.000185787,-3.51403,0.345024,0.171002,0.606658,
2,1,0,1,0,68709.8,0.626043,0.625769,0.360795,104,0.0360347,10,0.000225774,-3.44274,0.220403,0.267692,0.62561,
2,1,0,1,0,68713.6,0.64502,0.64476,0.470102,104,0.0376159,10,0.000303103,-3.32781,0.136624,0.431841,0.644553,
2,1,0,1,0,68717.3,0.663997,0.663706,0.687879,104,0.0397925,10,0.000456549,-3.16249,0.0978531,0.602945,0.663403,
2,1,0,1,0,68721.1,0.682974,0.682705,1.10534,104,0.0431457,10,0.00075462,-2.9565,0.086327,0.683448,0.682218,
2,1,0,1,0,68724.9,0.701951,0.701698,1.81158,104,0.0486061,10,0.00127118,-2.74194,0.0887239,0.664985,0.700901,
2,1,0,1,0,68728.7,0.720928,0.720616,2.85449,104,0.057376,10,0.00205699,-2.54447,0.0984075,0.599548,0.71936,
2,1,0,1,0,68732.5,0.739905,0.739641,4.25874,104,0.0707777,10,0.00314994,-2.37072,0.111422,0.529519,0.737767,
2,1,0,0,0,68736.3,0.758883,0.758618,6.08871,104,0.0902923,10,0.004619,-2.21547,0.121648,0.485005,0.755939,
2,1,0,1,0,68740.1,0.77786,0.777598,8.46185,104,0.11774,10,0.00657992,-2.07253,0.128549,0.458968,0.773875,
2,1,0,0,0,68743.9,0.796837,0.79657,11.5969,104,0.155555,10,0.00923776,-1.93566,0.128711,0.458391,0.791467,
2,1,0,1,0,68747.7,0.815814,0.815547,15.8028,104,0.207223,10,0.0128879,-1.80127,0.129277,0.456383,0.808594,
2,1,0,0,0,68751.5,0.834791,0.834567,21.1564,104,0.277079,10,0.0176564,-1.67456,0.142277,0.414683,0.825258,
2,1,0,0,0,68755.2,0.846726,0.846512,24.2869,104,0.365051,10,0.0205591,-1.61463,0.102069,0.578038,0.835826,
2,1,0,1,0,68759,0.827749,0.827496,17.6882,104,0.443973,10,0.0146369,-1.75232,0.118973,0.495913,0.819713,
2,1,0,1,0,68762.8,0.808772,0.808506,12.8086,104,0.501391,10,0.0103559,-1.8925,0.120123,0.491165,0.80287,
2,1,0,1,0,68766.6,0.789795,0.789496,9.14096,104,0.542682,10,0.00721675,-2.03901,0.117094,0.503867,0.785474,
2,1,0,1,0,68770.4,0.770818,0.770547,6.41239,104,0.571901,10,0.00494104,-2.19298,0.11372,0.51882,0.767725,
2,1,0,1,0,68774.2,0.751841,0.751566,4.37986,104,0.592174,10,0.00329175,-2.35854,0.106755,0.552666,0.749639,
2,1,0,1,0,68778,0.732865,0.73259,2.89613,104,0.605816,10,0.00212167,-2.53818,0.0953329,0.618884,0.731316,
2,1,0,0,0,68781.8,0.713887,0.713625,1.79063,104,0.614574,10,0.00127784,-2.74699,0.0805387,0.732567,0.712837,
2,1,0,1,0,68785.6,0.69491,0.694609,0.996096,104,0.619743,10,0.000691897,-3.0017,0.0660115,0.893784,0.694171,
2,1,0,0,0,68789.4,0.675933,0.675621,0.472499,104,0.622424,10,0.00031923,-3.3256,0.0504976,1.16837,0.675413,
2,1,0,1,0,68793.2,0.656956,0.656716,0.16849,104,0.623554,10,0.00011065,-3.77343,0.0327492,1.80157,0.656642,
2,1,0,0,0,68797,0.637979,0.637757,0.0143556,104,0.623836,10,9.15536e-06,-4.84298,0.00458796,12.8598,0.637751,
2,0,0,1,0,68800.7,0.619002,0.61869,-0.0552414,104,0.623713,10,-3.41773e-05,-4.25774,-0.0496804,-1.18759,0.618714,
2,0,0,0,0,68804.5,0.600025,0.599704,-0.0861852,104,0.623408,10,-5.16856e-05,-4.06457,-0.194924,-0.302682,0.599741,
2,0,0,1,0,68808.3,0.581047,0.58074,-0.102161,104,0.62302,10,-5.93291e-05,-3.99071,-0.382049,-0.15443,0.580785,
2,0,0,1,0,68812.1,0.56207,0.561739,-0.109494,104,0.62259,10,-6.1507e-05,-3.96061,-0.478046,-0.123419,0.561787,
2,0,0,1,0,68815.9,0.543093,0.542809,-0.114845,104,0.622136,10,-6.23392e-05,-3.93989,-1.10491,-0.0533979,0.54286,
2,0,0,1,0,68819.7,0.524116,0.523805,-0.120268,104,0.621663,10,-6.29972e-05,-3.91985,1.69473,0.0348137,0.523858,
2,0,0,1,0,68823.5,0.505139,0.504858,-0.123232,104,0.621172,10,-6.22149e-05,-3.90927,-0.831428,-0.0709623,0.504912,
2,0,0,1,0,68827.3,0.486162,0.485837,-0.129494,104,0.620662,10,-6.29131e-05,-3.88775,-1.24096,-0.0475439,0.485894,
2,0,0,1,0,68831.1,0.467185,0.466828,-0.135965,104,0.620129,10,-6.3472e-05,-3.86657,-1.22014,-0.0483549,0.466887,
2,0,0,1,0,68834.9,0.448208,0.447948,-0.143706,104,0.61957,10,-6.43727e-05,-3.84253,-1.05022,-0.056179,0.448011,
2,0,0,0,0,68838.7,0.429231,0.428879,-0.150536,104,0.618982,10,-6.45617e-05,-3.82236,-2.10884,-0.0279775,0.428946,
2,0,0,1,0,68842.5,0.410254,0.409912,-0.15842,104,0.618362,10,-6.49382e-05,-3.80019,-0.755415,-0.0781028,0.409982,
2,0,0,0,0,68846.3,0.391277,0.390983,-0.168346,104,0.617709,10,-6.58204e-05,-3.7738,-0.880033,-0.0670429,0.391057,
2,0,0,1,0,68850.1,0.3723,0.371956,-0.177938,104,0.617017,10,-6.61852e-05,-3.74973,-0.78426,-0.0752302,0.372034,
2,0,0,1,0,68853.9,0.353322,0.352974,-0.187452,104,0.616287,10,-6.61656e-05,-3.72711,-0.967102,-0.061007,0.353056,
2,0,0,1,0,68857.7,0.334345,0.334074,-0.196994,104,0.615515,10,-6.58107e-05,-3.70555,-0.589327,-0.100114,0.334161,
2,0,0,1,0,68861.5,0.315368,0.31504,-0.209535,104,0.6147,10,-6.60119e-05,-3.67874,-0.603576,-0.0977508,0.315132,
2,0,0,1,0,68865.3,0.296391,0.296058,-0.22288,104,0.61384,10,-6.59853e-05,-3.65193,-0.635407,-0.0928539,0.296156,
2,0,0,1,0,68869.1,0.277414,0.277092,-0.234042,104,0.612933,10,-6.48511e-05,-3.63071,-0.437329,-0.13491,0.277195,
2,0,0,1,0,68872.9,0.258437,0.25816,-0.24524,104,0.61198,10,-6.33111e-05,-3.61041,-0.822944,-0.0716938,0.258268,
2,0,0,1,0,68876.7,0.239461,0.239188,-0.258467,104,0.610981,10,-6.18223e-05,-3.58759,-1.37348,-0.0429567,0.239302,
2,0,0,0,0,68880.4,0.220483,0.220186,-0.268858,104,0.609937,10,-5.91989e-05,-3.57048,-1.00969,-0.0584336,0.220304,
2,0,0,1,0,68884.2,0.201506,0.201169,-0.281617,104,0.608847,10,-5.66526e-05,-3.55034,-0.57548,-0.102523,0.201293,
2,0,0,0,0,68888,0.182529,0.182232,-0.298161,104,0.6077,10,-5.43346e-05,-3.52555,-0.548754,-0.107516,0.182363,
2,0,0,1,0,68891.8,0.163552,0.163198,-0.326493,104,0.606471,10,-5.32829e-05,-3.48613,-0.323288,-0.1825,0.163341,
2,0,0,0,0,68895.6,0.144575,0.144266,-0.401299,104,0.605067,10,-5.78939e-05,-3.39653,-0.129068,-0.457125,0.144443,
2,0,0,1,0,68899.4,0.125598,0.125241,-0.584041,104,0.603161,10,-7.31456e-05,-3.23356,-0.1413,-0.417553,0.125498,
2,0,0,1,0,68903.2,0.10662,0.106272,-0.657189,104,0.600696,10,-6.98405e-05,-3.18231,-2.09022,-0.0282267,0.106561,
2,0,0,1,0,68907,0.0876433,0.0872875,-0.645163,104,0.59816,10,-5.63147e-05,-3.19033,0.960494,0.0614267,0.0875713,
2,0,0,1,0,68910.8,0.0686664,0.0683782,-0.611462,104,0.595721,10,-4.18107e-05,-3.21363,0.791453,0.0745464,0.0686473,
2,0,0,1,0,68914.6,0.0496895,0.049339,-0.571235,104,0.593422,10,-2.81842e-05,-3.24318,0.498073,0.118457,0.0495904,
2,0,0,1,0,68918.4,0.0307126,0.0303874,-0.525736,104,0.591289,10,-1.59758e-05,-3.27923,0.607095,0.0971842,0.0306188,
2,0,0,1,0,68922.2,0.0117356,0.0114254,-0.497095,104,0.589302,10,-5.67952e-06,-3.30356,1.78666,0.0330225,0.0116442,
2,0,0,0,0,68924.5,0.000274105,-7.36095e-05,-0.499796,104,0.588129,10,3.67897e-08,-3.30121, , ,0.000146301,