File: Figure_codes/Fig_3-5/workspace_calculate_alpha_eff/20221101_1-115_002_TrumpetPlot_ParaChange_18_CV_C01_2.csv
mode,ox/red,error,control changes,counter inc.,time/s,control/V,Ewe/V,<I>/mA,cycle number,(Q-Qo)/C,I Range,P/W,log(|I|),Tafel slope mV/dec,alpha_eff,E-IR/V,
2,1,0,0,0,3713.55,2.44065e-05,-0.000401673,0.0901435,3,0.0000000E+000,10,-3.62082e-08,-4.04507, , ,-0.000473788,
2,1,0,1,0,3717.2,0.0182777,0.0179862,0.26308,3,0.000960797,10,4.7318e-06,-3.57991,0.350625,0.168271,0.0177757,
2,1,0,0,0,3720.89,0.036755,0.0364655,0.293248,3,0.00206878,10,1.06934e-05,-3.53276,0.342862,0.172081,0.0362309,
2,1,0,1,0,3724.59,0.0552323,0.0549871,0.337761,3,0.00330336,10,1.85725e-05,-3.47139,0.225441,0.261709,0.0547169,
2,1,0,1,0,3728.28,0.0737106,0.0734029,0.418727,3,0.00477484,10,3.07358e-05,-3.37807,0.24236,0.24344,0.0730679,
2,1,0,1,0,3731.98,0.0921881,0.0918897,0.49957,3,0.00655324,10,4.59053e-05,-3.3014,0.270412,0.218186,0.0914901,
2,1,0,1,0,3735.67,0.110665,0.110374,0.601881,3,0.00863554,10,6.64322e-05,-3.22049,0.160338,0.367974,0.109893,
2,1,0,1,0,3739.37,0.129144,0.128858,0.840874,3,0.011354,10,0.000108353,-3.07527,0.128912,0.457676,0.128185,
2,1,0,0,0,3743.07,0.147621,0.147335,0.924916,3,0.0148291,10,0.000136273,-3.0339,-0.232525,-0.253736,0.146595,
2,1,0,0,0,3746.76,0.166099,0.165838,0.569533,3,0.0177172,10,9.44504e-05,-3.24448,-0.0762992,-0.773271,0.165383,
2,1,0,1,0,3750.46,0.184576,0.184272,0.382312,3,0.0194888,10,7.04495e-05,-3.41758,-0.185985,-0.317229,0.183967,
2,1,0,1,0,3754.15,0.203054,0.202774,0.327273,3,0.0208637,10,6.63626e-05,-3.48509,-0.443028,-0.133174,0.202512,
2,1,0,1,0,3757.85,0.221532,0.221233,0.302142,3,0.0220957,10,6.68438e-05,-3.51979,-0.721153,-0.0818135,0.220991,
2,1,0,1,0,3761.54,0.240009,0.23971,0.288007,3,0.0232602,10,6.90382e-05,-3.5406,-0.812881,-0.0725813,0.23948,
2,1,0,1,0,3765.24,0.258488,0.25821,0.279669,3,0.0243876,10,7.22132e-05,-3.55336,-2.26371,-0.0260634,0.257986,
2,1,0,0,0,3768.93,0.276965,0.276688,0.274129,3,0.0254895,10,7.58481e-05,-3.56205,3.76567,0.0156679,0.276469,
2,1,0,1,0,3772.63,0.295442,0.295135,0.26965,3,0.0265716,10,7.95829e-05,-3.5692,-71.7973,-0.000821758,0.294919,
2,1,0,1,0,3776.33,0.313921,0.313648,0.264452,3,0.027638,10,8.29449e-05,-3.57765,-1.48339,-0.0397738,0.313436,
2,1,0,1,0,3780.02,0.332398,0.332092,0.260972,3,0.0286895,10,8.66669e-05,-3.58341,9.75643,0.0060473,0.331883,
2,1,0,1,0,3783.72,0.350875,0.350571,0.256102,3,0.0297261,10,8.97817e-05,-3.59159,-2.25291,-0.0261883,0.350366,
2,1,0,1,0,3787.41,0.369354,0.369094,0.253567,3,0.0307468,10,9.35901e-05,-3.59591,4.3198,0.013658,0.368891,
2,1,0,0,0,3791.11,0.387831,0.387554,0.25152,3,0.0317559,10,9.74778e-05,-3.59943,3.19955,0.0184401,0.387353,
2,1,0,1,0,3794.8,0.406308,0.406024,0.249291,3,0.0327554,10,0.000101218,-3.60329,-1.32609,-0.0444917,0.405825,
2,1,0,1,0,3798.5,0.424786,0.424528,0.247338,3,0.0337479,10,0.000105002,-3.60671,-1.16106,-0.0508156,0.42433,
2,1,0,1,0,3802.19,0.443264,0.443003,0.247196,3,0.0347357,10,0.000109509,-3.60696,1.98145,0.0297761,0.442805,
2,1,0,1,0,3805.89,0.461741,0.461452,0.248241,3,0.0357241,10,0.000114551,-3.60513,6.03761,0.00977207,0.461253,
2,1,0,1,0,3809.59,0.480219,0.479935,0.251483,3,0.0367198,10,0.000120695,-3.59949,-10.1477,-0.00581413,0.479734,
2,1,0,0,0,3813.28,0.498697,0.498418,0.254723,3,0.0377285,10,0.000126958,-3.59393,1.78447,0.033063,0.498214,
2,1,0,1,0,3816.98,0.517174,0.516916,0.261575,3,0.0387584,10,0.000135212,-3.5824,1.19104,0.0495366,0.516707,
2,1,0,1,0,3820.67,0.535652,0.535353,0.274183,3,0.0398248,10,0.000146785,-3.56196,0.861472,0.0684874,0.535134,
2,1,0,1,0,3824.37,0.55413,0.553857,0.296231,3,0.0409538,10,0.00016407,-3.52837,0.534471,0.11039,0.55362,
2,1,0,1,0,3828.06,0.572608,0.572299,0.332582,3,0.0421865,10,0.000190336,-3.4781,0.32027,0.18422,0.572033,
2,1,0,1,0,3831.76,0.591085,0.590783,0.399939,3,0.0436015,10,0.000236277,-3.39801,0.179134,0.329362,0.590463,
2,1,0,0,0,3835.45,0.609563,0.60931,0.539248,3,0.0453793,10,0.000328569,-3.26821,0.122031,0.483486,0.608878,
2,1,0,0,0,3839.15,0.628041,0.627817,0.828226,3,0.0479089,10,0.000519974,-3.08185,0.0818972,0.720416,0.627154,
2,1,0,1,0,3842.85,0.646518,0.646254,1.4599,3,0.0520609,10,0.00094347,-2.83568,0.0645399,0.914164,0.645086,
2,1,0,1,0,3846.54,0.664996,0.664761,2.80079,3,0.0597141,10,0.00186185,-2.55272,0.0595911,0.990081,0.66252,
2,1,0,1,0,3850.24,0.683474,0.68323,5.36548,3,0.0744383,10,0.00366586,-2.27039,0.059214,0.996386,0.678937,
2,1,0,1,0,3853.93,0.701951,0.701723,9.41063,3,0.101401,10,0.00660365,-2.02638,0.0674292,0.874992,0.694194,
2,1,0,1,0,3857.63,0.720429,0.720192,14.5196,3,0.145472,10,0.0104569,-1.83805,0.0855922,0.689315,0.708577,
2,1,0,0,0,3861.32,0.738907,0.73868,20.583,3,0.21002,10,0.0152042,-1.68649,0.0913124,0.646133,0.722214,
2,1,0,1,0,3865.02,0.757384,0.757138,27.8393,3,0.299204,10,0.0210782,-1.55534,0.0999913,0.590051,0.734866,
2,1,0,1,0,3868.71,0.775862,0.775598,35.7258,3,0.416603,10,0.0277089,-1.44702,0.11944,0.493971,0.747017,
2,1,0,1,0,3872.41,0.79434,0.794082,43.7178,3,0.563851,10,0.0347155,-1.35934,0.185833,0.317489,0.759108,
2,1,0,1,0,3876.11,0.812817,0.812569,50.8482,3,0.739026,10,0.0413177,-1.29372,0.260972,0.226078,0.771891,
2,1,0,1,0,3879.8,0.831295,0.831044,55.8437,3,0.9364,10,0.0464086,-1.25303,0.343818,0.171603,0.786369,
2,1,0,0,0,3883.49,0.849748,0.849574,60.4287,3,1.1513,10,0.0513386,-1.21876,-0.385496,-0.153049,0.801231,
2,1,0,1,0,3887.09,0.832244,0.83202,53.9028,3,1.35529,10,0.0448482,-1.26839,0.364838,0.161716,0.788898,
2,1,0,1,0,3890.79,0.813766,0.813553,47.4914,3,1.54252,10,0.0386368,-1.32338,1.01936,0.0578793,0.77556,
2,1,0,0,0,3894.48,0.795288,0.795034,40.8531,3,1.7079,10,0.0324796,-1.38878,0.142577,0.413812,0.762351,
2,1,0,0,0,3898.18,0.776811,0.776535,32.4635,3,1.84309,10,0.0252091,-1.4886,0.105098,0.561381,0.750564,
2,1,0,1,0,3901.87,0.758333,0.758089,24.0111,3,1.9471,10,0.0182025,-1.61959,0.0864151,0.682751,0.73888,
2,1,0,1,0,3905.57,0.739855,0.739635,16.6361,3,2.02172,10,0.0123046,-1.77895,0.0721732,0.817478,0.726326,
2,1,0,1,0,3909.27,0.721378,0.721133,10.5878,3,2.07139,10,0.00763518,-1.9752,0.0662887,0.890046,0.712663,
2,1,0,1,0,3912.96,0.7029,0.702633,6.07839,3,2.1016,10,0.00427088,-2.21621,0.0593225,0.994564,0.69777,
2,1,0,0,0,3916.66,0.684422,0.684196,3.13489,3,2.11809,10,0.00214488,-2.50378,0.0539156,1.0943,0.681688,
2,1,0,0,0,3920.35,0.665945,0.665694,1.45968,3,2.12618,10,0.000971697,-2.83574,0.0507278,1.16307,0.664526,
2,1,0,1,0,3924.05,0.647467,0.647227,0.618571,3,2.12975,10,0.000400356,-3.20861,0.0456544,1.29232,0.646732,
2,1,0,1,0,3927.74,0.62899,0.628761,0.233911,3,2.13115,10,0.000147074,-3.63095,0.0395156,1.49308,0.628574,
2,1,0,1,0,3931.44,0.610512,0.610242,0.060883,3,2.13158,10,3.71534e-05,-4.2155,0.0205394,2.87253,0.610193,
2,0,0,1,0,3935.13,0.592034,0.591787,-0.0175085,3,2.13157,10,-1.03613e-05,-4.75675,-0.0131429,-4.48912,0.591801,
2,0,0,1,0,3938.83,0.573556,0.573328,-0.0543388,3,2.13135,10,-3.11539e-05,-4.26489,-0.115031,-0.512906,0.573371,
2,0,0,0,0,3942.53,0.555079,0.554783,-0.0711583,3,2.13104,10,-3.94774e-05,-4.14777,-0.135979,-0.433889,0.55484,
2,0,0,1,0,3946.22,0.536601,0.536315,-0.0832043,3,2.13067,10,-4.46237e-05,-4.07985,-1.05771,-0.0557807,0.536381,
2,0,0,1,0,3949.92,0.518123,0.517837,-0.0896456,3,2.13027,10,-4.64218e-05,-4.04747,-0.431714,-0.136665,0.517908,
2,0,0,1,0,3953.61,0.499646,0.499348,-0.0955455,3,2.12985,10,-4.77104e-05,-4.01979,0.370973,0.159041,0.499424,
2,0,0,1,0,3957.31,0.481168,0.480874,-0.103373,3,2.12941,10,-4.97092e-05,-3.98559,-0.832291,-0.0708887,0.480956,
2,0,0,1,0,3961,0.46269,0.462421,-0.110643,3,2.12894,10,-5.11639e-05,-3.95607,-0.575883,-0.102451,0.462509,
2,0,0,0,0,3964.7,0.444213,0.443972,-0.117303,3,2.12844,10,-5.20793e-05,-3.93069,-0.506856,-0.116404,0.444066,
2,0,0,1,0,3968.39,0.425735,0.42548,-0.127154,3,2.12791,10,-5.41015e-05,-3.89567,-0.548677,-0.107531,0.425582,
2,0,0,1,0,3972.09,0.407257,0.406993,-0.136373,3,2.12735,10,-5.55028e-05,-3.86527,-0.463582,-0.12727,0.407102,
2,0,0,1,0,3975.79,0.38878,0.388517,-0.145833,3,2.12675,10,-5.66587e-05,-3.83614,-0.797192,-0.0740097,0.388634,
2,0,0,1,0,3979.48,0.370302,0.370019,-0.158464,3,2.1261,10,-5.86346e-05,-3.80007,-0.801279,-0.0736323,0.370146,
2,0,0,1,0,3983.18,0.351824,0.351552,-0.168461,3,2.12542,10,-5.92227e-05,-3.7735,-1.02608,-0.0575003,0.351687,
2,0,0,0,0,3986.87,0.333347,0.333065,-0.179955,3,2.12469,10,-5.99368e-05,-3.74484,-0.847332,-0.0696303,0.333209,
2,0,0,0,0,3990.57,0.314869,0.314575,-0.193381,3,2.12392,10,-6.08328e-05,-3.71359,-0.481802,-0.122457,0.31473,
2,0,0,1,0,3994.26,0.296391,0.296069,-0.206314,3,2.1231,10,-6.10831e-05,-3.68547,-1.15046,-0.0512837,0.296234,
2,0,0,1,0,3997.96,0.277914,0.27764,-0.217933,3,2.12224,10,-6.05069e-05,-3.66168,-1.76405,-0.0334457,0.277814,
2,0,0,1,0,4001.65,0.259436,0.25916,-0.230383,3,2.12133,10,-5.97061e-05,-3.63755,-0.612014,-0.0964031,0.259345,
2,0,0,1,0,4005.35,0.240958,0.240683,-0.244314,3,2.12037,10,-5.88021e-05,-3.61205,-1.22783,-0.0480521,0.240878,
2,0,0,0,0,4009.04,0.222481,0.22217,-0.260058,3,2.11936,10,-5.77771e-05,-3.58493,-0.682172,-0.0864885,0.222378,
2,0,0,0,0,4012.74,0.204003,0.203681,-0.285419,3,2.11827,10,-5.81343e-05,-3.54452,-0.4405,-0.133939,0.203909,
2,0,0,1,0,4016.44,0.185526,0.185224,-0.334161,3,2.11705,10,-6.18946e-05,-3.47604,-0.201838,-0.292313,0.185491,
2,0,0,1,0,4020.13,0.167047,0.16677,-0.458041,3,2.11555,10,-7.63874e-05,-3.3391,-0.104055,-0.567006,0.167136,
2,0,0,1,0,4023.83,0.14857,0.148274,-0.798456,3,2.11321,10,-0.00011839,-3.09775,-0.0823785,-0.716206,0.148912,
2,0,0,1,0,4027.52,0.130092,0.129819,-0.988308,3,2.10968,10,-0.000128301,-3.00511,0.714375,0.0825896,0.130609,
2,0,0,1,0,4031.22,0.111614,0.11131,-0.799548,3,2.10625,10,-8.89975e-05,-3.09716,0.191458,0.308162,0.111949,
2,0,0,0,0,4034.91,0.0931369,0.09286,-0.673619,3,2.10349,10,-6.25523e-05,-3.17159,0.445842,0.132334,0.0933989,
2,0,0,1,0,4038.61,0.0746596,0.0743891,-0.610165,3,2.10104,10,-4.53896e-05,-3.21455,0.38185,0.154511,0.0748773,
2,0,0,1,0,4042.3,0.0561813,0.0558875,-0.5316,3,2.09884,10,-2.97098e-05,-3.27441,0.350295,0.16843,0.0563128,
2,0,0,1,0,4046,0.0377039,0.0373986,-0.48518,3,2.09689,10,-1.81451e-05,-3.3141,0.630793,0.0935331,0.0377868,
2,0,0,1,0,4049.7,0.0192267,0.0189481,-0.475088,3,2.09504,10,-9.00201e-06,-3.32323,-1.69873,-0.0347318,0.0193282,
2,0,0,1,0,4053.39,0.00074842,0.00039568,-0.492252,3,2.09318,10,-1.94774e-07,-3.30781, , ,0.000789481,
2,0,0,0,0,4053.49,0.000274105,-8.07672e-05,-0.490497,3,2.09313,10,3.96161e-08,-3.30936, , ,0.000311631,