File: Figure_codes/Fig_3-5/workspace_calculate_alpha_eff/20221101_1-115_003_TrumpetPlot_ParaChange_from10_every3_16_CV_C01_12.csv
mode,ox/red,error,control changes,counter inc.,time/s,control/V,Ewe/V,<I>/mA,cycle number,(Q-Qo)/C,I Range,P/W,log(|I|),Tafel slope mV/dec,alpha_eff,E-IR/V,
2,0,0,1,0,9110.64,2.44065e-05,-0.000191712,-0.0453313,13,0.0000000E+000,10,8.69057e-09,-4.3436, , ,-0.000171767,
2,1,0,1,0,9114.39,0.0187763,0.0184306,0.276632,13,0.000957779,10,5.09849e-06,-3.5581,0.200546,0.294197,0.0183089,
2,1,0,0,0,9118.19,0.0377538,0.0374421,0.34281,13,0.00221128,10,1.28355e-05,-3.46495,0.236081,0.249914,0.0372913,
2,1,0,1,0,9121.98,0.0567309,0.0564223,0.406446,13,0.00372114,10,2.29326e-05,-3.391,0.31302,0.188486,0.0562435,
2,1,0,0,0,9125.78,0.075708,0.0754206,0.461835,13,0.00545593,10,3.48319e-05,-3.33551,0.448893,0.131434,0.0752174,
2,1,0,1,0,9129.57,0.0946851,0.0943997,0.523568,13,0.00738354,10,4.94247e-05,-3.28103,0.248192,0.237719,0.0941694,
2,1,0,0,0,9133.37,0.113662,0.113386,0.633528,13,0.00965339,10,7.18334e-05,-3.19823,0.334057,0.176617,0.113108,
2,1,0,1,0,9137.16,0.132639,0.132326,0.710457,13,0.0122883,10,9.40121e-05,-3.14846,5.09104,0.011589,0.132014,
2,1,0,1,0,9140.96,0.151617,0.151325,0.499129,13,0.0147664,10,7.55305e-05,-3.30179,-0.075714,-0.779248,0.151105,
2,1,0,1,0,9144.75,0.170594,0.170307,0.347987,13,0.0163769,10,5.92645e-05,-3.45844,-0.202073,-0.291974,0.170154,
2,1,0,1,0,9148.55,0.189571,0.189249,0.310414,13,0.0176845,10,5.87455e-05,-3.50806,-0.567815,-0.103907,0.189113,
2,1,0,1,0,9152.34,0.208547,0.208261,0.2944,13,0.0189013,10,6.13119e-05,-3.53106,-0.688834,-0.085652,0.208131,
2,1,0,1,0,9156.14,0.227524,0.227237,0.285865,13,0.0200713,10,6.4959e-05,-3.54384,-1.25739,-0.0469225,0.227111,
2,1,0,1,0,9159.94,0.246501,0.246203,0.279378,13,0.0212135,10,6.87837e-05,-3.55381,-1.23272,-0.0478616,0.24608,
2,1,0,1,0,9163.73,0.265479,0.265179,0.274119,13,0.0223367,10,7.26906e-05,-3.56206,-0.9096,-0.0648637,0.265059,
2,1,0,0,0,9167.53,0.284456,0.284183,0.270357,13,0.0234409,10,7.68308e-05,-3.56806,-2.1874,-0.0269726,0.284064,
2,1,0,1,0,9171.32,0.303433,0.303124,0.265339,13,0.0245271,10,8.04307e-05,-3.5762,-1.64495,-0.0358673,0.303007,
2,1,0,0,0,9175.12,0.32241,0.322114,0.261734,13,0.0255972,10,8.4308e-05,-3.58214,-3.0564,-0.0193037,0.321998,
2,1,0,1,0,9178.91,0.341387,0.341112,0.257339,13,0.0266525,10,8.77813e-05,-3.58949,-3.03616,-0.0194324,0.340999,
2,1,0,0,0,9182.71,0.360364,0.360063,0.256545,13,0.0276951,10,9.23726e-05,-3.59084,-1.49839,-0.0393757,0.35995,
2,1,0,1,0,9186.5,0.379342,0.379047,0.252515,13,0.0287264,10,9.57153e-05,-3.59771,6.96454,0.00847148,0.378936,
2,1,0,1,0,9190.3,0.398319,0.398027,0.250472,13,0.0297482,10,9.96948e-05,-3.60124,-16.5021,-0.0035753,0.397917,
2,1,0,1,0,9194.09,0.417295,0.416986,0.249539,13,0.0307635,10,0.000104054,-3.60286,17.0661,0.00345715,0.416876,
2,1,0,1,0,9197.89,0.436272,0.436,0.2495,13,0.0317739,10,0.000108782,-3.60293,-4.10714,-0.0143652,0.43589,
2,1,0,1,0,9201.68,0.455249,0.454982,0.248951,13,0.0327825,10,0.000113268,-3.60389,1.18966,0.0495939,0.454873,
2,1,0,1,0,9205.48,0.474226,0.473906,0.251194,13,0.033794,10,0.000119042,-3.59999,0.761438,0.077485,0.473796,
2,1,0,1,0,9209.28,0.493203,0.492935,0.254254,13,0.0348125,10,0.000125331,-3.59473,1.05982,0.0556696,0.492823,
2,1,0,1,0,9213.07,0.512181,0.511892,0.258514,13,0.0358433,10,0.000132331,-3.58752,1.6029,0.0368082,0.511779,
2,1,0,0,0,9216.87,0.531158,0.530882,0.265369,13,0.0368967,10,0.00014088,-3.57615,1.62787,0.0362437,0.530765,
2,1,0,1,0,9220.66,0.550135,0.549833,0.275584,13,0.0379831,10,0.000151525,-3.55975,0.982759,0.0600351,0.549711,
2,1,0,0,0,9224.46,0.569112,0.568788,0.294765,13,0.039123,10,0.000167659,-3.53052,0.592089,0.0996473,0.568659,
2,1,0,1,0,9228.25,0.588089,0.587837,0.324599,13,0.0403502,10,0.000190811,-3.48865,0.328205,0.179766,0.587694,
2,1,0,0,0,9232.05,0.607066,0.606779,0.381716,13,0.0417369,10,0.000231617,-3.41826,0.2178,0.270891,0.606611,
2,1,0,1,0,9235.84,0.626044,0.625777,0.497096,13,0.0434396,10,0.000311072,-3.30356,0.13323,0.442842,0.625559,
2,1,0,1,0,9239.64,0.64502,0.644707,0.745548,13,0.0457986,10,0.000480661,-3.12752,0.0898573,0.656597,0.644379,
2,1,0,1,0,9243.43,0.663997,0.663754,1.29044,13,0.0495953,10,0.000856538,-2.88926,0.0708047,0.833278,0.663187,
2,1,0,1,0,9247.23,0.682974,0.682747,2.38914,13,0.0564149,10,0.00163118,-2.62176,0.0677481,0.870873,0.681696,
2,1,0,1,0,9251.03,0.701951,0.701676,4.30434,13,0.068892,10,0.00302026,-2.36609,0.075538,0.781064,0.699783,
2,1,0,1,0,9254.82,0.720928,0.720669,7.12555,13,0.0903683,10,0.00513516,-2.14718,0.0908273,0.649584,0.717534,
2,1,0,1,0,9258.62,0.739905,0.739624,10.7361,13,0.1241,10,0.00794071,-1.96915,0.106357,0.554734,0.7349,
2,1,0,1,0,9262.41,0.758883,0.758633,15.1419,13,0.172953,10,0.0114872,-1.81982,0.116881,0.504786,0.751971,
2,1,0,0,0,9266.21,0.77786,0.777504,20.8466,13,0.240886,10,0.0162083,-1.68097,0.121891,0.484039,0.768332,
2,1,0,1,0,9270,0.796837,0.79655,27.5718,13,0.332399,10,0.0219623,-1.55953,0.135479,0.435492,0.784418,
2,1,0,0,0,9273.8,0.815814,0.81554,35.1232,13,0.451377,10,0.0286444,-1.45441,0.161999,0.3642,0.800086,
2,1,0,1,0,9277.59,0.834791,0.834568,43.1972,13,0.60013,10,0.036051,-1.36454,0.223634,0.263824,0.815561,
2,1,0,1,0,9281.29,0.846727,0.846519,46.8924,13,0.771865,10,0.0396953,-1.3289,0.17323,0.340588,0.825886,
2,1,0,1,0,9285.08,0.827749,0.827523,38.1137,13,0.932872,10,0.0315399,-1.41892,0.161664,0.364953,0.810753,
2,1,0,1,0,9288.88,0.808772,0.808523,30.2706,13,1.0622,10,0.0244745,-1.51898,0.131983,0.447026,0.795204,
2,1,0,1,0,9292.68,0.789795,0.789529,23.4351,13,1.16309,10,0.0185027,-1.63013,0.112672,0.523643,0.779217,
2,1,0,1,0,9296.47,0.770818,0.77059,16.6667,13,1.2387,10,0.0128432,-1.77815,0.104111,0.566702,0.763257,
2,1,0,1,0,9300.27,0.751841,0.751545,11.3391,13,1.29133,10,0.00852187,-1.94542,0.093022,0.634259,0.746556,
2,1,0,1,0,9304.06,0.732865,0.732615,7.16636,13,1.32598,10,0.00525018,-2.1447,0.0844314,0.698792,0.729462,
2,1,0,1,0,9307.86,0.713887,0.713659,4.23091,13,1.34721,10,0.00301943,-2.37357,0.0729041,0.809282,0.711798,
2,1,0,0,0,9311.65,0.69491,0.694659,2.26407,13,1.35919,10,0.00157276,-2.64511,0.0623445,0.946354,0.693663,
2,1,0,1,0,9315.45,0.675933,0.675667,1.07493,13,1.36525,10,0.000726295,-2.96862,0.0531872,1.10929,0.675194,
2,1,0,0,0,9319.24,0.656956,0.656686,0.442848,13,1.36792,10,0.000290812,-3.35375,0.0432068,1.36552,0.656491,
2,1,0,1,0,9323.04,0.637979,0.637697,0.143508,13,1.3689,10,9.15148e-05,-3.84312,0.0317644,1.85742,0.637634,
2,1,0,0,0,9326.83,0.619002,0.618705,0.0159795,13,1.36909,10,9.88659e-06,-4.79644,0.00634911,9.29264,0.618698,
2,0,0,1,0,9330.63,0.600025,0.599758,-0.0417719,13,1.36896,10,-2.5053e-05,-4.37912,-0.0543267,-1.08602,0.599776,
2,0,0,1,0,9334.43,0.581047,0.580813,-0.0673802,13,1.36868,10,-3.91353e-05,-4.17147,-0.147981,-0.398699,0.580843,
2,0,0,1,0,9338.22,0.56207,0.561733,-0.0812755,13,1.36833,10,-4.56552e-05,-4.09004,-0.777554,-0.0758789,0.561769,
2,0,0,1,0,9342.02,0.543093,0.542764,-0.0888414,13,1.36794,10,-4.82199e-05,-4.05138,-0.597955,-0.0986696,0.542803,
2,0,0,1,0,9345.81,0.524116,0.523817,-0.0955643,13,1.36753,10,-5.00582e-05,-4.0197,-0.436301,-0.135228,0.523859,
2,0,0,1,0,9349.61,0.505139,0.50486,-0.0990973,13,1.36709,10,-5.00303e-05,-4.00394,-0.609248,-0.0968407,0.504904,
2,0,0,1,0,9353.4,0.486162,0.485808,-0.106269,13,1.36664,10,-5.16261e-05,-3.9736,-0.751938,-0.0784639,0.485855,
2,0,0,1,0,9357.2,0.467185,0.466891,-0.112867,13,1.36616,10,-5.26968e-05,-3.94743,-1.48411,-0.0397546,0.466941,
2,0,0,0,0,9360.99,0.448208,0.447925,-0.119519,13,1.36565,10,-5.35355e-05,-3.92256,-0.468699,-0.12588,0.447978,
2,0,0,1,0,9364.79,0.429231,0.428947,-0.128585,13,1.36511,10,-5.51563e-05,-3.89081,-1.23608,-0.0477317,0.429004,
2,0,0,0,0,9368.58,0.410254,0.409922,-0.13672,13,1.36454,10,-5.60444e-05,-3.86417,-8.18141,-0.00721147,0.409982,
2,0,0,1,0,9372.38,0.391277,0.390973,-0.148078,13,1.36393,10,-5.78947e-05,-3.82951,-0.722537,-0.0816567,0.391038,
2,0,0,0,0,9376.17,0.3723,0.372016,-0.157834,13,1.36328,10,-5.87167e-05,-3.8018,-0.49249,-0.119799,0.372086,
2,0,0,1,0,9379.97,0.353322,0.353044,-0.168632,13,1.3626,10,-5.95344e-05,-3.77306,-0.497407,-0.118615,0.353118,
2,0,0,1,0,9383.77,0.334345,0.334044,-0.179626,13,1.36186,10,-6.00029e-05,-3.74563,-0.83372,-0.0707672,0.334123,
2,0,0,1,0,9387.56,0.315368,0.315065,-0.192707,13,1.36108,10,-6.07153e-05,-3.7151,-0.783249,-0.0753272,0.31515,
2,0,0,1,0,9391.36,0.296391,0.296096,-0.205128,13,1.36026,10,-6.07376e-05,-3.68798,-0.68608,-0.0859958,0.296187,
2,0,0,1,0,9395.15,0.277414,0.277133,-0.216842,13,1.35939,10,-6.0094e-05,-3.66386,-1.1873,-0.0496927,0.277229,
2,0,0,1,0,9398.95,0.258437,0.258146,-0.229151,13,1.35847,10,-5.91542e-05,-3.63988,-0.73065,-0.08075,0.258247,
2,0,0,1,0,9402.74,0.239461,0.239157,-0.242789,13,1.3575,10,-5.80646e-05,-3.61477,-1.06697,-0.0552968,0.239264,
2,0,0,1,0,9406.54,0.220483,0.220192,-0.253825,13,1.35648,10,-5.589e-05,-3.59547,-0.934147,-0.0631592,0.220303,
2,0,0,0,0,9410.33,0.201506,0.201194,-0.269776,13,1.35541,10,-5.42773e-05,-3.569,-0.43448,-0.135794,0.201313,
2,0,0,1,0,9414.13,0.182529,0.18225,-0.293914,13,1.35426,10,-5.35658e-05,-3.53178,-0.318359,-0.185326,0.182379,
2,0,0,0,0,9417.92,0.163552,0.163258,-0.348987,13,1.35298,10,-5.69749e-05,-3.45719,-0.176442,-0.334388,0.163412,
2,0,0,1,0,9421.72,0.144575,0.14421,-0.520868,13,1.35131,10,-7.51145e-05,-3.28327,-0.0771297,-0.764945,0.144439,
2,0,0,0,0,9425.52,0.125598,0.125259,-0.774816,13,1.3487,10,-9.70524e-05,-3.1108,-0.388258,-0.151961,0.1256,
2,0,0,1,0,9429.31,0.10662,0.106279,-0.753739,13,1.34567,10,-8.01066e-05,-3.12278,0.47807,0.123413,0.106611,
2,0,0,1,0,9433.11,0.0876433,0.0873446,-0.679488,13,1.34287,10,-5.93496e-05,-3.16782,0.440961,0.133799,0.0876435,
2,0,0,1,0,9436.9,0.0686664,0.0683517,-0.626511,13,1.34032,10,-4.28231e-05,-3.20307,0.799499,0.0737962,0.0686274,
2,0,0,1,0,9440.7,0.0496895,0.0493655,-0.577108,13,1.33794,10,-2.84892e-05,-3.23874,0.51552,0.114448,0.0496194,
2,0,0,1,0,9444.49,0.0307126,0.0303492,-0.526096,13,1.33576,10,-1.59666e-05,-3.27893,0.503256,0.117237,0.0305807,
2,0,0,1,0,9448.29,0.0117356,0.0114074,-0.48983,13,1.33376,10,-5.58766e-06,-3.30995,1.979,0.0298131,0.0116229,
2,0,0,1,0,9450.58,0.000274105,-0.000135643,-0.491557,13,1.33258,10,6.66765e-08,-3.30843, , ,8.0642e-05,