File: Figure_codes/Fig_3-5/workspace_calculate_alpha_eff/20221101_1-115_003_TrumpetPlot_ParaChange_from10_every3_16_CV_C01_83.csv
mode,ox/red,error,control changes,counter inc.,time/s,control/V,Ewe/V,<I>/mA,cycle number,(Q-Qo)/C,I Range,P/W,log(|I|),Tafel slope mV/dec,alpha_eff,E-IR/V,
2,0,0,0,0,55163.6,2.44065e-05,-0.000306236,-0.0885815,84,0.0000000E+000,10,2.71269e-08,-4.05266, , ,-0.00026726,
2,1,0,1,0,55167.4,0.0187763,0.0183882,0.202427,84,0.000649199,10,3.72228e-06,-3.69373,0.148803,0.396496,0.0182992,
2,1,0,1,0,55171.2,0.0377538,0.0374379,0.26498,84,0.00158958,10,9.92029e-06,-3.57679,0.187397,0.31484,0.0373213,
2,1,0,0,0,55175,0.0567309,0.0563619,0.325117,84,0.00277108,10,1.83242e-05,-3.48796,0.272799,0.216276,0.0562188,
2,1,0,1,0,55178.8,0.075708,0.0753538,0.371666,84,0.00415307,10,2.80064e-05,-3.42985,0.518506,0.113789,0.0751902,
2,1,0,0,0,55182.6,0.094685,0.0943764,0.424338,84,0.00570045,10,4.00475e-05,-3.37229,0.266754,0.221178,0.0941897,
2,1,0,1,0,55186.4,0.113662,0.113319,0.516344,84,0.00753553,10,5.85118e-05,-3.28706,0.297011,0.198646,0.113092,
2,1,0,0,0,55190.2,0.132639,0.13229,0.550468,84,0.00963673,10,7.28215e-05,-3.25927,-0.568721,-0.103741,0.132048,
2,1,0,1,0,55194,0.151617,0.151293,0.362255,84,0.011482,10,5.48066e-05,-3.44099,-0.079556,-0.741616,0.151134,
2,1,0,1,0,55197.8,0.170594,0.170289,0.274259,84,0.012688,10,4.67032e-05,-3.56184,-0.367644,-0.160482,0.170168,
2,1,0,1,0,55201.5,0.189571,0.189234,0.256502,84,0.0137379,10,4.85389e-05,-3.59091,-0.849046,-0.0694898,0.189121,
2,1,0,1,0,55205.3,0.208547,0.208203,0.249539,84,0.014743,10,5.19548e-05,-3.60286,-1.16893,-0.0504737,0.208094,
2,1,0,1,0,55209.1,0.227524,0.227196,0.24419,84,0.0157238,10,5.54791e-05,-3.61227,-1.28197,-0.0460229,0.227089,
2,1,0,1,0,55212.9,0.246501,0.246161,0.240723,84,0.0166889,10,5.92566e-05,-3.61848,-2.05553,-0.028703,0.246055,
2,1,0,0,0,55216.7,0.265479,0.26515,0.236366,84,0.01764,10,6.26723e-05,-3.62642,-0.972489,-0.0606691,0.265046,
2,1,0,1,0,55220.5,0.284456,0.284108,0.232822,84,0.0185747,10,6.61465e-05,-3.63298,-4.90214,-0.0120356,0.284005,
2,1,0,0,0,55224.3,0.303433,0.303091,0.229125,84,0.0194933,10,6.94458e-05,-3.63993,-3.20117,-0.0184308,0.30299,
2,1,0,1,0,55228.1,0.32241,0.322116,0.225302,84,0.020397,10,7.25732e-05,-3.64724,-4.51933,-0.013055,0.322017,
2,1,0,0,0,55231.9,0.341387,0.341026,0.222828,84,0.0212876,10,7.59902e-05,-3.65203,-2.87595,-0.020515,0.340928,
2,1,0,1,0,55235.7,0.360364,0.360044,0.221581,84,0.022167,10,7.9779e-05,-3.65447,-4.3474,-0.0135713,0.359947,
2,1,0,1,0,55239.5,0.379342,0.379021,0.219339,84,0.0230386,10,8.31339e-05,-3.65888,-2.19634,-0.0268629,0.378924,
2,1,0,1,0,55243.3,0.398319,0.397983,0.217082,84,0.0239036,10,8.63948e-05,-3.66338,-31.0569,-0.00189974,0.397887,
2,1,0,1,0,55247.1,0.417295,0.416968,0.21642,84,0.0247633,10,9.02402e-05,-3.6647,-1.93893,-0.0304292,0.416873,
2,1,0,1,0,55250.9,0.436272,0.435959,0.216158,84,0.0256177,10,9.4236e-05,-3.66523,8.01414,0.00736199,0.435864,
2,1,0,1,0,55254.7,0.455249,0.454957,0.215646,84,0.0264703,10,9.81096e-05,-3.66626,4.36745,0.013509,0.454862,
2,1,0,1,0,55258.5,0.474226,0.473884,0.217726,84,0.0273255,10,0.000103177,-3.66209,1.1541,0.0511222,0.473788,
2,1,0,1,0,55262.3,0.493203,0.492859,0.219828,84,0.0281871,10,0.000108344,-3.65792,3.3016,0.0178701,0.492762,
2,1,0,0,0,55266.1,0.512181,0.511861,0.224139,84,0.0290587,10,0.000114728,-3.64948,1.36549,0.043208,0.511762,
2,1,0,1,0,55269.9,0.531158,0.530851,0.229754,84,0.0299483,10,0.000121965,-3.63874,1.28099,0.0460582,0.53075,
2,1,0,0,0,55273.7,0.550135,0.549781,0.237841,84,0.0308642,10,0.000130761,-3.62371,0.783917,0.075263,0.549676,
2,1,0,1,0,55277.5,0.569112,0.568755,0.248936,84,0.0318167,10,0.000141584,-3.60391,0.829865,0.0710959,0.568645,
2,1,0,0,0,55281.3,0.588089,0.587743,0.26782,84,0.0328239,10,0.000157409,-3.57216,0.556769,0.105969,0.587625,
2,1,0,1,0,55285,0.607066,0.606698,0.297992,84,0.03392,10,0.000180791,-3.52579,0.313986,0.187907,0.606567,
2,1,0,1,0,55288.8,0.626044,0.625735,0.352856,84,0.0351716,10,0.000220795,-3.4524,0.196922,0.299612,0.62558,
2,1,0,1,0,55292.6,0.64502,0.644707,0.460805,84,0.0367207,10,0.000297084,-3.33648,0.133024,0.443529,0.644504,
2,1,0,1,0,55296.4,0.663997,0.663703,0.683076,84,0.038872,10,0.00045336,-3.16553,0.0961507,0.61362,0.663403,
2,1,0,1,0,55300.2,0.682974,0.682615,1.11354,84,0.0422281,10,0.000760116,-2.9533,0.0854612,0.690371,0.682125,
2,1,0,1,0,55304,0.701951,0.701652,1.84975,84,0.0477715,10,0.00129788,-2.73289,0.08675,0.680115,0.700838,
2,1,0,1,0,55307.8,0.720928,0.720646,2.94606,84,0.0567842,10,0.00212307,-2.53076,0.0966864,0.61022,0.719349,
2,1,0,1,0,55311.6,0.739905,0.739609,4.42719,84,0.0706762,10,0.00327439,-2.35387,0.110324,0.534786,0.737661,
2,1,0,0,0,55315.4,0.758883,0.758613,6.34879,84,0.0909997,10,0.00481628,-2.19731,0.120289,0.490486,0.755819,
2,1,0,1,0,55319.2,0.77786,0.777619,8.82055,84,0.119616,10,0.00685902,-2.0545,0.128252,0.460031,0.773737,
2,1,0,0,0,55323,0.796837,0.796568,12.0573,84,0.158979,10,0.00960442,-1.91875,0.130458,0.452252,0.791263,
2,1,0,1,0,55326.8,0.815814,0.815563,16.3244,84,0.212472,10,0.0133136,-1.78716,0.130762,0.451201,0.80838,
2,1,0,0,0,55330.6,0.834791,0.834518,21.7339,84,0.284351,10,0.0181373,-1.66286,0.14157,0.416755,0.824955,
2,1,0,0,0,55334.3,0.846726,0.846469,24.8658,84,0.374362,10,0.0210481,-1.6044,0.107705,0.547794,0.835528,
2,1,0,1,0,55338.1,0.827749,0.827553,18.0202,84,0.455059,10,0.0149127,-1.74424,0.125436,0.470361,0.819624,
2,1,0,1,0,55341.9,0.808772,0.808519,13.1186,84,0.513701,10,0.0106066,-1.88211,0.121986,0.483662,0.802746,
2,1,0,1,0,55345.7,0.789795,0.789544,9.38107,84,0.556043,10,0.00740677,-2.02775,0.11459,0.514877,0.785416,
2,1,0,1,0,55349.5,0.770818,0.77056,6.59137,84,0.586062,10,0.00507904,-2.18102,0.113329,0.520607,0.767659,
2,1,0,1,0,55353.3,0.751841,0.751519,4.50553,84,0.606902,10,0.00338599,-2.34625,0.105947,0.556885,0.749537,
2,1,0,1,0,55357.1,0.732865,0.732516,2.95487,84,0.620891,10,0.00216449,-2.52946,0.0942301,0.626127,0.731215,
2,1,0,0,0,55360.9,0.713887,0.713606,1.80187,84,0.629774,10,0.00128582,-2.74428,0.0778259,0.758102,0.712813,
2,1,0,1,0,55364.7,0.69491,0.6946,0.985112,84,0.634935,10,0.000684259,-3.00651,0.063725,0.925854,0.694167,
2,1,0,0,0,55368.4,0.675933,0.675619,0.455017,84,0.637556,10,0.000307418,-3.34197,0.0495974,1.18958,0.675419,
2,1,0,1,0,55372.2,0.656956,0.656712,0.153626,84,0.638622,10,0.000100888,-3.81354,0.0307722,1.91732,0.656644,
2,1,0,0,0,55376,0.637979,0.637637,0.00304243,84,0.638855,10,1.93997e-06,-5.51678,0.0126981,4.64636,0.637636,
2,0,0,1,0,55379.8,0.619002,0.618704,-0.0616311,84,0.638698,10,-3.81314e-05,-4.2102,-0.063378,-0.930923,0.618731,
2,0,0,0,0,55383.6,0.600024,0.599758,-0.091767,84,0.638368,10,-5.5038e-05,-4.03731,-0.208523,-0.282942,0.599798,
2,0,0,1,0,55387.4,0.581047,0.580692,-0.106286,84,0.637959,10,-6.17195e-05,-3.97352,-0.333853,-0.176725,0.580739,
2,0,0,1,0,55391.2,0.56207,0.561799,-0.11434,84,0.637511,10,-6.42359e-05,-3.9418,-1.06727,-0.055281,0.561849,
2,0,0,1,0,55395,0.543093,0.542773,-0.118928,84,0.637039,10,-6.45512e-05,-3.92471,-2.93758,-0.0200846,0.542826,
2,0,0,1,0,55398.8,0.524116,0.523793,-0.123485,84,0.636549,10,-6.46807e-05,-3.90839,-1.14241,-0.0516453,0.523848,
2,0,0,1,0,55402.6,0.505139,0.504848,-0.128467,84,0.636041,10,-6.48564e-05,-3.89121,-0.936574,-0.0629956,0.504905,
2,0,0,1,0,55406.4,0.486162,0.485855,-0.133118,84,0.635514,10,-6.4676e-05,-3.87576,-1.26012,-0.046821,0.485913,
2,0,0,1,0,55410.2,0.467185,0.466869,-0.138657,84,0.634966,10,-6.47345e-05,-3.85806,-1.59037,-0.0370984,0.46693,
2,0,0,1,0,55414,0.448208,0.447912,-0.145353,84,0.634393,10,-6.51054e-05,-3.83758,-1.08732,-0.0542619,0.447976,
2,0,0,0,0,55417.8,0.429231,0.428904,-0.153427,84,0.633792,10,-6.58056e-05,-3.8141,-4.02883,-0.0146445,0.428971,
2,0,0,1,0,55421.6,0.410254,0.409955,-0.162008,84,0.633157,10,-6.6416e-05,-3.79046,-0.942554,-0.0625959,0.410027,
2,0,0,0,0,55425.4,0.391277,0.390943,-0.171554,84,0.632488,10,-6.7068e-05,-3.7656,-0.865352,-0.0681803,0.391019,
2,0,0,1,0,55429.2,0.3723,0.37199,-0.18158,84,0.631782,10,-6.75459e-05,-3.74093,-0.969206,-0.0608745,0.37207,
2,0,0,1,0,55433,0.353322,0.352975,-0.190699,84,0.631037,10,-6.73119e-05,-3.71965,-1.1186,-0.0527444,0.353059,
2,0,0,1,0,55436.8,0.334345,0.334041,-0.201834,84,0.630251,10,-6.74208e-05,-3.69501,-0.55222,-0.106841,0.334129,
2,0,0,1,0,55440.6,0.315368,0.315031,-0.21354,84,0.629424,10,-6.72718e-05,-3.67052,-0.64989,-0.0907846,0.315125,
2,0,0,1,0,55444.4,0.296391,0.296072,-0.224551,84,0.628551,10,-6.64833e-05,-3.64869,-0.665764,-0.08862,0.296171,
2,0,0,1,0,55448.2,0.277414,0.277105,-0.235808,84,0.627632,10,-6.53434e-05,-3.62744,-0.5982,-0.0986293,0.277208,
2,0,0,1,0,55451.9,0.258437,0.258135,-0.249807,84,0.626667,10,-6.4484e-05,-3.6024,-0.94809,-0.0622304,0.258245,
2,0,0,1,0,55455.7,0.239461,0.239121,-0.259157,84,0.625658,10,-6.197e-05,-3.58644,-0.936023,-0.0630326,0.239236,
2,0,0,0,0,55459.5,0.220483,0.220153,-0.271513,84,0.624605,10,-5.97744e-05,-3.56621,-0.826351,-0.0713982,0.220273,
2,0,0,1,0,55463.3,0.201506,0.201193,-0.284088,84,0.623505,10,-5.71565e-05,-3.54655,-0.578577,-0.101974,0.201318,
2,0,0,0,0,55467.1,0.182529,0.182227,-0.301565,84,0.622348,10,-5.49533e-05,-3.52062,-0.533459,-0.110599,0.18236,
2,0,0,1,0,55470.9,0.163552,0.163207,-0.331961,84,0.621105,10,-5.41785e-05,-3.47891,-0.374882,-0.157383,0.163353,
2,0,0,0,0,55474.7,0.144575,0.144224,-0.412652,84,0.619676,10,-5.95142e-05,-3.38442,-0.124064,-0.475561,0.144406,
2,0,0,1,0,55478.5,0.125598,0.125271,-0.606876,84,0.617702,10,-7.60242e-05,-3.2169,-0.14541,-0.405749,0.125538,
2,0,0,1,0,55482.3,0.10662,0.106306,-0.671346,84,0.615165,10,-7.13678e-05,-3.17305,11.5096,0.00512615,0.106601,
2,0,0,1,0,55486.1,0.0876433,0.087263,-0.653584,84,0.612585,10,-5.70336e-05,-3.1847,0.865069,0.0682027,0.0875505,
2,0,0,1,0,55489.9,0.0686664,0.0683348,-0.61579,84,0.610124,10,-4.20799e-05,-3.21057,0.698269,0.0844947,0.0686058,
2,0,0,1,0,55493.7,0.0496895,0.0493579,-0.572415,84,0.607811,10,-2.82532e-05,-3.24229,0.490174,0.120365,0.0496097,
2,0,0,1,0,55497.5,0.0307126,0.0303895,-0.526949,84,0.605669,10,-1.60137e-05,-3.27823,0.535821,0.110111,0.0306213,
2,0,0,1,0,55501.3,0.0117356,0.0114191,-0.496284,84,0.603681,10,-5.66709e-06,-3.30427,1.52227,0.0387579,0.0116374,
2,0,0,0,0,55503.6,0.000274105,-0.000118942,-0.497346,84,0.602512,10,5.91553e-08,-3.30334, , ,9.98905e-05,