File: Figure_codes/Fig_3-5/workspace_calculate_alpha_eff/20221101_1-115_003_TrumpetPlot_ParaChange_from10_every3_16_CV_C01_57.csv
mode,ox/red,error,control changes,counter inc.,time/s,control/V,Ewe/V,<I>/mA,cycle number,(Q-Qo)/C,I Range,P/W,log(|I|),Tafel slope mV/dec,alpha_eff,E-IR/V,
2,0,0,1,0,38662.6,2.44065e-05,-0.000344411,-0.0440593,58,0.0000000E+000,10,1.51745e-08,-4.35596, , ,-0.000325025,
2,1,0,1,0,38666.3,0.0187763,0.0184456,0.26739,58,0.000898742,10,4.93218e-06,-3.57285,0.179014,0.329583,0.018328,
2,1,0,0,0,38670.1,0.0377538,0.0373955,0.331482,58,0.00209652,10,1.23959e-05,-3.47954,0.228788,0.25788,0.0372496,
2,1,0,1,0,38673.9,0.0567309,0.0564287,0.391309,58,0.00353676,10,2.20811e-05,-3.40748,0.324067,0.182061,0.0562565,
2,1,0,0,0,38677.7,0.075708,0.0754078,0.434976,58,0.00517394,10,3.28006e-05,-3.36153,0.649215,0.0908789,0.0752165,
2,1,0,1,0,38681.5,0.094685,0.094369,0.48595,58,0.0069654,10,4.58586e-05,-3.31341,0.270803,0.217871,0.0941552,
2,1,0,0,0,38685.3,0.113662,0.113294,0.581655,58,0.00905538,10,6.5898e-05,-3.23533,0.342371,0.172328,0.113038,
2,1,0,1,0,38689.1,0.132639,0.132333,0.623316,58,0.0114216,10,8.24851e-05,-3.20529,-0.702399,-0.0839979,0.132058,
2,1,0,1,0,38692.9,0.151617,0.151307,0.417423,58,0.0135233,10,6.31589e-05,-3.37942,-0.0850724,-0.693527,0.151123,
2,1,0,1,0,38696.7,0.170594,0.170249,0.321419,58,0.0149267,10,5.47211e-05,-3.49293,-0.351317,-0.16794,0.170107,
2,1,0,1,0,38700.5,0.189571,0.189219,0.3014,58,0.0161572,10,5.70306e-05,-3.52086,-1.13433,-0.0520129,0.189087,
2,1,0,1,0,38704.3,0.208547,0.208234,0.293435,58,0.0173387,10,6.11033e-05,-3.53249,-1.60585,-0.0367407,0.208105,
2,1,0,1,0,38708.1,0.227524,0.227205,0.287205,58,0.0184912,10,6.52542e-05,-3.54181,-1.23701,-0.0476955,0.227078,
2,1,0,1,0,38711.9,0.246501,0.246219,0.282237,58,0.0196236,10,6.9492e-05,-3.54939,-0.89184,-0.0661554,0.246095,
2,1,0,1,0,38715.7,0.265479,0.265172,0.278653,58,0.020742,10,7.3891e-05,-3.55494,-1.30705,-0.0451396,0.265049,
2,1,0,0,0,38719.5,0.284456,0.284174,0.274478,58,0.0218449,10,7.79995e-05,-3.56149,-13.2044,-0.00446821,0.284054,
2,1,0,1,0,38723.3,0.303433,0.303136,0.270642,58,0.0229308,10,8.20416e-05,-3.5676,-150.168,-0.000392894,0.303017,
2,1,0,0,0,38727.1,0.32241,0.322104,0.266876,58,0.0240013,10,8.59619e-05,-3.57369,-2.4826,-0.0237654,0.321987,
2,1,0,1,0,38730.9,0.341387,0.341079,0.265163,58,0.0250594,10,9.04414e-05,-3.57649,-4.03871,-0.0146086,0.340962,
2,1,0,0,0,38734.7,0.360364,0.36004,0.262674,58,0.0261058,10,9.45733e-05,-3.58058,-38.5365,-0.00153102,0.359924,
2,1,0,1,0,38738.5,0.379342,0.379042,0.260051,58,0.0271412,10,9.85702e-05,-3.58494,-2.61937,-0.0225245,0.378928,
2,1,0,1,0,38742.3,0.398319,0.398,0.258025,58,0.0281678,10,0.000102694,-3.58834,2.27715,0.0259096,0.397886,
2,1,0,1,0,38746,0.417295,0.417008,0.256382,58,0.0291875,10,0.000106913,-3.59111,-3.14822,-0.0187407,0.416896,
2,1,0,1,0,38749.8,0.436272,0.435936,0.255384,58,0.0302012,10,0.000111331,-3.59281,2.85642,0.0206552,0.435824,
2,1,0,1,0,38753.6,0.455249,0.454966,0.25427,58,0.0312107,10,0.000115684,-3.59471,2.88975,0.020417,0.454855,
2,1,0,1,0,38757.4,0.474226,0.473908,0.25588,58,0.0322204,10,0.000121264,-3.59196,1.62936,0.0362106,0.473796,
2,1,0,1,0,38761.2,0.493203,0.492902,0.258613,58,0.0332364,10,0.000127471,-3.58735,2.25606,0.0261518,0.492788,
2,1,0,1,0,38765,0.512181,0.511856,0.262666,58,0.0342629,10,0.000134447,-3.5806,3.08482,0.0191259,0.511741,
2,1,0,0,0,38768.8,0.531158,0.530882,0.26801,58,0.035305,10,0.000142282,-3.57185,1.19379,0.0494226,0.530764,
2,1,0,1,0,38772.6,0.550135,0.549808,0.275609,58,0.0363719,10,0.000151532,-3.55971,1.08021,0.0546188,0.549687,
2,1,0,0,0,38776.4,0.569112,0.568808,0.288341,58,0.0374793,10,0.000164011,-3.54009,0.672473,0.0877358,0.568681,
2,1,0,1,0,38780.2,0.588089,0.587789,0.310084,58,0.0386483,10,0.000182264,-3.50852,0.528789,0.111576,0.587652,
2,1,0,0,0,38784,0.607066,0.606761,0.345281,58,0.0399194,10,0.000209503,-3.46183,0.353554,0.166877,0.606609,
2,1,0,1,0,38787.8,0.626044,0.625764,0.414041,58,0.0413806,10,0.000259092,-3.38296,0.181308,0.325413,0.625582,
2,1,0,1,0,38791.6,0.64502,0.644726,0.553213,58,0.043221,10,0.000356671,-3.25711,0.122284,0.482484,0.644482,
2,1,0,1,0,38795.4,0.663997,0.663718,0.843224,58,0.0458429,10,0.000559664,-3.07406,0.0908098,0.649709,0.663347,
2,1,0,1,0,38799.2,0.682974,0.682704,1.41068,58,0.0500468,10,0.00096308,-2.85057,0.0807192,0.730929,0.682083,
2,1,0,1,0,38803,0.701951,0.701648,2.38383,58,0.0571377,10,0.00167261,-2.62272,0.0837167,0.704758,0.700599,
2,1,0,1,0,38806.8,0.720928,0.720642,3.83259,58,0.0688149,10,0.00276192,-2.41651,0.0952786,0.619237,0.718956,
2,1,0,1,0,38810.6,0.739905,0.739647,5.77725,58,0.0869262,10,0.00427313,-2.23828,0.107522,0.548726,0.737105,
2,1,0,1,0,38814.4,0.758883,0.758637,8.26601,58,0.113426,10,0.0062709,-2.0827,0.121454,0.48578,0.755,
2,1,0,0,0,38818.2,0.77786,0.77758,11.4291,58,0.150586,10,0.00888706,-1.94199,0.128234,0.460097,0.772552,
2,1,0,1,0,38822,0.796837,0.796553,15.6854,58,0.201659,10,0.0124942,-1.80451,0.121713,0.484746,0.789652,
2,1,0,0,0,38825.8,0.815814,0.815547,21.1459,58,0.271233,10,0.0172455,-1.67477,0.129273,0.456397,0.806243,
2,1,0,1,0,38829.5,0.834791,0.834525,27.5954,58,0.363588,10,0.0230291,-1.55916,0.149329,0.395101,0.822383,
2,1,0,1,0,38833.2,0.846726,0.846515,31.3402,58,0.477278,10,0.02653,-1.5039,0.111406,0.529596,0.832725,
2,1,0,1,0,38837,0.827749,0.827476,23.5004,58,0.580623,10,0.019446,-1.62892,0.123046,0.479496,0.817136,
2,1,0,1,0,38840.8,0.808772,0.80849,17.1062,58,0.657119,10,0.0138302,-1.76685,0.120322,0.49035,0.800963,
2,1,0,1,0,38844.6,0.789795,0.789481,12.2653,58,0.712404,10,0.00968319,-1.91132,0.115039,0.512867,0.784085,
2,1,0,1,0,38848.4,0.770818,0.770565,8.57382,58,0.75158,10,0.00660669,-2.06683,0.10964,0.538127,0.766793,
2,1,0,1,0,38852.2,0.751841,0.751566,5.7965,58,0.7785,10,0.00435645,-2.23683,0.101635,0.580508,0.749015,
2,1,0,1,0,38856,0.732865,0.73261,3.76822,58,0.796415,10,0.00276064,-2.42386,0.0914448,0.645198,0.730952,
2,1,0,1,0,38859.8,0.713887,0.713644,2.28551,58,0.80771,10,0.00163104,-2.64102,0.0783841,0.752703,0.712639,
2,1,0,0,0,38863.6,0.69491,0.694632,1.25426,58,0.814258,10,0.000871246,-2.90161,0.0645889,0.91347,0.69408,
2,1,0,1,0,38867.4,0.675933,0.675627,0.597105,58,0.817629,10,0.00040342,-3.22395,0.0522045,1.13017,0.675364,
2,1,0,0,0,38871.2,0.656956,0.656681,0.231637,58,0.819092,10,0.000152112,-3.63519,0.039724,1.48525,0.656579,
2,1,0,1,0,38875,0.637979,0.637689,0.0512307,58,0.819548,10,3.26693e-05,-4.29047,0.0179809,3.28126,0.637667,
2,0,0,0,0,38878.8,0.619002,0.618728,-0.028637,58,0.819533,10,-1.77185e-05,-4.54307,-0.0238941,-2.46923,0.618741,
2,0,0,1,0,38882.6,0.600024,0.599717,-0.063489,58,0.819312,10,-3.80755e-05,-4.1973,-0.117354,-0.502752,0.599745,
2,0,0,1,0,38886.4,0.581047,0.580719,-0.0797921,58,0.818999,10,-4.63367e-05,-4.09804,-0.235645,-0.250377,0.580754,
2,0,0,1,0,38890.2,0.56207,0.561752,-0.0897526,58,0.818638,10,-5.04187e-05,-4.04695,-0.477359,-0.123597,0.561792,
2,0,0,1,0,38894,0.543093,0.542775,-0.0955348,58,0.818249,10,-5.18539e-05,-4.01984,-1.28361,-0.0459642,0.542817,
2,0,0,1,0,38897.8,0.524116,0.523782,-0.100725,58,0.81784,10,-5.27577e-05,-3.99686,-2.3683,-0.0249124,0.523826,
2,0,0,1,0,38901.6,0.505139,0.504811,-0.106528,58,0.81741,10,-5.37763e-05,-3.97254,-1.23805,-0.0476555,0.504858,
2,0,0,1,0,38905.4,0.486162,0.485854,-0.1111,58,0.816958,10,-5.39782e-05,-3.95429,-1.20895,-0.0488026,0.485903,
2,0,0,1,0,38909.2,0.467185,0.46688,-0.118034,58,0.816483,10,-5.51077e-05,-3.92799,-0.691045,-0.085378,0.466932,
2,0,0,0,0,38912.9,0.448208,0.447872,-0.125835,58,0.81598,10,-5.6358e-05,-3.9002,-1.69261,-0.0348574,0.447928,
2,0,0,1,0,38916.7,0.429231,0.428935,-0.133355,58,0.815447,10,-5.72008e-05,-3.87499,-0.914329,-0.0645282,0.428993,
2,0,0,0,0,38920.5,0.410254,0.409964,-0.143592,58,0.81488,10,-5.88677e-05,-3.84287,-1.84352,-0.032004,0.410027,
2,0,0,1,0,38924.3,0.391277,0.390976,-0.153003,58,0.814277,10,-5.98207e-05,-3.8153,-0.705027,-0.0836848,0.391044,
2,0,0,0,0,38928.1,0.3723,0.371992,-0.162891,58,0.813636,10,-6.0594e-05,-3.7881,-0.619018,-0.0953123,0.372064,
2,0,0,1,0,38931.9,0.353322,0.353023,-0.173243,58,0.812953,10,-6.11588e-05,-3.76134,-0.550476,-0.10718,0.353099,
2,0,0,1,0,38935.7,0.334345,0.33402,-0.184947,58,0.812228,10,-6.17762e-05,-3.73295,-0.609862,-0.0967433,0.334102,
2,0,0,1,0,38939.5,0.315368,0.315026,-0.196263,58,0.811458,10,-6.18281e-05,-3.70716,-1.07318,-0.0549769,0.315113,
2,0,0,1,0,38943.3,0.296391,0.296086,-0.208846,58,0.810642,10,-6.18362e-05,-3.68017,-0.679787,-0.0867919,0.296178,
2,0,0,1,0,38947.1,0.277414,0.277109,-0.221093,58,0.809777,10,-6.12668e-05,-3.65543,-1.00312,-0.0588166,0.277206,
2,0,0,1,0,38950.9,0.258437,0.258126,-0.232664,58,0.808864,10,-6.00566e-05,-3.63327,-0.836957,-0.0704935,0.258228,
2,0,0,1,0,38954.7,0.239461,0.239155,-0.245147,58,0.807907,10,-5.86282e-05,-3.61057,-0.958647,-0.0615451,0.239263,
2,0,0,1,0,38958.5,0.220483,0.220123,-0.257421,58,0.806904,10,-5.66643e-05,-3.58936,-0.668106,-0.0883093,0.220236,
2,0,0,0,0,38962.3,0.201506,0.201165,-0.269764,58,0.805852,10,-5.42669e-05,-3.56902,-0.610215,-0.0966872,0.201283,
2,0,0,1,0,38966.1,0.182529,0.182228,-0.289972,58,0.804738,10,-5.28411e-05,-3.53764,-0.480023,-0.122911,0.182355,
2,0,0,0,0,38969.9,0.163552,0.163217,-0.323161,58,0.803529,10,-5.27453e-05,-3.49058,-0.332836,-0.177264,0.163359,
2,0,0,1,0,38973.7,0.144575,0.144242,-0.419828,58,0.802101,10,-6.05568e-05,-3.37693,-0.103738,-0.568743,0.144427,
2,0,0,0,0,38977.5,0.125598,0.125253,-0.638086,58,0.800031,10,-7.99224e-05,-3.19512,-0.167295,-0.35267,0.125534,
2,0,0,1,0,38981.3,0.10662,0.106293,-0.687915,58,0.797399,10,-7.31205e-05,-3.16246,2.94072,0.0200631,0.106596,
2,0,0,1,0,38985.1,0.0876433,0.0873341,-0.654876,58,0.794783,10,-5.7193e-05,-3.18384,0.701529,0.084102,0.0876222,
2,0,0,1,0,38988.9,0.0686664,0.0683466,-0.614073,58,0.792317,10,-4.19698e-05,-3.21178,0.72003,0.081941,0.0686168,
2,0,0,1,0,38992.7,0.0496895,0.049376,-0.571255,58,0.790002,10,-2.82063e-05,-3.24317,0.558487,0.105643,0.0496274,
2,0,0,1,0,38996.4,0.0307126,0.0303714,-0.526148,58,0.787856,10,-1.59799e-05,-3.27889,0.682011,0.0865088,0.0306029,
2,0,0,1,0,39000.2,0.0117356,0.0114306,-0.495134,58,0.785867,10,-5.65968e-06,-3.30528,1.50867,0.0391073,0.0116485,
2,0,0,1,0,39002.5,0.000274105,-0.00010224,-0.495541,58,0.7847,10,5.06643e-08,-3.30492, , ,0.000115798,