File: Figure_codes/Fig_3-5/workspace_calculate_alpha_eff/20221101_1-115_003_TrumpetPlot_ParaChange_from10_every3_16_CV_C01_45.csv
mode,ox/red,error,control changes,counter inc.,time/s,control/V,Ewe/V,<I>/mA,cycle number,(Q-Qo)/C,I Range,P/W,log(|I|),Tafel slope mV/dec,alpha_eff,E-IR/V,
2,0,0,1,0,30782.1,2.44065e-05,-0.0002108,-0.0440593,46,0.0000000E+000,10,9.28767e-09,-4.35596, , ,-0.000191414,
2,1,0,1,0,30785.8,0.0187763,0.0184572,0.269671,46,0.000903285,10,4.97739e-06,-3.56917,0.159687,0.369473,0.0183386,
2,1,0,0,0,30789.6,0.0377538,0.0373976,0.334818,46,0.00211109,10,1.25214e-05,-3.47519,0.245736,0.240096,0.0372503,
2,1,0,1,0,30793.4,0.0567309,0.0564329,0.395838,46,0.00356406,10,2.23383e-05,-3.40248,0.33831,0.174396,0.0562588,
2,1,0,0,0,30797.2,0.075708,0.0753591,0.439444,46,0.0052182,10,3.31161e-05,-3.3571,0.703421,0.0838758,0.0751657,
2,1,0,1,0,30801,0.0946851,0.0943679,0.493466,46,0.00703144,10,4.65673e-05,-3.30674,0.276388,0.213468,0.0941508,
2,1,0,0,0,30804.8,0.113662,0.113361,0.590701,46,0.00914887,10,6.69623e-05,-3.22863,0.372489,0.158394,0.113101,
2,1,0,1,0,30808.6,0.132639,0.132265,0.637238,46,0.0115545,10,8.42841e-05,-3.1957,-0.866349,-0.0681018,0.131984,
2,1,0,1,0,30812.4,0.151617,0.151328,0.430793,46,0.0137182,10,6.51911e-05,-3.36573,-0.081815,-0.721139,0.151138,
2,1,0,1,0,30816.2,0.170594,0.170269,0.327559,46,0.0151534,10,5.57731e-05,-3.48471,-0.333556,-0.176882,0.170125,
2,1,0,1,0,30820,0.189571,0.189267,0.305172,46,0.0163976,10,5.7759e-05,-3.51546,-0.68192,-0.0865204,0.189133,
2,1,0,1,0,30823.8,0.208547,0.208244,0.295086,46,0.0175852,10,6.14499e-05,-3.53005,-2.04403,-0.0288646,0.208114,
2,1,0,1,0,30827.6,0.227524,0.227204,0.28747,46,0.0187414,10,6.53143e-05,-3.54141,-0.689968,-0.0855112,0.227077,
2,1,0,1,0,30831.4,0.246501,0.246221,0.283498,46,0.0198763,10,6.98032e-05,-3.54745,-1.06247,-0.0555311,0.246096,
2,1,0,1,0,30835.2,0.265479,0.265171,0.278599,46,0.0209952,10,7.38763e-05,-3.55502,-1.97701,-0.029843,0.265048,
2,1,0,0,0,30839,0.284456,0.284152,0.275189,46,0.0220976,10,7.81955e-05,-3.56037,-3.1673,-0.0186278,0.284031,
2,1,0,1,0,30842.8,0.303433,0.303114,0.269865,46,0.0231827,10,8.18e-05,-3.56885,-5.69111,-0.010367,0.302996,
2,1,0,0,0,30846.6,0.32241,0.322158,0.266806,46,0.0242519,10,8.59536e-05,-3.5738,1.87809,0.031415,0.322041,
2,1,0,1,0,30850.3,0.341387,0.341097,0.263581,46,0.0253076,10,8.99068e-05,-3.57909,-2.82377,-0.0208941,0.340981,
2,1,0,0,0,30854.1,0.360364,0.36002,0.262408,46,0.0263515,10,9.44721e-05,-3.58102,-2.72931,-0.0216172,0.359904,
2,1,0,1,0,30857.9,0.379342,0.379029,0.26009,46,0.0273852,10,9.85816e-05,-3.58488,-2.64437,-0.0223115,0.378915,
2,1,0,1,0,30861.7,0.398319,0.398002,0.256329,46,0.0284099,10,0.00010202,-3.5912,-8.40381,-0.00702062,0.397889,
2,1,0,1,0,30865.5,0.417295,0.417012,0.255246,46,0.029426,10,0.000106441,-3.59304,3.54534,0.0166416,0.416899,
2,1,0,1,0,30869.3,0.436272,0.435974,0.25492,46,0.0304361,10,0.000111138,-3.5936,8.79904,0.00670527,0.435861,
2,1,0,1,0,30873.1,0.455249,0.454936,0.254205,46,0.0314434,10,0.000115647,-3.59482,1.38007,0.0427515,0.454824,
2,1,0,1,0,30876.9,0.474226,0.473893,0.255459,46,0.0324529,10,0.00012106,-3.59268,2.79318,0.0211228,0.473781,
2,1,0,1,0,30880.7,0.493203,0.492897,0.258045,46,0.0334674,10,0.00012719,-3.5883,1.33025,0.0443525,0.492783,
2,1,0,1,0,30884.5,0.512181,0.511824,0.26157,46,0.0344914,10,0.000133878,-3.58241,10.2383,0.00576268,0.511709,
2,1,0,0,0,30888.3,0.531158,0.530851,0.266847,46,0.035533,10,0.000141656,-3.57374,2.74596,0.0214861,0.530734,
2,1,0,1,0,30892.1,0.550135,0.549829,0.276663,46,0.0366027,10,0.000152117,-3.55805,0.712889,0.0827619,0.549708,
2,1,0,0,0,30895.9,0.569112,0.568793,0.289935,46,0.0377141,10,0.000164913,-3.5377,0.530878,0.111137,0.568665,
2,1,0,1,0,30899.7,0.588089,0.587745,0.312571,46,0.03889,10,0.000183712,-3.50505,0.476482,0.123824,0.587608,
2,1,0,0,0,30903.5,0.607066,0.606764,0.350143,46,0.0401754,10,0.000212454,-3.45575,0.293699,0.200886,0.60661,
2,1,0,1,0,30907.3,0.626044,0.625766,0.424322,46,0.0416673,10,0.000265526,-3.3723,0.176372,0.33452,0.625579,
2,1,0,1,0,30911.1,0.64502,0.644676,0.576308,46,0.0435708,10,0.000371532,-3.23935,0.119481,0.493802,0.644422,
2,1,0,1,0,30914.9,0.663997,0.663739,0.898024,46,0.0463344,10,0.000596053,-3.04671,0.0855994,0.689257,0.663343,
2,1,0,1,0,30918.7,0.682974,0.682689,1.52678,46,0.0508503,10,0.00104231,-2.81622,0.0788645,0.748119,0.682017,
2,1,0,1,0,30922.5,0.701951,0.701652,2.60856,46,0.0585757,10,0.0018303,-2.5836,0.0825699,0.714546,0.700504,
2,1,0,1,0,30926.3,0.720928,0.720648,4.21456,46,0.0713926,10,0.00303721,-2.37525,0.0934664,0.631243,0.718794,
2,1,0,1,0,30930.1,0.739905,0.739633,6.3527,46,0.0913153,10,0.00469867,-2.19704,0.109536,0.538637,0.736838,
2,1,0,1,0,30933.8,0.758883,0.758574,9.04977,46,0.120392,10,0.00686492,-2.04336,0.122496,0.481648,0.754592,
2,1,0,0,0,30937.6,0.77786,0.777554,12.4517,46,0.160959,10,0.0096819,-1.90477,0.125106,0.471601,0.772075,
2,1,0,1,0,30941.4,0.796837,0.796478,16.8386,46,0.216397,10,0.0134116,-1.77369,0.143593,0.410882,0.789069,
2,1,0,0,0,30945.2,0.815814,0.81553,22.4874,46,0.290752,10,0.0183391,-1.64806,0.141611,0.416633,0.805636,
2,1,0,1,0,30949,0.834791,0.834501,29.5408,46,0.38935,10,0.0246518,-1.52958,0.160187,0.368319,0.821503,
2,1,0,1,0,30952.7,0.846727,0.846474,34.9696,46,0.515123,10,0.0296009,-1.45631,0.114903,0.513476,0.831087,
2,1,0,1,0,30956.5,0.827749,0.827493,26.5755,46,0.631284,10,0.021991,-1.57552,0.123893,0.476216,0.8158,
2,1,0,1,0,30960.3,0.808772,0.808505,19.7822,46,0.718764,10,0.015994,-1.70373,0.117432,0.50242,0.799801,
2,1,0,1,0,30964.1,0.789795,0.789525,14.3033,46,0.782963,10,0.0112928,-1.84456,0.11161,0.528626,0.783231,
2,1,0,1,0,30967.9,0.770818,0.770529,9.99585,46,0.828642,10,0.00770209,-2.00018,0.107481,0.548935,0.766131,
2,1,0,1,0,30971.7,0.751841,0.751524,6.73742,46,0.860096,10,0.00506333,-2.17151,0.0938639,0.62857,0.74856,
2,1,0,1,0,30975.5,0.732865,0.732534,4.34243,46,0.880828,10,0.00318098,-2.36227,0.088389,0.667504,0.730623,
2,1,0,1,0,30979.3,0.713887,0.713632,2.6163,46,0.893805,10,0.00186707,-2.58231,0.0772971,0.763289,0.71248,
2,1,0,0,0,30983.1,0.69491,0.694613,1.42791,46,0.901283,10,0.000991844,-2.8453,0.0649162,0.908865,0.693985,
2,1,0,1,0,30986.9,0.675933,0.675632,0.699115,46,0.905174,10,0.000472344,-3.15545,0.0536386,1.09995,0.675324,
2,1,0,0,0,30990.7,0.656956,0.656669,0.282553,46,0.90691,10,0.000185544,-3.5489,0.0408972,1.44264,0.656544,
2,1,0,1,0,30994.5,0.637979,0.637678,0.0734741,46,0.90749,10,4.68528e-05,-4.13387,0.0233436,2.52746,0.637645,
2,0,0,0,0,30998.3,0.619002,0.618745,-0.0191156,46,0.907525,10,-1.18277e-05,-4.71861,-0.0133932,-4.40522,0.618754,
2,0,0,1,0,31002.1,0.600025,0.599728,-0.0582704,46,0.907323,10,-3.49464e-05,-4.23455,-0.0910906,-0.647707,0.599754,
2,0,0,1,0,31005.9,0.581047,0.580752,-0.0781439,46,0.907015,10,-4.53822e-05,-4.1071,-0.577394,-0.102183,0.580786,
2,0,0,1,0,31009.7,0.56207,0.561808,-0.0878634,46,0.906653,10,-4.93623e-05,-4.05619,-0.59994,-0.0983432,0.561846,
2,0,0,1,0,31013.5,0.543093,0.542784,-0.0957001,46,0.906261,10,-5.19445e-05,-4.01909,-0.551389,-0.107003,0.542826,
2,0,0,1,0,31017.2,0.524116,0.523809,-0.0997705,46,0.905846,10,-5.22607e-05,-4.001,-2.43612,-0.0242189,0.523853,
2,0,0,1,0,31021,0.505139,0.504809,-0.104696,46,0.905412,10,-5.28513e-05,-3.98007,-0.969143,-0.0608785,0.504855,
2,0,0,1,0,31024.8,0.486162,0.485855,-0.110741,46,0.904956,10,-5.38041e-05,-3.95569,-5.1656,-0.0114217,0.485904,
2,0,0,1,0,31028.6,0.467185,0.466908,-0.117663,46,0.904475,10,-5.49377e-05,-3.92936,-1.093,-0.05398,0.46696,
2,0,0,0,0,31032.4,0.448208,0.447887,-0.125355,46,0.903969,10,-5.61449e-05,-3.90186,-0.835996,-0.0705745,0.447942,
2,0,0,1,0,31036.2,0.429231,0.428886,-0.132606,46,0.903432,10,-5.68729e-05,-3.87744,-17.514,-0.00336873,0.428944,
2,0,0,0,0,31040,0.410254,0.409925,-0.141765,46,0.902861,10,-5.81131e-05,-3.84843,-1.76488,-0.03343,0.409987,
2,0,0,1,0,31043.8,0.391277,0.39099,-0.15155,46,0.902254,10,-5.92546e-05,-3.81944,-0.58782,-0.100371,0.391057,
2,0,0,0,0,31047.6,0.3723,0.371974,-0.162292,46,0.901607,10,-6.03682e-05,-3.7897,-0.45294,-0.13026,0.372045,
2,0,0,1,0,31051.4,0.353322,0.352977,-0.172201,46,0.90092,10,-6.07831e-05,-3.76396,-0.603812,-0.0977125,0.353053,
2,0,0,1,0,31055.2,0.334345,0.334001,-0.183486,46,0.90019,10,-6.12847e-05,-3.7364,-0.804404,-0.0733462,0.334082,
2,0,0,1,0,31059,0.315368,0.314994,-0.195123,46,0.899415,10,-6.14627e-05,-3.70969,-0.879859,-0.0670562,0.31508,
2,0,0,1,0,31062.8,0.296391,0.29607,-0.20743,46,0.898595,10,-6.14139e-05,-3.68313,-0.626422,-0.0941857,0.296161,
2,0,0,1,0,31066.6,0.277414,0.277131,-0.219957,46,0.897728,10,-6.0957e-05,-3.65766,-0.925016,-0.0637827,0.277228,
2,0,0,1,0,31070.4,0.258437,0.258137,-0.231453,46,0.896811,10,-5.97466e-05,-3.63554,-0.610411,-0.0966562,0.258239,
2,0,0,1,0,31074.2,0.239461,0.239199,-0.244804,46,0.895845,10,-5.85569e-05,-3.61118,-0.723943,-0.0814981,0.239306,
2,0,0,1,0,31078,0.220483,0.220198,-0.256967,46,0.894835,10,-5.65835e-05,-3.59012,-0.955724,-0.0617333,0.220311,
2,0,0,0,0,31081.8,0.201506,0.201195,-0.271464,46,0.893774,10,-5.46174e-05,-3.56629,-0.532229,-0.110854,0.201315,
2,0,0,1,0,31085.6,0.182529,0.182242,-0.28997,46,0.89265,10,-5.28445e-05,-3.53765,-0.390634,-0.151036,0.182369,
2,0,0,0,0,31089.4,0.163552,0.163201,-0.328081,46,0.891423,10,-5.35432e-05,-3.48402,-0.288551,-0.20447,0.163345,
2,0,0,1,0,31093.2,0.144575,0.144229,-0.440434,46,0.889945,10,-6.35235e-05,-3.35612,-0.0929184,-0.634966,0.144423,
2,0,0,0,0,31096.9,0.125598,0.125266,-0.672305,46,0.887751,10,-8.4217e-05,-3.17243,-0.192745,-0.306104,0.125562,
2,0,0,1,0,31100.7,0.10662,0.106278,-0.708249,46,0.885003,10,-7.52713e-05,-3.14981,1.13574,0.0519485,0.10659,
2,0,0,1,0,31104.5,0.0876433,0.0873478,-0.663482,46,0.882328,10,-5.79538e-05,-3.17817,0.709514,0.0831555,0.0876398,
2,0,0,1,0,31108.3,0.0686664,0.0683231,-0.618985,46,0.87983,10,-4.2291e-05,-3.20832,0.665617,0.0886396,0.0685955,
2,0,0,1,0,31112.1,0.0496895,0.0493398,-0.574693,46,0.877493,10,-2.83553e-05,-3.24056,0.554855,0.106334,0.0495927,
2,0,0,1,0,31115.9,0.0307126,0.0303886,-0.525082,46,0.875334,10,-1.59565e-05,-3.27977,0.547967,0.107671,0.0306196,
2,0,0,1,0,31119.7,0.0117356,0.0113798,-0.493151,46,0.873339,10,-5.61195e-06,-3.30702,1.11092,0.0531089,0.0115968,
2,0,0,1,0,31122,0.000274105,-0.000103433,-0.493924,46,0.872168,10,5.10883e-08,-3.30634, , ,0.000113893,