File: Figure_codes/Fig_3-5/workspace_calculate_alpha_eff/20221101_1-115_003_TrumpetPlot_ParaChange_from10_every3_16_CV_C01_50.csv
mode,ox/red,error,control changes,counter inc.,time/s,control/V,Ewe/V,<I>/mA,cycle number,(Q-Qo)/C,I Range,P/W,log(|I|),Tafel slope mV/dec,alpha_eff,E-IR/V,
2,0,0,0,0,33492.2,2.44065e-05,-0.000325324,-0.0930337,51,0.0000000E+000,10,3.02661e-08,-4.03136, , ,-0.000284389,
2,1,0,1,0,33496,0.0187763,0.0184688,0.209632,51,0.000692356,10,3.87167e-06,-3.67854,0.14211,0.415172,0.0183766,
2,1,0,1,0,33499.8,0.0377538,0.0373891,0.275871,51,0.00168082,10,1.03146e-05,-3.55929,0.169495,0.348092,0.0372677,
2,1,0,0,0,33503.5,0.0567309,0.0563704,0.338928,51,0.00292134,10,1.91055e-05,-3.46989,0.29762,0.198239,0.0562212,
2,1,0,1,0,33507.3,0.075708,0.0754015,0.387026,51,0.00437356,10,2.91823e-05,-3.41226,0.438874,0.134435,0.0752312,
2,1,0,0,0,33511.1,0.094685,0.0944029,0.44281,51,0.00600006,10,4.18025e-05,-3.35378,0.237766,0.248144,0.0942081,
2,1,0,1,0,33514.9,0.113662,0.113323,0.542998,51,0.00793774,10,6.1534e-05,-3.2652,0.332121,0.177646,0.113084,
2,1,0,0,0,33518.7,0.132639,0.132342,0.587218,51,0.0101657,10,7.77136e-05,-3.2312,-0.775828,-0.0760478,0.132084,
2,1,0,1,0,33522.5,0.151617,0.15131,0.383157,51,0.0121471,10,5.79754e-05,-3.41662,-0.0738642,-0.798763,0.151141,
2,1,0,1,0,33526.3,0.170594,0.170309,0.282068,51,0.0134112,10,4.80388e-05,-3.54965,-0.266757,-0.221175,0.170185,
2,1,0,1,0,33530.1,0.189571,0.189214,0.258909,51,0.0144875,10,4.89891e-05,-3.58685,-0.633294,-0.0931637,0.1891,
2,1,0,1,0,33533.9,0.208547,0.208247,0.249043,51,0.0155091,10,5.18625e-05,-3.60372,-1.99784,-0.0295319,0.208137,
2,1,0,1,0,33537.7,0.227524,0.227214,0.242451,51,0.0165005,10,5.50883e-05,-3.61538,-2.25541,-0.0261593,0.227108,
2,1,0,1,0,33541.5,0.246501,0.246191,0.237499,51,0.0174702,10,5.84703e-05,-3.62434,-1.17574,-0.0501811,0.246087,
2,1,0,0,0,33545.3,0.265479,0.265191,0.23463,51,0.0184232,10,6.22218e-05,-3.62962,-1.66327,-0.0354723,0.265088,
2,1,0,1,0,33549.1,0.284456,0.284118,0.230948,51,0.0193611,10,6.56165e-05,-3.63649,-6.41836,-0.00919238,0.284016,
2,1,0,0,0,33552.9,0.303433,0.303106,0.226534,51,0.0202823,10,6.86638e-05,-3.64487,-2.50448,-0.0235578,0.303006,
2,1,0,1,0,33556.7,0.32241,0.3221,0.223282,51,0.0211881,10,7.1919e-05,-3.65115,-30.3324,-0.00194512,0.322002,
2,1,0,0,0,33560.5,0.341387,0.341061,0.220209,51,0.0220811,10,7.51047e-05,-3.65716,5.23953,0.0112606,0.340964,
2,1,0,1,0,33564.3,0.360364,0.360051,0.219367,51,0.0229638,10,7.89832e-05,-3.65883,14.6367,0.00403096,0.359954,
2,1,0,1,0,33568.1,0.379342,0.379047,0.215839,51,0.023839,10,8.18132e-05,-3.66587,3.44725,0.0171151,0.378952,
2,1,0,1,0,33571.9,0.398319,0.398,0.214906,51,0.0247066,10,8.55324e-05,-3.66775,-1.3934,-0.0423424,0.397905,
2,1,0,1,0,33575.7,0.417295,0.417034,0.214444,51,0.0255691,10,8.94302e-05,-3.66869,-5.74472,-0.0102703,0.416939,
2,1,0,1,0,33579.5,0.436272,0.435987,0.214605,51,0.0264283,10,9.35653e-05,-3.66836,1.97235,0.0299135,0.435893,
2,1,0,1,0,33583.3,0.455249,0.454985,0.216023,51,0.0272876,10,9.82872e-05,-3.6655,1.34184,0.0439695,0.45489,
2,1,0,1,0,33587,0.474226,0.473939,0.216403,51,0.0281504,10,0.000102562,-3.66474,5.55976,0.010612,0.473844,
2,1,0,1,0,33590.8,0.493203,0.492931,0.22036,51,0.0290209,10,0.000108622,-3.65687,0.947894,0.0622432,0.492834,
2,1,0,0,0,33594.6,0.512181,0.511883,0.224655,51,0.0299046,10,0.000114997,-3.64848,3.41724,0.0172654,0.511784,
2,1,0,1,0,33598.4,0.531158,0.5309,0.230019,51,0.0308077,10,0.000122117,-3.63824,0.930836,0.0633839,0.530799,
2,1,0,0,0,33602.2,0.550135,0.549804,0.238819,51,0.031739,10,0.000131304,-3.62193,0.534787,0.110324,0.549699,
2,1,0,1,0,33606,0.569112,0.568818,0.253127,51,0.0327123,10,0.000143983,-3.59666,0.971936,0.0607036,0.568707,
2,1,0,0,0,33609.8,0.588089,0.587793,0.275263,51,0.0337513,10,0.000161797,-3.56025,0.534127,0.110461,0.587672,
2,1,0,1,0,33613.6,0.607066,0.606783,0.313925,51,0.0349005,10,0.000190485,-3.50317,0.296937,0.198695,0.606645,
2,1,0,1,0,33617.4,0.626044,0.625742,0.384253,51,0.0362478,10,0.000240444,-3.41538,0.160638,0.367284,0.625573,
2,1,0,1,0,33621.2,0.64502,0.644744,0.532323,51,0.0379939,10,0.000343212,-3.27382,0.113286,0.520805,0.64451,
2,1,0,1,0,33625,0.663997,0.663705,0.843624,51,0.0405733,10,0.000559918,-3.07385,0.0825051,0.715107,0.663334,
2,1,0,1,0,33628.8,0.682974,0.682654,1.46033,51,0.0448641,10,0.000996902,-2.83555,0.077096,0.765279,0.682011,
2,1,0,1,0,33632.6,0.701951,0.701674,2.5272,51,0.0523108,10,0.00177327,-2.59736,0.0822479,0.717343,0.700562,
2,1,0,1,0,33636.4,0.720928,0.720649,4.12348,51,0.0647997,10,0.00297158,-2.38474,0.0932568,0.632662,0.718835,
2,1,0,1,0,33640.2,0.739905,0.739641,6.27195,51,0.0843863,10,0.00463899,-2.2026,0.106002,0.556593,0.736881,
2,1,0,0,0,33644,0.758883,0.758618,9.02669,51,0.113252,10,0.00684781,-2.04447,0.118956,0.49598,0.754646,
2,1,0,1,0,33647.8,0.77786,0.777579,12.6005,51,0.154013,10,0.00979787,-1.89961,0.11998,0.49175,0.772035,
2,1,0,0,0,33651.6,0.796837,0.796572,17.4508,51,0.210609,10,0.0139008,-1.75818,0.118101,0.499572,0.788894,
2,1,0,1,0,33655.4,0.815814,0.815505,23.7329,51,0.288402,10,0.0193543,-1.62465,0.123345,0.478333,0.805062,
2,1,0,0,0,33659.2,0.834791,0.834539,28.9656,51,0.391811,10,0.0241729,-1.53812,-0.679144,-0.0868741,0.821794,
2,1,0,0,0,33662.9,0.846726,0.846517,32.7559,51,0.510645,10,0.0277285,-1.48471,0.121073,0.48731,0.832105,
2,1,0,1,0,33666.7,0.827749,0.827464,24.9,51,0.619495,10,0.0206038,-1.6038,0.135447,0.435595,0.816508,
2,1,0,1,0,33670.4,0.808772,0.808459,18.4881,51,0.701484,10,0.0149469,-1.73311,0.115229,0.512025,0.800324,
2,1,0,1,0,33674.2,0.789795,0.789558,13.2805,51,0.761284,10,0.0104857,-1.87679,0.113906,0.517971,0.783714,
2,1,0,1,0,33678,0.770818,0.770573,9.29932,51,0.803742,10,0.00716581,-2.03155,0.10931,0.539751,0.766482,
2,1,0,1,0,33681.8,0.751841,0.751529,6.29963,51,0.833008,10,0.00473435,-2.20069,0.102356,0.576419,0.748757,
2,1,0,1,0,33685.6,0.732865,0.732568,4.08285,51,0.852469,10,0.00299097,-2.38904,0.0893296,0.660476,0.730772,
2,1,0,0,0,33689.4,0.713887,0.713594,2.45798,51,0.864666,10,0.001754,-2.60942,0.077672,0.759605,0.712513,
2,1,0,1,0,33693.2,0.69491,0.694617,1.33398,51,0.871678,10,0.000926608,-2.87485,0.063296,0.932128,0.69403,
2,1,0,0,0,33697,0.675933,0.675712,0.621435,51,0.875237,10,0.000419911,-3.2066,0.0505538,1.16707,0.675439,
2,1,0,1,0,33700.8,0.656956,0.656702,0.227813,51,0.876731,10,0.000149606,-3.64242,0.0355816,1.65816,0.656602,
2,1,0,0,0,33704.6,0.637979,0.637713,0.0350693,51,0.877145,10,2.23641e-05,-4.45507,0.01071,5.50888,0.637697,
2,0,0,1,0,33708.4,0.619002,0.618706,-0.048563,51,0.877057,10,-3.00462e-05,-4.31369,-0.0396636,-1.48751,0.618727,
2,0,0,0,0,33712.2,0.600024,0.599737,-0.0859756,51,0.876753,10,-5.15628e-05,-4.06562,-0.192085,-0.307155,0.599775,
2,0,0,1,0,33716,0.581047,0.580746,-0.10348,51,0.876351,10,-6.00957e-05,-3.98514,-0.289688,-0.203667,0.580792,
2,0,0,1,0,33719.8,0.56207,0.561763,-0.113026,51,0.875902,10,-6.3494e-05,-3.94682,-15.5912,-0.00378419,0.561813,
2,0,0,1,0,33723.6,0.543093,0.542763,-0.117579,51,0.875428,10,-6.38176e-05,-3.92967,-0.665999,-0.0885887,0.542815,
2,0,0,1,0,33727.4,0.524116,0.523814,-0.123298,51,0.874933,10,-6.45851e-05,-3.90904,-10.3214,-0.00571628,0.523868,
2,0,0,1,0,33731.2,0.505139,0.504859,-0.126474,51,0.874422,10,-6.38516e-05,-3.898,-1.26233,-0.046739,0.504915,
2,0,0,1,0,33735,0.486162,0.485816,-0.132266,51,0.873892,10,-6.42568e-05,-3.87855,-1.25342,-0.0470711,0.485874,
2,0,0,1,0,33738.8,0.467185,0.466846,-0.137064,51,0.873342,10,-6.39879e-05,-3.86308,-1.48981,-0.0396025,0.466906,
2,0,0,1,0,33742.6,0.448208,0.447883,-0.144567,51,0.872766,10,-6.47491e-05,-3.83993,-0.848389,-0.0695436,0.447947,
2,0,0,0,0,33746.4,0.429231,0.428928,-0.151108,51,0.872162,10,-6.48147e-05,-3.82071,-2.79703,-0.0210938,0.428995,
2,0,0,1,0,33750.1,0.410254,0.409923,-0.160811,51,0.871524,10,-6.592e-05,-3.79368,-1.67528,-0.035218,0.409993,
2,0,0,0,0,33753.9,0.391277,0.390945,-0.169104,51,0.870853,10,-6.61104e-05,-3.77185,-0.691548,-0.0853159,0.391019,
2,0,0,1,0,33757.7,0.3723,0.37198,-0.179293,51,0.870144,10,-6.66934e-05,-3.74644,-0.76476,-0.0771484,0.372059,
2,0,0,1,0,33761.5,0.353322,0.353021,-0.190043,51,0.869396,10,-6.7089e-05,-3.72115,-0.978651,-0.0602871,0.353104,
2,0,0,1,0,33765.3,0.334345,0.334062,-0.20019,51,0.868608,10,-6.68758e-05,-3.69856,-0.731465,-0.0806601,0.33415,
2,0,0,1,0,33769.1,0.315368,0.315057,-0.212074,51,0.867777,10,-6.68154e-05,-3.67351,-0.713018,-0.0827469,0.315151,
2,0,0,1,0,33772.9,0.296391,0.296092,-0.224167,51,0.8669,10,-6.63741e-05,-3.64943,-0.696113,-0.0847564,0.296191,
2,0,0,1,0,33776.7,0.277414,0.277106,-0.23542,51,0.865978,10,-6.52362e-05,-3.62816,-0.733016,-0.0804893,0.277209,
2,0,0,1,0,33780.5,0.258437,0.258114,-0.247932,51,0.865009,10,-6.39947e-05,-3.60567,-0.989642,-0.0596175,0.258223,
2,0,0,1,0,33784.3,0.239461,0.239127,-0.25952,51,0.863995,10,-6.2058e-05,-3.58583,-1.17145,-0.050365,0.239241,
2,0,0,0,0,33788.1,0.220483,0.220144,-0.270432,51,0.862938,10,-5.9534e-05,-3.56794,-0.502859,-0.117329,0.220263,
2,0,0,1,0,33791.9,0.201506,0.201166,-0.283877,51,0.861831,10,-5.71063e-05,-3.54687,-0.483014,-0.12215,0.201291,
2,0,0,0,0,33795.7,0.182529,0.182215,-0.303036,51,0.860663,10,-5.52178e-05,-3.51851,-0.514107,-0.114762,0.182348,
2,0,0,1,0,33799.5,0.163552,0.163202,-0.338511,51,0.859398,10,-5.52457e-05,-3.47043,-0.287816,-0.204992,0.163351,
2,0,0,0,0,33803.3,0.144575,0.144232,-0.440575,51,0.857904,10,-6.35452e-05,-3.35598,-0.0973344,-0.606158,0.144426,
2,0,0,1,0,33807.1,0.125598,0.125277,-0.663787,51,0.855738,10,-8.3157e-05,-3.17797,-0.186208,-0.316851,0.125569,
2,0,0,1,0,33810.9,0.10662,0.106275,-0.708449,51,0.853015,10,-7.52904e-05,-3.14969,1.51118,0.0390423,0.106587,
2,0,0,1,0,33814.7,0.0876433,0.0873139,-0.670855,51,0.850332,10,-5.85749e-05,-3.17337,0.531233,0.111062,0.0876091,
2,0,0,1,0,33818.5,0.0686664,0.0683136,-0.625659,51,0.847816,10,-4.2741e-05,-3.20366,0.722092,0.081707,0.0685889,
2,0,0,1,0,33822.3,0.0496895,0.0493346,-0.58093,51,0.845459,10,-2.866e-05,-3.23588,0.478609,0.123274,0.0495903,
2,0,0,1,0,33826.1,0.0307126,0.0304171,-0.532319,51,0.843282,10,-1.61916e-05,-3.27383,0.561278,0.105117,0.0306514,
2,0,0,1,0,33829.9,0.0117356,0.0114286,-0.499377,51,0.841271,10,-5.70717e-06,-3.30157,1.51285,0.0389992,0.0116483,
2,0,0,0,0,33832.1,0.000274105,-0.000121328,-0.49973,51,0.84009,10,6.06311e-08,-3.30126, , ,9.85533e-05,