File: Figure_codes/Fig_3-5/workspace_calculate_alpha_eff/20221101_1-115_003_TrumpetPlot_ParaChange_from10_every3_16_CV_C01_7.csv
mode,ox/red,error,control changes,counter inc.,time/s,control/V,Ewe/V,<I>/mA,cycle number,(Q-Qo)/C,I Range,P/W,log(|I|),Tafel slope mV/dec,alpha_eff,E-IR/V,
2,0,0,0,0,5540.38,2.44065e-05,-0.000363498,-0.079677,8,0.0000000E+000,10,2.89625e-08,-4.09867, , ,-0.00032844,
2,1,0,1,0,5544.13,0.0187763,0.0184487,0.224042,8,0.0007733,10,4.13329e-06,-3.64967,0.15254,0.386784,0.0183502,
2,1,0,1,0,5547.93,0.0377538,0.0374358,0.285959,8,0.00182109,10,1.07051e-05,-3.5437,0.173074,0.340895,0.0373099,
2,1,0,0,0,5551.72,0.0567309,0.0564202,0.356897,8,0.00313279,10,2.01362e-05,-3.44746,0.239591,0.246253,0.0562632,
2,1,0,1,0,5555.52,0.075708,0.0754121,0.418944,8,0.00469531,10,3.15934e-05,-3.37784,0.319984,0.184384,0.0752278,
2,1,0,0,0,5559.31,0.0946851,0.0944103,0.485574,8,0.00648011,10,4.58432e-05,-3.31374,0.226448,0.260546,0.0941967,
2,1,0,1,0,5563.11,0.113662,0.113347,0.606136,8,0.0086256,10,6.87037e-05,-3.21743,0.248477,0.237446,0.11308,
2,1,0,0,0,5566.9,0.132639,0.132319,0.701071,8,0.0111969,10,9.27648e-05,-3.15424,0.933865,0.0631783,0.13201,
2,1,0,1,0,5570.7,0.151617,0.151328,0.505739,8,0.0136986,10,7.65325e-05,-3.29607,-0.0711743,-0.828951,0.151106,
2,1,0,1,0,5574.49,0.170594,0.170303,0.326802,8,0.0152767,10,5.56552e-05,-3.48572,-0.17223,-0.342565,0.170159,
2,1,0,1,0,5578.29,0.189571,0.18924,0.279253,8,0.0164834,10,5.28459e-05,-3.554,-0.484064,-0.121885,0.189117,
2,1,0,1,0,5582.08,0.208547,0.208259,0.260737,8,0.017578,10,5.43007e-05,-3.5838,-1.08367,-0.0544444,0.208144,
2,1,0,1,0,5585.88,0.227524,0.227206,0.249057,8,0.0186164,10,5.65873e-05,-3.6037,-0.752111,-0.0784459,0.227096,
2,1,0,1,0,5589.68,0.246501,0.24625,0.242541,8,0.0196216,10,5.97256e-05,-3.61522,-0.773516,-0.0762751,0.246143,
2,1,0,0,0,5593.47,0.265479,0.265224,0.237065,8,0.0206063,10,6.28754e-05,-3.62513,-0.804618,-0.0733267,0.265119,
2,1,0,1,0,5597.27,0.284456,0.284143,0.233271,8,0.0215736,10,6.62823e-05,-3.63214,8.39375,0.00702904,0.28404,
2,1,0,0,0,5601.06,0.303433,0.303128,0.229389,8,0.022523,10,6.95342e-05,-3.63943,-4.59486,-0.0128404,0.303027,
2,1,0,1,0,5604.86,0.32241,0.322083,0.225576,8,0.0234577,10,7.2654e-05,-3.64671,-1.61297,-0.0365785,0.321984,
2,1,0,0,0,5608.65,0.341387,0.341109,0.223218,8,0.0243792,10,7.61417e-05,-3.65127,-4.73961,-0.0124483,0.34101,
2,1,0,1,0,5612.45,0.360364,0.360057,0.22005,8,0.0252887,10,7.92306e-05,-3.65748,-6.41688,-0.0091945,0.35996,
2,1,0,1,0,5616.24,0.379342,0.379052,0.216967,8,0.0261883,10,8.22417e-05,-3.66361,-1.99067,-0.0296382,0.378957,
2,1,0,1,0,5620.04,0.398319,0.398026,0.214826,8,0.0270804,10,8.55066e-05,-3.66791,10.6516,0.00553905,0.397932,
2,1,0,1,0,5623.83,0.417295,0.417043,0.215234,8,0.0279673,10,8.97618e-05,-3.66709,-1.48217,-0.0398066,0.416949,
2,1,0,1,0,5627.63,0.436272,0.435955,0.216191,8,0.0288526,10,9.42493e-05,-3.66516,-2.51221,-0.0234853,0.435859,
2,1,0,1,0,5631.42,0.455249,0.45497,0.215769,8,0.0297373,10,9.81683e-05,-3.66601,8.6405,0.00682831,0.454875,
2,1,0,1,0,5635.22,0.474226,0.473948,0.217128,8,0.0306259,10,0.000102907,-3.66328,1.20134,0.0491118,0.473852,
2,1,0,1,0,5639.02,0.493203,0.492881,0.22114,8,0.0315254,10,0.000108996,-3.65533,1.78173,0.0331138,0.492784,
2,1,0,0,0,5642.81,0.512181,0.511905,0.225901,8,0.0324402,10,0.00011564,-3.64608,7.27891,0.0081056,0.511806,
2,1,0,1,0,5646.61,0.531158,0.530852,0.23419,8,0.0333789,10,0.00012432,-3.63043,1.21939,0.048385,0.530749,
2,1,0,0,0,5650.4,0.550135,0.549845,0.246447,8,0.0343543,10,0.000135508,-3.60828,1.15203,0.0512137,0.549737,
2,1,0,1,0,5654.2,0.569112,0.568862,0.265986,8,0.0353884,10,0.000151309,-3.57514,0.394203,0.149669,0.568745,
2,1,0,0,0,5657.99,0.588089,0.587819,0.299382,8,0.0365191,10,0.000175982,-3.52377,0.269679,0.218779,0.587687,
2,1,0,1,0,5661.79,0.607066,0.606807,0.361303,8,0.0378229,10,0.000219241,-3.44213,0.187606,0.314489,0.606648,
2,1,0,1,0,5665.58,0.626044,0.625759,0.48964,8,0.0394731,10,0.000306397,-3.31012,0.119014,0.495742,0.625544,
2,1,0,1,0,5669.38,0.64502,0.644733,0.771857,8,0.0418614,10,0.000497642,-3.11246,0.0818865,0.72051,0.644394,
2,1,0,1,0,5673.17,0.663997,0.663749,1.41469,8,0.0458928,10,0.000938998,-2.84934,0.063084,0.935261,0.663127,
2,1,0,1,0,5676.97,0.682974,0.682684,2.70739,8,0.0535098,10,0.00184829,-2.56745,0.0656586,0.898587,0.681492,
2,1,0,1,0,5680.77,0.701951,0.701682,4.98402,8,0.0678391,10,0.00349719,-2.30242,0.0724563,0.814284,0.699489,
2,1,0,1,0,5684.56,0.720928,0.720653,8.30497,8,0.0928205,10,0.005985,-2.08066,0.0871308,0.677143,0.716999,
2,1,0,1,0,5688.36,0.739905,0.73966,12.5028,8,0.132125,10,0.00924779,-1.90299,0.105216,0.560749,0.734159,
2,1,0,0,0,5692.15,0.758883,0.758599,17.7292,8,0.189145,10,0.0134494,-1.75131,0.112121,0.526215,0.750798,
2,1,0,1,0,5695.95,0.77786,0.777557,24.4062,8,0.268708,10,0.0189772,-1.6125,0.12086,0.488167,0.766818,
2,1,0,0,0,5699.74,0.796837,0.796605,32.3588,8,0.376199,10,0.0257772,-1.49001,0.135644,0.434962,0.782367,
2,1,0,1,0,5703.54,0.815814,0.815542,40.2335,8,0.513671,10,0.0328121,-1.39541,0.172578,0.341874,0.797839,
2,1,0,0,0,5707.33,0.834791,0.83452,47.281,8,0.679834,10,0.0394569,-1.32531,0.233123,0.253086,0.813716,
2,1,0,0,0,5711.03,0.846727,0.846517,50.4845,8,0.865463,10,0.042736,-1.29684,0.178645,0.330264,0.824304,
2,1,0,1,0,5714.82,0.827749,0.827532,41.4676,8,1.03965,10,0.0343157,-1.38229,0.178366,0.330781,0.809286,
2,1,0,1,0,5718.62,0.808772,0.80855,33.0709,8,1.18112,10,0.0267395,-1.48055,0.135855,0.434287,0.793999,
2,1,0,1,0,5722.42,0.789795,0.789527,24.9726,8,1.29095,10,0.0197166,-1.60254,0.119413,0.494085,0.778539,
2,1,0,1,0,5726.21,0.770818,0.770569,18.0611,8,1.3722,10,0.0139173,-1.74326,0.100851,0.585021,0.762622,
2,1,0,1,0,5730.01,0.751841,0.751585,12.3127,8,1.42922,10,0.00925402,-1.90965,0.0930931,0.633774,0.746167,
2,1,0,1,0,5733.8,0.732865,0.73258,7.86433,8,1.46703,10,0.00576125,-2.10434,0.0812742,0.725938,0.72912,
2,1,0,0,0,5737.6,0.713887,0.713602,4.62436,8,1.4903,10,0.00329995,-2.33495,0.0708705,0.832505,0.711567,
2,1,0,1,0,5741.39,0.69491,0.694645,2.4724,8,1.50333,10,0.00171744,-2.60688,0.0605453,0.974477,0.693557,
2,1,0,0,0,5745.19,0.675933,0.675649,1.16739,8,1.50994,10,0.000788745,-2.93278,0.0519665,1.13535,0.675135,
2,1,0,1,0,5748.98,0.656956,0.656678,0.470102,8,1.51283,10,0.000308706,-3.32781,0.0423271,1.39391,0.656471,
2,1,0,0,0,5752.78,0.637979,0.6377,0.143398,8,1.51385,10,9.14448e-05,-3.84346,0.0297113,1.98578,0.637637,
2,1,0,1,0,5756.57,0.619002,0.61869,0.00390225,8,1.51403,10,2.41428e-06,-5.40868,0.0106998,5.51414,0.618688,
2,0,0,0,0,5760.37,0.600025,0.599728,-0.05697,8,1.51385,10,-3.41665e-05,-4.24435,-0.0581398,-1.0148,0.599753,
2,0,0,1,0,5764.17,0.581047,0.580775,-0.0838131,8,1.51352,10,-4.86766e-05,-4.07669,-0.229416,-0.257175,0.580812,
2,0,0,1,0,5767.96,0.56207,0.561796,-0.0986586,8,1.5131,10,-5.5426e-05,-4.00587,-0.34836,-0.169365,0.561839,
2,0,0,1,0,5771.76,0.543093,0.542783,-0.107635,8,1.51265,10,-5.84224e-05,-3.96805,-6.49515,-0.00908371,0.54283,
2,0,0,1,0,5775.55,0.524116,0.523795,-0.112366,8,1.51217,10,-5.88566e-05,-3.94937,88.0988,0.000669703,0.523844,
2,0,0,1,0,5779.35,0.505139,0.504836,-0.117599,8,1.51167,10,-5.93683e-05,-3.9296,-2.02817,-0.0290903,0.504887,
2,0,0,1,0,5783.14,0.486162,0.485868,-0.12178,8,1.51115,10,-5.91688e-05,-3.91443,-1.94039,-0.0304062,0.485922,
2,0,0,1,0,5786.94,0.467185,0.466856,-0.127251,8,1.51061,10,-5.9408e-05,-3.89534,-1.40241,-0.0420704,0.466912,
2,0,0,1,0,5790.73,0.448208,0.447874,-0.135102,8,1.51004,10,-6.05085e-05,-3.86934,-0.715545,-0.0824547,0.447933,
2,0,0,0,0,5794.53,0.429231,0.428934,-0.141914,8,1.50945,10,-6.08717e-05,-3.84797,-0.696151,-0.0847517,0.428996,
2,0,0,1,0,5798.32,0.410254,0.409946,-0.152226,8,1.50882,10,-6.24044e-05,-3.81751,-1.39172,-0.0423937,0.410013,
2,0,0,0,0,5802.12,0.391277,0.39098,-0.162183,8,1.50816,10,-6.34103e-05,-3.78999,-0.947305,-0.062282,0.391051,
2,0,0,1,0,5805.91,0.3723,0.372014,-0.172558,8,1.50746,10,-6.4194e-05,-3.76306,-0.550667,-0.107143,0.37209,
2,0,0,1,0,5809.71,0.353322,0.353061,-0.182306,8,1.50671,10,-6.43653e-05,-3.7392,-0.647929,-0.0910594,0.353141,
2,0,0,1,0,5813.51,0.334345,0.334065,-0.194352,8,1.50593,10,-6.49264e-05,-3.71141,-0.655499,-0.0900077,0.334151,
2,0,0,1,0,5817.3,0.315368,0.315086,-0.20554,8,1.5051,10,-6.47628e-05,-3.6871,-0.732382,-0.0805591,0.315177,
2,0,0,1,0,5821.1,0.296391,0.296125,-0.219467,8,1.50422,10,-6.49898e-05,-3.65863,-0.523615,-0.112678,0.296222,
2,0,0,1,0,5824.89,0.277414,0.277089,-0.230826,8,1.5033,10,-6.39593e-05,-3.63671,-1.00584,-0.0586576,0.27719,
2,0,0,1,0,5828.69,0.258437,0.258144,-0.244456,8,1.50233,10,-6.31047e-05,-3.6118,-0.6659,-0.0886019,0.258251,
2,0,0,1,0,5832.48,0.239461,0.239114,-0.256568,8,1.50131,10,-6.13488e-05,-3.5908,-0.469117,-0.125768,0.239226,
2,0,0,0,0,5836.28,0.220483,0.220184,-0.268203,8,1.50025,10,-5.90541e-05,-3.57154,-0.588447,-0.100264,0.220302,
2,0,0,1,0,5840.07,0.201506,0.201185,-0.283617,8,1.49913,10,-5.70593e-05,-3.54727,-0.423593,-0.139285,0.20131,
2,0,0,0,0,5843.87,0.182529,0.182248,-0.31134,8,1.49793,10,-5.67411e-05,-3.50677,-0.31252,-0.188788,0.182385,
2,0,0,1,0,5847.66,0.163552,0.16324,-0.375017,8,1.49657,10,-6.12178e-05,-3.42595,-0.157194,-0.375333,0.163405,
2,0,0,0,0,5851.46,0.144575,0.144255,-0.571595,8,1.49478,10,-8.24553e-05,-3.24291,-0.0767402,-0.768828,0.144506,
2,0,0,1,0,5855.26,0.125598,0.125263,-0.81761,8,1.49197,10,-0.000102416,-3.08745,-0.519524,-0.113565,0.125623,
2,0,0,1,0,5859.05,0.10662,0.106324,-0.776881,8,1.48882,10,-8.26007e-05,-3.10965,0.421268,0.140053,0.106665,
2,0,0,1,0,5862.85,0.0876433,0.0873458,-0.691439,8,1.48596,10,-6.03942e-05,-3.16025,0.39608,0.14896,0.08765,
2,0,0,1,0,5866.64,0.0686664,0.0683539,-0.637343,8,1.48337,10,-4.35648e-05,-3.19563,0.619676,0.095211,0.0686343,
2,0,0,1,0,5870.44,0.0496895,0.0493834,-0.583467,8,1.48097,10,-2.88136e-05,-3.23398,0.418133,0.141103,0.0496402,
2,0,0,1,0,5874.23,0.0307126,0.0304195,-0.52631,8,1.47879,10,-1.60101e-05,-3.27876,0.526081,0.11215,0.030651,
2,0,0,1,0,5878.03,0.0117356,0.0114232,-0.495317,8,1.47678,10,-5.65811e-06,-3.30512,1.63909,0.0359955,0.0116412,
2,0,0,0,0,5880.32,0.000274105,-0.000118942,-0.497987,8,1.47559,10,5.92315e-08,-3.30278, , ,0.000100173,