File: Figure_codes/Fig_3-5/workspace_calculate_alpha_eff/20221101_1-115_003_TrumpetPlot_ParaChange_from10_every3_16_CV_C01_90.csv
mode,ox/red,error,control changes,counter inc.,time/s,control/V,Ewe/V,<I>/mA,cycle number,(Q-Qo)/C,I Range,P/W,log(|I|),Tafel slope mV/dec,alpha_eff,E-IR/V,
2,0,0,1,0,60334,2.44065e-05,-0.000306236,-0.0307026,91,0.0000000E+000,10,9.40224e-09,-4.51283, , ,-0.000292727,
2,1,0,1,0,60337.8,0.0187763,0.0183988,0.26056,91,0.000863197,10,4.794e-06,-3.58409,0.173126,0.340792,0.0182842,
2,1,0,0,0,60341.6,0.0377538,0.0374008,0.323286,91,0.0020214,10,1.20911e-05,-3.49041,0.236349,0.24963,0.0372585,
2,1,0,1,0,60345.4,0.0567309,0.0564414,0.379279,91,0.00340804,10,2.1407e-05,-3.42104,0.349429,0.168847,0.0562745,
2,1,0,0,0,60349.2,0.075708,0.0753654,0.419833,91,0.00498041,10,3.16409e-05,-3.37692,0.602455,0.0979326,0.0751807,
2,1,0,1,0,60353,0.094685,0.0943255,0.468758,91,0.00669937,10,4.42158e-05,-3.32905,0.275784,0.213935,0.0941193,
2,1,0,0,0,60356.8,0.113662,0.11334,0.558606,91,0.00869922,10,6.33122e-05,-3.25289,0.365425,0.161456,0.113094,
2,1,0,1,0,60360.6,0.132639,0.132287,0.585055,91,0.0109411,10,7.73951e-05,-3.2328,-0.475682,-0.124032,0.13203,
2,1,0,1,0,60364.3,0.151617,0.151265,0.393713,91,0.012899,10,5.95551e-05,-3.40482,-0.089756,-0.657338,0.151092,
2,1,0,1,0,60368.1,0.170594,0.170269,0.313271,91,0.0142361,10,5.33403e-05,-3.50408,-0.391539,-0.150687,0.170131,
2,1,0,1,0,60371.9,0.189571,0.189197,0.297919,91,0.0154312,10,5.63654e-05,-3.5259,-1.82298,-0.0323646,0.189066,
2,1,0,1,0,60375.7,0.208547,0.208181,0.292711,91,0.0165921,10,6.0937e-05,-3.53356,-1.43873,-0.0410084,0.208052,
2,1,0,1,0,60379.5,0.227524,0.227156,0.287608,91,0.0177325,10,6.53319e-05,-3.5412,-1.23812,-0.0476529,0.227029,
2,1,0,1,0,60383.3,0.246501,0.246221,0.2836,91,0.0188554,10,6.98283e-05,-3.54729,-1.02609,-0.0574998,0.246096,
2,1,0,1,0,60387.1,0.265479,0.265153,0.279815,91,0.0199647,10,7.41937e-05,-3.55313,-1.90513,-0.030969,0.26503,
2,1,0,0,0,60390.9,0.284456,0.284118,0.276376,91,0.0210593,10,7.85233e-05,-3.5585,-1.57582,-0.0374408,0.283996,
2,1,0,1,0,60394.7,0.303433,0.303077,0.272287,91,0.0221369,10,8.2524e-05,-3.56497,-3.37849,-0.0174634,0.302957,
2,1,0,0,0,60398.5,0.32241,0.322084,0.272275,91,0.0231995,10,8.76955e-05,-3.56499,-2.70472,-0.0218137,0.321964,
2,1,0,1,0,60402.3,0.341387,0.341114,0.265208,91,0.0242507,10,9.04662e-05,-3.57641,-5.35187,-0.0110242,0.340997,
2,1,0,0,0,60406.1,0.360364,0.360043,0.263508,91,0.0252903,10,9.48742e-05,-3.57921,-3.19826,-0.0184475,0.359927,
2,1,0,1,0,60409.9,0.379342,0.379011,0.260517,91,0.0263199,10,9.87388e-05,-3.58416,1046.75,5.63648e-05,0.378897,
2,1,0,1,0,60413.7,0.398319,0.398016,0.258978,91,0.0273393,10,0.000103077,-3.58674,-5.16257,-0.0114284,0.397902,
2,1,0,1,0,60417.5,0.417295,0.416983,0.257079,91,0.0283503,10,0.000107197,-3.58993,4.48944,0.013142,0.41687,
2,1,0,1,0,60421.3,0.436272,0.435901,0.255609,91,0.0293564,10,0.00011142,-3.59242,7.78615,0.00757756,0.435788,
2,1,0,1,0,60425.1,0.455249,0.454935,0.25502,91,0.0303579,10,0.000116017,-3.59343,3.56206,0.0165635,0.454822,
2,1,0,1,0,60428.9,0.474226,0.473878,0.254998,91,0.0313569,10,0.000120838,-3.59346,3.93381,0.0149982,0.473765,
2,1,0,1,0,60432.7,0.493203,0.492866,0.257283,91,0.0323595,10,0.000126806,-3.58959,3.00036,0.0196643,0.492753,
2,1,0,1,0,60436.5,0.512181,0.511851,0.261489,91,0.0333717,10,0.000133844,-3.58255,2.83516,0.0208101,0.511736,
2,1,0,0,0,60440.3,0.531158,0.530826,0.265585,91,0.0343983,10,0.000140979,-3.5758,2.08363,0.0283159,0.530709,
2,1,0,1,0,60444.1,0.550135,0.549812,0.272992,91,0.0354464,10,0.000150095,-3.56385,1.55453,0.0379536,0.549692,
2,1,0,0,0,60447.8,0.569112,0.56881,0.284438,91,0.036529,10,0.000161791,-3.54601,0.756199,0.0780218,0.568684,
2,1,0,1,0,60451.6,0.588089,0.587744,0.301562,91,0.0376631,10,0.000177241,-3.52062,0.534827,0.110316,0.587612,
2,1,0,0,0,60455.4,0.607066,0.606743,0.329536,91,0.0388807,10,0.000199944,-3.4821,0.397032,0.148603,0.606598,
2,1,0,1,0,60459.2,0.626044,0.625735,0.381603,91,0.0402462,10,0.000238782,-3.41839,0.216259,0.272821,0.625567,
2,1,0,1,0,60463,0.64502,0.64475,0.48608,91,0.041899,10,0.0003134,-3.31329,0.147591,0.399752,0.644536,
2,1,0,1,0,60466.8,0.663997,0.663687,0.696049,91,0.0441229,10,0.000461958,-3.15736,0.105252,0.560558,0.66338,
2,1,0,1,0,60470.6,0.682974,0.68267,1.0975,91,0.0474769,10,0.000749233,-2.95959,0.0897328,0.657508,0.682187,
2,1,0,1,0,60474.4,0.701951,0.701662,1.78298,91,0.0528662,10,0.00125105,-2.74885,0.0894661,0.659468,0.700878,
2,1,0,1,0,60478.2,0.720928,0.720644,2.80336,91,0.0614849,10,0.00202022,-2.55232,0.0993273,0.593996,0.71941,
2,1,0,1,0,60482,0.739905,0.739583,4.18472,91,0.0746531,10,0.00309495,-2.37833,0.112595,0.524,0.737742,
2,1,0,1,0,60485.8,0.758883,0.758603,5.97671,91,0.0938197,10,0.00453395,-2.22354,0.124384,0.474338,0.755974,
2,1,0,0,0,60489.6,0.77786,0.777576,8.27979,91,0.120721,10,0.00643817,-2.08198,0.128992,0.457392,0.773933,
2,1,0,1,0,60493.4,0.796837,0.796543,11.2765,91,0.157593,10,0.00898223,-1.94782,0.129429,0.45585,0.791581,
2,1,0,0,0,60497.2,0.815814,0.815494,15.2691,91,0.207684,10,0.0124518,-1.81619,0.135533,0.435317,0.808776,
2,1,0,1,0,60501,0.834791,0.834511,20.3073,91,0.27492,10,0.0169467,-1.69235,0.143118,0.412248,0.825576,
2,1,0,1,0,60504.7,0.846726,0.846466,23.0335,91,0.359013,10,0.0194971,-1.63764,0.105998,0.556612,0.836332,
2,1,0,1,0,60508.5,0.827749,0.827511,16.7899,91,0.433889,10,0.0138938,-1.77495,0.120925,0.487907,0.820124,
2,1,0,1,0,60512.3,0.808772,0.808483,12.1663,91,0.48835,10,0.00983626,-1.91484,0.121588,0.485247,0.80313,
2,1,0,1,0,60516.1,0.789795,0.78951,8.67345,91,0.527546,10,0.00684778,-2.06181,0.118587,0.497526,0.785694,
2,1,0,1,0,60519.9,0.770818,0.770578,6.08168,91,0.555269,10,0.00468641,-2.21598,0.114252,0.516402,0.767902,
2,1,0,1,0,60523.7,0.751841,0.751502,4.16615,91,0.574513,10,0.00313087,-2.38027,0.105731,0.558021,0.749669,
2,1,0,1,0,60527.5,0.732865,0.732597,2.73648,91,0.58745,10,0.00200474,-2.56281,0.0946208,0.623542,0.731393,
2,1,0,1,0,60531.2,0.713887,0.713598,1.69786,91,0.595753,10,0.00121159,-2.7701,0.0810774,0.7277,0.712851,
2,1,0,0,0,60535,0.69491,0.694632,0.941531,91,0.600645,10,0.000654018,-3.02617,0.0657058,0.897941,0.694218,
2,1,0,1,0,60538.8,0.675933,0.675629,0.448076,91,0.603177,10,0.000302733,-3.34865,0.052291,1.1283,0.675432,
2,1,0,0,0,60542.6,0.656956,0.656673,0.166338,91,0.604259,10,0.000109229,-3.77901,0.0354737,1.6632,0.6566,
2,1,0,1,0,60546.4,0.637979,0.637727,0.0231083,91,0.604555,10,1.47368e-05,-4.63623,0.00976661,6.04099,0.637716,
2,0,0,0,0,60550.2,0.619002,0.618688,-0.0399103,91,0.604477,10,-2.4692e-05,-4.39891,-0.0469015,-1.25796,0.618706,
2,0,0,1,0,60554,0.600024,0.599682,-0.0684241,91,0.604233,10,-4.10327e-05,-4.16479,-0.140664,-0.419438,0.599712,
2,0,0,1,0,60557.8,0.581047,0.580719,-0.0834283,91,0.603911,10,-4.84484e-05,-4.07869,-0.557835,-0.105766,0.580756,
2,0,0,1,0,60561.6,0.56207,0.561707,-0.0909943,91,0.60355,10,-5.11121e-05,-4.04099,-0.609082,-0.0968671,0.561747,
2,0,0,1,0,60565.4,0.543093,0.542738,-0.0967517,91,0.603165,10,-5.25108e-05,-4.01434,-0.8216,-0.0718111,0.542781,
2,0,0,1,0,60569.2,0.524116,0.523803,-0.1014,91,0.602759,10,-5.31136e-05,-3.99396,-7.47472,-0.00789327,0.523848,
2,0,0,1,0,60573,0.505139,0.504823,-0.106572,91,0.602333,10,-5.38002e-05,-3.97236,-0.636641,-0.0926738,0.50487,
2,0,0,1,0,60576.8,0.486162,0.485859,-0.112597,91,0.601886,10,-5.47063e-05,-3.94847,-0.965525,-0.0611066,0.485908,
2,0,0,1,0,60580.6,0.467185,0.466824,-0.118809,91,0.601415,10,-5.5463e-05,-3.92515,-1.27083,-0.0464263,0.466876,
2,0,0,0,0,60584.4,0.448208,0.447882,-0.12628,91,0.600917,10,-5.65584e-05,-3.89867,-0.865632,-0.0681583,0.447938,
2,0,0,1,0,60588.2,0.429231,0.428905,-0.13477,91,0.600388,10,-5.78037e-05,-3.87041,-1.99943,-0.0295084,0.428964,
2,0,0,0,0,60592,0.410254,0.409906,-0.143801,91,0.599826,10,-5.8945e-05,-3.84224,-0.676073,-0.0872686,0.409969,
2,0,0,1,0,60595.8,0.391277,0.390939,-0.152962,91,0.599227,10,-5.97989e-05,-3.81542,-0.638328,-0.0924289,0.391006,
2,0,0,0,0,60599.6,0.3723,0.371938,-0.16342,91,0.598589,10,-6.07822e-05,-3.78669,-0.610053,-0.0967129,0.37201,
2,0,0,1,0,60603.4,0.353322,0.353009,-0.172709,91,0.597913,10,-6.09678e-05,-3.76269,-0.459309,-0.128454,0.353085,
2,0,0,1,0,60607.2,0.334345,0.33405,-0.18505,91,0.597195,10,-6.18161e-05,-3.73271,-0.636696,-0.0926659,0.334132,
2,0,0,1,0,60611,0.315368,0.315012,-0.195579,91,0.596433,10,-6.16098e-05,-3.70868,-0.707437,-0.0833996,0.315098,
2,0,0,1,0,60614.7,0.296391,0.296031,-0.208354,91,0.595627,10,-6.16791e-05,-3.6812,-0.832442,-0.0708758,0.296122,
2,0,0,1,0,60618.5,0.277414,0.277053,-0.218574,91,0.594773,10,-6.05565e-05,-3.6604,-0.764041,-0.077221,0.277149,
2,0,0,1,0,60622.3,0.258437,0.258122,-0.232674,91,0.593872,10,-6.00585e-05,-3.63325,-0.908801,-0.0649207,0.258225,
2,0,0,1,0,60626.1,0.239461,0.239152,-0.245176,91,0.592924,10,-5.86345e-05,-3.61052,-0.67311,-0.0876528,0.23926,
2,0,0,1,0,60629.9,0.220483,0.220129,-0.255867,91,0.591931,10,-5.63237e-05,-3.59199,-0.640046,-0.0921809,0.220242,
2,0,0,0,0,60633.7,0.201506,0.201136,-0.268945,91,0.590891,10,-5.40945e-05,-3.57034,-0.453959,-0.129968,0.201254,
2,0,0,1,0,60637.5,0.182529,0.182224,-0.286427,91,0.589794,10,-5.21938e-05,-3.54299,-0.515183,-0.114522,0.18235,
2,0,0,0,0,60641.3,0.163552,0.163159,-0.315049,91,0.588611,10,-5.14029e-05,-3.50162,-0.345241,-0.170895,0.163297,
2,0,0,1,0,60645.1,0.144575,0.144249,-0.39214,91,0.587248,10,-5.65659e-05,-3.40656,-0.117714,-0.501216,0.144422,
2,0,0,0,0,60648.9,0.125598,0.125238,-0.583226,91,0.585358,10,-7.30423e-05,-3.23416,-0.144917,-0.40713,0.125495,
2,0,0,1,0,60652.7,0.10662,0.106282,-0.656934,91,0.582893,10,-6.98206e-05,-3.18248,-3.51877,-0.0167672,0.106571,
2,0,0,1,0,60656.5,0.0876433,0.0872682,-0.640741,91,0.58037,10,-5.59163e-05,-3.19332,0.896563,0.0658069,0.0875501,
2,0,0,1,0,60660.3,0.0686664,0.0683253,-0.604857,91,0.577955,10,-4.1327e-05,-3.21835,0.823657,0.0716318,0.0685914,
2,0,0,1,0,60664.1,0.0496895,0.0493379,-0.565266,91,0.575678,10,-2.7889e-05,-3.24775,0.615954,0.0957864,0.0495866,
2,0,0,1,0,60667.9,0.0307126,0.0303291,-0.51965,91,0.573564,10,-1.57605e-05,-3.28429,0.553335,0.106626,0.0305577,
2,0,0,1,0,60671.7,0.0117356,0.0113988,-0.49014,91,0.571599,10,-5.58701e-06,-3.30968,1.31651,0.0448156,0.0116145,
2,0,0,1,0,60674,0.000274105,-8.6732e-05,-0.490448,91,0.570443,10,4.25375e-08,-3.30941, , ,0.000129065,