File: Figure_codes/Fig_3-5/workspace_calculate_alpha_eff/20221101_1-115_003_TrumpetPlot_ParaChange_from10_every3_16_CV_C01_52.csv
mode,ox/red,error,control changes,counter inc.,time/s,control/V,Ewe/V,<I>/mA,cycle number,(Q-Qo)/C,I Range,P/W,log(|I|),Tafel slope mV/dec,alpha_eff,E-IR/V,
2,0,0,0,0,35092.3,2.44065e-05,-0.000363498,-0.0714086,53,0.0000000E+000,10,2.59569e-08,-4.14625, , ,-0.000332078,
2,1,0,1,0,35096.1,0.0187763,0.0184393,0.220043,53,0.000719249,10,4.05744e-06,-3.65749,0.13537,0.435841,0.0183425,
2,1,0,1,0,35099.9,0.0377538,0.0374018,0.286019,53,0.00173982,10,1.06976e-05,-3.5436,0.183109,0.322213,0.037276,
2,1,0,0,0,35103.7,0.0567309,0.056416,0.347798,53,0.0030098,10,1.96214e-05,-3.45867,0.34981,0.168663,0.0562629,
2,1,0,1,0,35107.5,0.075708,0.0753866,0.395546,53,0.00448782,10,2.98189e-05,-3.4028,0.411089,0.143521,0.0752126,
2,1,0,0,0,35111.3,0.094685,0.0943785,0.450544,53,0.00613574,10,4.25217e-05,-3.34626,0.237374,0.248553,0.0941803,
2,1,0,1,0,35115.1,0.113662,0.113342,0.548206,53,0.00808877,10,6.21346e-05,-3.26106,0.316609,0.18635,0.113101,
2,1,0,0,0,35118.9,0.132639,0.132335,0.595425,53,0.0103357,10,7.87954e-05,-3.22517,-0.790408,-0.074645,0.132073,
2,1,0,1,0,35122.7,0.151617,0.151311,0.393957,53,0.0123507,10,5.961e-05,-3.40455,-0.0771094,-0.765147,0.151138,
2,1,0,1,0,35126.4,0.170594,0.170254,0.292218,53,0.0136498,10,4.97513e-05,-3.53429,-0.326113,-0.180919,0.170126,
2,1,0,1,0,35130.2,0.189571,0.189231,0.26976,53,0.014762,10,5.10469e-05,-3.56902,-0.672366,-0.0877498,0.189112,
2,1,0,1,0,35134,0.208547,0.208248,0.259806,53,0.0158174,10,5.41042e-05,-3.58535,-1.1198,-0.052688,0.208134,
2,1,0,1,0,35137.8,0.227524,0.227239,0.25293,53,0.0168411,10,5.74754e-05,-3.597,-1.34416,-0.0438934,0.227127,
2,1,0,1,0,35141.6,0.246501,0.246206,0.247735,53,0.0178437,10,6.0994e-05,-3.60601,-0.846522,-0.069697,0.246097,
2,1,0,0,0,35145.4,0.265479,0.2652,0.244408,53,0.0188295,10,6.4817e-05,-3.61189,-2.63663,-0.0223771,0.265093,
2,1,0,1,0,35149.2,0.284456,0.284131,0.239695,53,0.0197977,10,6.81047e-05,-3.62034,-2.59361,-0.0227482,0.284025,
2,1,0,0,0,35153,0.303433,0.303137,0.235084,53,0.0207481,10,7.12624e-05,-3.62878,-0.979317,-0.0602461,0.303033,
2,1,0,1,0,35156.8,0.32241,0.322108,0.231234,53,0.0216823,10,7.44822e-05,-3.63595,-3.23436,-0.0182416,0.322006,
2,1,0,0,0,35160.6,0.341387,0.341091,0.228997,53,0.0226039,10,7.81088e-05,-3.64017,-1.49688,-0.0394154,0.34099,
2,1,0,1,0,35164.4,0.360364,0.360065,0.227236,53,0.0235136,10,8.18199e-05,-3.64352,5.27395,0.0111871,0.359965,
2,1,0,1,0,35168.2,0.379342,0.37902,0.224564,53,0.024415,10,8.51141e-05,-3.64866,-5.32434,-0.0110812,0.378921,
2,1,0,1,0,35172,0.398319,0.398036,0.222912,53,0.0253096,10,8.87269e-05,-3.65187,7.6324,0.0077302,0.397938,
2,1,0,1,0,35175.8,0.417295,0.417022,0.222966,53,0.0261991,10,9.29816e-05,-3.65176,-3.17881,-0.0185604,0.416924,
2,1,0,1,0,35179.6,0.436272,0.435953,0.221745,53,0.0270835,10,9.66705e-05,-3.65415,3.00821,0.019613,0.435856,
2,1,0,1,0,35183.4,0.455249,0.454974,0.222411,53,0.0279669,10,0.000101191,-3.65284,19.4018,0.00304096,0.454876,
2,1,0,1,0,35187.2,0.474226,0.473875,0.224229,53,0.0288535,10,0.000106257,-3.64931,1.58328,0.0372645,0.473777,
2,1,0,1,0,35191,0.493203,0.492941,0.226521,53,0.0297476,10,0.000111662,-3.64489,1.23371,0.0478231,0.492842,
2,1,0,0,0,35194.8,0.512181,0.511879,0.23054,53,0.0306532,10,0.000118009,-3.63725,2.01777,0.0292402,0.511777,
2,1,0,1,0,35198.6,0.531158,0.530882,0.236774,53,0.0315774,10,0.000125699,-3.62567,1.28687,0.0458476,0.530778,
2,1,0,0,0,35202.4,0.550135,0.549847,0.245496,53,0.0325301,10,0.000134985,-3.60996,0.838398,0.0703723,0.549739,
2,1,0,1,0,35206.2,0.569112,0.568855,0.259845,53,0.0335239,10,0.000147814,-3.58529,0.803849,0.0733969,0.568741,
2,1,0,0,0,35209.9,0.588089,0.587797,0.28048,53,0.034582,10,0.000164866,-3.5521,0.4291,0.137497,0.587674,
2,1,0,1,0,35213.7,0.607066,0.606785,0.317927,53,0.0357468,10,0.000192913,-3.49767,0.303465,0.194421,0.606645,
2,1,0,1,0,35217.5,0.626044,0.625741,0.387435,53,0.0371041,10,0.000242434,-3.4118,0.177596,0.332215,0.625571,
2,1,0,1,0,35221.3,0.64502,0.644732,0.530122,53,0.038848,10,0.000341787,-3.27562,0.116908,0.50467,0.644499,
2,1,0,1,0,35225.1,0.663997,0.6637,0.826717,53,0.041389,10,0.000548692,-3.08264,0.0867704,0.679956,0.663336,
2,1,0,1,0,35228.9,0.682974,0.682706,1.40987,53,0.0455555,10,0.000962527,-2.85082,0.0778048,0.758308,0.682085,
2,1,0,1,0,35232.7,0.701951,0.70162,2.41447,53,0.0526989,10,0.00169404,-2.61718,0.082882,0.711855,0.700558,
2,1,0,1,0,35236.5,0.720928,0.720694,3.90852,53,0.0645755,10,0.00281685,-2.40799,0.0941916,0.626383,0.718975,
2,1,0,1,0,35240.3,0.739905,0.739678,5.91074,53,0.0830822,10,0.00437204,-2.22836,0.107721,0.547712,0.737077,
2,1,0,0,0,35244.1,0.758883,0.758604,8.45543,53,0.110198,10,0.00641433,-2.07286,0.120526,0.489522,0.754884,
2,1,0,1,0,35247.9,0.77786,0.777572,11.7017,53,0.148205,10,0.00909888,-1.93175,0.125417,0.470432,0.772423,
2,1,0,0,0,35251.7,0.796837,0.796558,16.0285,53,0.200466,10,0.0127676,-1.79511,0.126001,0.468252,0.789506,
2,1,0,1,0,35255.5,0.815814,0.815512,21.7119,53,0.27172,10,0.0177064,-1.6633,0.130254,0.452962,0.805959,
2,1,0,0,0,35259.3,0.834791,0.834522,28.2954,53,0.366274,10,0.0236131,-1.54828,0.145363,0.40588,0.822072,
2,1,0,0,0,35263,0.846726,0.846461,32.0436,53,0.482586,10,0.0271237,-1.49426,0.116264,0.507466,0.832362,
2,1,0,1,0,35266.8,0.827749,0.827483,24.1501,53,0.588583,10,0.0199838,-1.61708,0.126188,0.467555,0.816857,
2,1,0,1,0,35270.6,0.808772,0.808541,17.8275,53,0.667792,10,0.0144143,-1.74891,0.117832,0.500712,0.800697,
2,1,0,1,0,35274.4,0.789795,0.78953,12.7776,53,0.725486,10,0.0100883,-1.89355,0.110874,0.532134,0.783908,
2,1,0,1,0,35278.2,0.770818,0.77055,8.93138,53,0.766317,10,0.00688207,-2.04908,0.108293,0.544819,0.76662,
2,1,0,1,0,35282,0.751841,0.751553,6.0463,53,0.794423,10,0.00454411,-2.21851,0.102345,0.576479,0.748893,
2,1,0,1,0,35285.8,0.732865,0.732541,3.90992,53,0.813073,10,0.00286418,-2.40783,0.091274,0.646405,0.730821,
2,1,0,0,0,35289.6,0.713887,0.713598,2.36024,53,0.824768,10,0.00168426,-2.62704,0.077278,0.763477,0.712559,
2,1,0,1,0,35293.3,0.69491,0.694625,1.28434,53,0.831506,10,0.000892133,-2.89132,0.0633229,0.931733,0.69406,
2,1,0,0,0,35297.1,0.675933,0.675656,0.600968,53,0.834935,10,0.000406048,-3.22115,0.0509903,1.15708,0.675392,
2,1,0,1,0,35300.9,0.656956,0.656669,0.222453,53,0.836382,10,0.000146078,-3.65276,0.0368672,1.60034,0.656571,
2,1,0,0,0,35304.7,0.637979,0.637714,0.0360557,53,0.836789,10,2.29932e-05,-4.44303,0.011666,5.05744,0.637698,
2,0,0,1,0,35308.5,0.619002,0.618711,-0.0450751,53,0.836709,10,-2.78885e-05,-4.34606,-0.037516,-1.57266,0.618731,
2,0,0,0,0,35312.3,0.600024,0.599694,-0.0811814,53,0.836419,10,-4.8684e-05,-4.09054,-0.217042,-0.271836,0.59973,
2,0,0,1,0,35316.1,0.581047,0.580736,-0.0983743,53,0.836033,10,-5.71294e-05,-4.00712,-0.54743,-0.107776,0.580779,
2,0,0,1,0,35319.9,0.56207,0.561758,-0.107345,53,0.835601,10,-6.03017e-05,-3.96922,-0.41722,-0.141412,0.561805,
2,0,0,1,0,35323.7,0.543093,0.54278,-0.11416,53,0.835141,10,-6.1964e-05,-3.94248,-0.92751,-0.0636112,0.54283,
2,0,0,1,0,35327.5,0.524116,0.523788,-0.118755,53,0.834662,10,-6.22027e-05,-3.92535,-2.2736,-0.02595,0.52384,
2,0,0,1,0,35331.3,0.505139,0.504851,-0.122994,53,0.834166,10,-6.20936e-05,-3.91012,-0.980278,-0.060187,0.504905,
2,0,0,1,0,35335.1,0.486162,0.485816,-0.128173,53,0.83365,10,-6.22686e-05,-3.8922,-2.21007,-0.0266959,0.485873,
2,0,0,1,0,35338.9,0.467185,0.466867,-0.133392,53,0.833113,10,-6.22765e-05,-3.87487,-1.00627,-0.0586322,0.466925,
2,0,0,1,0,35342.7,0.448208,0.44784,-0.141346,53,0.832551,10,-6.33002e-05,-3.84972,-3.85428,-0.0153077,0.447902,
2,0,0,0,0,35346.5,0.429231,0.428892,-0.14843,53,0.831961,10,-6.36606e-05,-3.82848,-1.05033,-0.0561729,0.428958,
2,0,0,1,0,35350.3,0.410254,0.409937,-0.155977,53,0.831338,10,-6.39409e-05,-3.80694,-1.74795,-0.0337539,0.410006,
2,0,0,0,0,35354.1,0.391277,0.390949,-0.166914,53,0.83068,10,-6.52546e-05,-3.77751,-1.96295,-0.0300568,0.391022,
2,0,0,1,0,35357.9,0.3723,0.371958,-0.175967,53,0.829984,10,-6.54522e-05,-3.75457,-0.429905,-0.13724,0.372035,
2,0,0,1,0,35361.7,0.353322,0.353018,-0.186533,53,0.829246,10,-6.58495e-05,-3.72924,-0.884047,-0.0667385,0.3531,
2,0,0,1,0,35365.5,0.334345,0.334024,-0.198243,53,0.828469,10,-6.62179e-05,-3.7028,-0.616803,-0.0956545,0.334111,
2,0,0,1,0,35369.3,0.315368,0.315076,-0.208823,53,0.827647,10,-6.57952e-05,-3.68022,-0.791549,-0.0745374,0.315167,
2,0,0,1,0,35373.1,0.296391,0.296086,-0.221471,53,0.826781,10,-6.55745e-05,-3.65468,-0.600579,-0.0982386,0.296183,
2,0,0,1,0,35376.8,0.277414,0.277091,-0.233588,53,0.825867,10,-6.4725e-05,-3.63155,-1.16384,-0.0506944,0.277194,
2,0,0,1,0,35380.6,0.258437,0.258101,-0.245624,53,0.824905,10,-6.33959e-05,-3.60973,-0.973576,-0.0606013,0.258209,
2,0,0,1,0,35384.4,0.239461,0.239173,-0.257096,53,0.823898,10,-6.14905e-05,-3.5899,-0.983011,-0.0600197,0.239287,
2,0,0,0,0,35388.2,0.220483,0.220149,-0.26967,53,0.822846,10,-5.93675e-05,-3.56917,-0.695691,-0.0848077,0.220268,
2,0,0,1,0,35392,0.201506,0.20119,-0.281895,53,0.821747,10,-5.67146e-05,-3.54991,-0.550295,-0.107215,0.201314,
2,0,0,0,0,35395.8,0.182529,0.182212,-0.301034,53,0.820587,10,-5.4852e-05,-3.52138,-0.422763,-0.139558,0.182344,
2,0,0,1,0,35399.6,0.163552,0.163184,-0.336738,53,0.819329,10,-5.49503e-05,-3.47271,-0.296833,-0.198765,0.163332,
2,0,0,0,0,35403.4,0.144575,0.144245,-0.437436,53,0.817843,10,-6.30981e-05,-3.35909,-0.105989,-0.556661,0.144438,
2,0,0,1,0,35407.2,0.125598,0.12528,-0.659031,53,0.815695,10,-8.25632e-05,-3.18109,-0.183898,-0.32083,0.12557,
2,0,0,1,0,35411,0.10662,0.106286,-0.705323,53,0.812985,10,-7.49657e-05,-3.15161,2.64842,0.0222775,0.106596,
2,0,0,1,0,35414.8,0.0876433,0.0873235,-0.668069,53,0.81031,10,-5.83382e-05,-3.17518,0.637362,0.0925691,0.0876175,
2,0,0,1,0,35418.6,0.0686664,0.0683762,-0.62468,53,0.8078,10,-4.27132e-05,-3.20434,0.698018,0.0845251,0.0686511,
2,0,0,1,0,35422.4,0.0496895,0.0493942,-0.581387,53,0.805445,10,-2.87171e-05,-3.23553,0.471967,0.125009,0.04965,
2,0,0,1,0,35426.2,0.0307126,0.0303841,-0.532243,53,0.803268,10,-1.61717e-05,-3.27389,0.521905,0.113047,0.0306183,
2,0,0,1,0,35430,0.0117356,0.0114072,-0.501608,53,0.801254,10,-5.72194e-06,-3.29964,1.07774,0.0547442,0.0116279,
2,0,0,0,0,35432.3,0.000274105,-0.000141608,-0.50107,53,0.800072,10,7.09555e-08,-3.3001, , ,7.88626e-05,