File: Figure_codes/Fig_3-5/workspace_calculate_alpha_eff/20221101_1-115_003_TrumpetPlot_ParaChange_from10_every3_16_CV_C01_15.csv
mode,ox/red,error,control changes,counter inc.,time/s,control/V,Ewe/V,<I>/mA,cycle number,(Q-Qo)/C,I Range,P/W,log(|I|),Tafel slope mV/dec,alpha_eff,E-IR/V,
2,0,0,1,0,11080.8,2.44065e-05,-0.000363498,-0.0376989,16,0.0000000E+000,10,1.37035e-08,-4.42367, , ,-0.000346911,
2,1,0,1,0,11084.5,0.0187763,0.0184762,0.278778,16,0.000961311,10,5.15078e-06,-3.55474,0.182014,0.324151,0.0183536,
2,1,0,0,0,11088.3,0.0377538,0.0374145,0.346283,16,0.00222222,10,1.2956e-05,-3.46057,0.239281,0.246572,0.0372622,
2,1,0,1,0,11092.1,0.0567309,0.0563905,0.410888,16,0.00373613,10,2.31702e-05,-3.38628,0.353782,0.166769,0.0562097,
2,1,0,0,0,11095.9,0.075708,0.0754036,0.460803,16,0.00546866,10,3.47462e-05,-3.33648,0.522891,0.112834,0.0752009,
2,1,0,1,0,11099.7,0.0946851,0.0943541,0.521751,16,0.00738715,10,4.92294e-05,-3.28254,0.276784,0.213163,0.0941246,
2,1,0,0,0,11103.5,0.113662,0.113294,0.630662,16,0.00964485,10,7.14502e-05,-3.2002,0.374091,0.157716,0.113017,
2,1,0,1,0,11107.3,0.132639,0.132349,0.703598,16,0.0122568,10,9.31201e-05,-3.15268,-126.958,-0.000464721,0.132039,
2,1,0,1,0,11111.1,0.151617,0.151309,0.487253,16,0.0146881,10,7.37258e-05,-3.31225,-0.0758366,-0.777989,0.151094,
2,1,0,1,0,11114.9,0.170594,0.170302,0.344155,16,0.0162679,10,5.86102e-05,-3.46325,-0.232893,-0.253336,0.17015,
2,1,0,1,0,11118.7,0.189571,0.189245,0.310618,16,0.0175652,10,5.87828e-05,-3.50777,-0.69596,-0.084775,0.189108,
2,1,0,1,0,11122.5,0.208547,0.208265,0.295643,16,0.0187757,10,6.15722e-05,-3.52923,-1.52118,-0.0387857,0.208135,
2,1,0,1,0,11126.3,0.227524,0.227214,0.286212,16,0.0199419,10,6.50313e-05,-3.54331,-1.15871,-0.0509187,0.227088,
2,1,0,1,0,11130.1,0.246501,0.246224,0.279291,16,0.0210803,10,6.87682e-05,-3.55394,-2.83309,-0.0208253,0.246101,
2,1,0,1,0,11133.9,0.265479,0.265146,0.27734,16,0.022199,10,7.35357e-05,-3.55699,-0.827343,-0.0713126,0.265024,
2,1,0,0,0,11137.7,0.284456,0.284168,0.272633,16,0.0233019,10,7.74736e-05,-3.56442,-26.2657,-0.00224628,0.284048,
2,1,0,1,0,11141.5,0.303433,0.303109,0.267655,16,0.0243892,10,8.11287e-05,-3.57242,-1.44129,-0.0409355,0.302991,
2,1,0,0,0,11145.2,0.32241,0.322109,0.264161,16,0.0254604,10,8.50889e-05,-3.57813,-2.93711,-0.0200878,0.321993,
2,1,0,1,0,11149,0.341387,0.341119,0.261516,16,0.0265191,10,8.9208e-05,-3.5825,-5.09507,-0.0115798,0.341004,
2,1,0,0,0,11152.8,0.360364,0.36001,0.259248,16,0.0275659,10,9.33321e-05,-3.58628,-7.61124,-0.00775169,0.359896,
2,1,0,1,0,11156.6,0.379342,0.379071,0.255339,16,0.028601,10,9.67915e-05,-3.59288,-1.24079,-0.0475504,0.378958,
2,1,0,1,0,11160.4,0.398319,0.397996,0.252878,16,0.0296267,10,0.000100644,-3.59709,-1.90079,-0.0310398,0.397884,
2,1,0,1,0,11164.2,0.417295,0.416984,0.250998,16,0.0306447,10,0.000104662,-3.60033,-4.44728,-0.0132665,0.416873,
2,1,0,1,0,11168,0.436272,0.435971,0.251916,16,0.0316576,10,0.000109828,-3.59874,6.39546,0.00922529,0.43586,
2,1,0,1,0,11171.8,0.455249,0.454979,0.25188,16,0.0326692,10,0.0001146,-3.59881,2.70472,0.0218137,0.454868,
2,1,0,1,0,11175.6,0.474226,0.473906,0.252802,16,0.0336821,10,0.000119805,-3.59722,1.65903,0.035563,0.473795,
2,1,0,1,0,11179.4,0.493203,0.492882,0.253874,16,0.034701,10,0.00012513,-3.59538,1.77067,0.0333207,0.49277,
2,1,0,1,0,11183.2,0.512181,0.511899,0.260503,16,0.035733,10,0.000133351,-3.58419,2.41231,0.0244579,0.511784,
2,1,0,0,0,11187,0.531158,0.530891,0.267933,16,0.0367875,10,0.000142243,-3.57197,1.23456,0.0477904,0.530773,
2,1,0,1,0,11190.8,0.550135,0.549842,0.276735,16,0.0378733,10,0.000152161,-3.55794,1.00218,0.0588718,0.54972,
2,1,0,0,0,11194.6,0.569112,0.568819,0.294224,16,0.0390104,10,0.00016736,-3.53132,0.707462,0.0833967,0.56869,
2,1,0,1,0,11198.4,0.588089,0.587827,0.32343,16,0.0402327,10,0.000190121,-3.49022,0.425315,0.138721,0.587685,
2,1,0,0,0,11202.2,0.607066,0.606764,0.378855,16,0.0416077,10,0.000229876,-3.42153,0.223732,0.263708,0.606597,
2,1,0,1,0,11206,0.626044,0.625718,0.4877,16,0.0432817,10,0.000305163,-3.31185,0.133062,0.443402,0.625503,
2,1,0,1,0,11209.8,0.64502,0.644744,0.72223,16,0.0455762,10,0.000465653,-3.14132,0.0929855,0.634508,0.644426,
2,1,0,1,0,11213.6,0.663997,0.663722,1.23005,16,0.0492198,10,0.000816413,-2.91008,0.0727192,0.811341,0.66318,
2,1,0,1,0,11217.4,0.682974,0.682669,2.25015,16,0.055677,10,0.0015361,-2.64779,0.0702668,0.839656,0.681679,
2,1,0,1,0,11221.2,0.701951,0.701649,4.01795,16,0.0673653,10,0.00281919,-2.396,0.0753619,0.782889,0.699881,
2,1,0,1,0,11225,0.720928,0.720666,6.61656,16,0.0873487,10,0.00476833,-2.17937,0.0910388,0.648075,0.717755,
2,1,0,1,0,11228.7,0.739905,0.739629,9.96231,16,0.118651,10,0.00736841,-2.00164,0.107264,0.550047,0.735246,
2,1,0,1,0,11232.5,0.758883,0.758625,14.0304,16,0.163975,10,0.0106438,-1.85293,0.121229,0.486684,0.752451,
2,1,0,0,0,11236.3,0.77786,0.77758,19.2497,16,0.226784,10,0.0149682,-1.71558,0.12401,0.47577,0.769111,
2,1,0,1,0,11240.1,0.796837,0.796562,25.6867,16,0.311703,10,0.0204611,-1.59029,0.132449,0.445454,0.78526,
2,1,0,0,0,11243.9,0.815814,0.815537,32.9411,16,0.422794,10,0.0268647,-1.48226,0.155657,0.379038,0.801042,
2,1,0,1,0,11247.7,0.834791,0.834572,40.442,16,0.562046,10,0.0337518,-1.39317,0.199557,0.295655,0.816777,
2,1,0,1,0,11251.4,0.846727,0.846487,44.0125,16,0.723541,10,0.037256,-1.35642,0.144774,0.407531,0.827121,
2,1,0,1,0,11255.2,0.827749,0.827522,35.9031,16,0.874783,10,0.0297106,-1.44487,0.151197,0.390219,0.811724,
2,1,0,1,0,11259,0.808772,0.80851,27.7676,16,0.995471,10,0.0224504,-1.55646,0.128188,0.460263,0.796292,
2,1,0,1,0,11262.8,0.789795,0.789505,20.6385,16,1.08705,10,0.0162942,-1.68532,0.113704,0.518891,0.780424,
2,1,0,1,0,11266.6,0.770818,0.770538,14.6624,16,1.15359,10,0.011298,-1.83379,0.105699,0.55819,0.764087,
2,1,0,1,0,11270.4,0.751841,0.751558,9.9087,16,1.19979,10,0.00744697,-2.00398,0.0937925,0.629048,0.747198,
2,1,0,1,0,11274.2,0.732865,0.732635,6.3055,16,1.23014,10,0.00461963,-2.20028,0.0855235,0.689869,0.72986,
2,1,0,1,0,11278,0.713887,0.713619,3.8088,16,1.24915,10,0.00271803,-2.41921,0.0728461,0.809927,0.711943,
2,1,0,0,0,11281.8,0.69491,0.694652,2.03252,16,1.25993,10,0.0014119,-2.69196,0.0626419,0.941861,0.693758,
2,1,0,1,0,11285.6,0.675933,0.67565,0.968405,16,1.26539,10,0.000654303,-3.01394,0.0530801,1.11153,0.675224,
2,1,0,0,0,11289.4,0.656956,0.656677,0.395735,16,1.2678,10,0.00025987,-3.4026,0.0422237,1.39732,0.656503,
2,1,0,1,0,11293.2,0.637979,0.637728,0.123015,16,1.26866,10,7.84503e-05,-3.91004,0.0298128,1.97901,0.637673,
2,1,0,0,0,11297,0.619002,0.618694,0.00326622,16,1.26881,10,2.02079e-06,-5.48595,0.0139148,4.2401,0.618693,
2,0,0,1,0,11300.8,0.600025,0.599717,-0.0469009,16,1.26865,10,-2.81273e-05,-4.32882,-0.0598421,-0.985927,0.599738,
2,0,0,1,0,11304.6,0.581047,0.580745,-0.0716715,16,1.26837,10,-4.16229e-05,-4.14465,-0.175176,-0.336804,0.580777,
2,0,0,1,0,11308.4,0.56207,0.561756,-0.0835257,16,1.26802,10,-4.6921e-05,-4.07818,-0.341721,-0.172655,0.561792,
2,0,0,1,0,11312.1,0.543093,0.542768,-0.0916189,16,1.26763,10,-4.97278e-05,-4.03801,-0.859061,-0.0686796,0.542808,
2,0,0,1,0,11315.9,0.524116,0.523801,-0.0960207,16,1.26722,10,-5.02957e-05,-4.01764,-0.826353,-0.0713981,0.523843,
2,0,0,1,0,11319.7,0.505139,0.504848,-0.101781,16,1.26679,10,-5.13841e-05,-3.99233,-0.608795,-0.0969127,0.504893,
2,0,0,1,0,11323.5,0.486162,0.485865,-0.107231,16,1.26634,10,-5.20999e-05,-3.96968,-1.62722,-0.0362581,0.485912,
2,0,0,1,0,11327.3,0.467185,0.466891,-0.113369,16,1.26586,10,-5.29308e-05,-3.94551,-0.607418,-0.0971325,0.466941,
2,0,0,0,0,11331.1,0.448208,0.447917,-0.12076,16,1.26536,10,-5.40905e-05,-3.91808,-2.83637,-0.0208012,0.44797,
2,0,0,1,0,11334.9,0.429231,0.42897,-0.129467,16,1.26483,10,-5.55375e-05,-3.88784,-1.00106,-0.0589375,0.429027,
2,0,0,0,0,11338.7,0.410254,0.409974,-0.138953,16,1.26427,10,-5.69671e-05,-3.85713,-1.40346,-0.0420388,0.410035,
2,0,0,1,0,11342.5,0.391277,0.391003,-0.148407,16,1.26366,10,-5.80275e-05,-3.82855,-0.837848,-0.0704185,0.391068,
2,0,0,0,0,11346.3,0.3723,0.371971,-0.158395,16,1.26302,10,-5.89184e-05,-3.80026,-0.55993,-0.10537,0.37204,
2,0,0,1,0,11350.1,0.353322,0.353002,-0.169318,16,1.26234,10,-5.97694e-05,-3.7713,-0.576925,-0.102266,0.353076,
2,0,0,1,0,11353.9,0.334345,0.33402,-0.180322,16,1.26161,10,-6.0231e-05,-3.74395,-0.727062,-0.0811485,0.334099,
2,0,0,1,0,11357.7,0.315368,0.31512,-0.193535,16,1.26084,10,-6.09867e-05,-3.71324,-0.610396,-0.0966586,0.315205,
2,0,0,1,0,11361.5,0.296391,0.296107,-0.206053,16,1.26002,10,-6.10138e-05,-3.68602,-1.01622,-0.0580583,0.296198,
2,0,0,1,0,11365.3,0.277414,0.277112,-0.218116,16,1.25915,10,-6.04426e-05,-3.66131,-0.5755,-0.102519,0.277208,
2,0,0,1,0,11369.1,0.258437,0.258105,-0.230339,16,1.25823,10,-5.94517e-05,-3.63763,-0.771824,-0.0764423,0.258206,
2,0,0,1,0,11372.9,0.239461,0.239164,-0.243386,16,1.25727,10,-5.82091e-05,-3.6137,-0.550061,-0.107261,0.239271,
2,0,0,1,0,11376.7,0.220483,0.220195,-0.254866,16,1.25626,10,-5.612e-05,-3.59369,-0.56065,-0.105235,0.220307,
2,0,0,0,0,11380.5,0.201506,0.201215,-0.271051,16,1.2552,10,-5.45393e-05,-3.56695,-0.491841,-0.119958,0.201334,
2,0,0,1,0,11384.3,0.182529,0.182247,-0.294883,16,1.25406,10,-5.37415e-05,-3.53035,-0.34095,-0.173046,0.182377,
2,0,0,0,0,11388.1,0.163552,0.163261,-0.342857,16,1.2528,10,-5.59754e-05,-3.46489,-0.183583,-0.32138,0.163412,
2,0,0,1,0,11391.9,0.144575,0.144266,-0.497297,16,1.2512,10,-7.17432e-05,-3.30338,-0.0804174,-0.733672,0.144485,
2,0,0,0,0,11395.6,0.125598,0.12527,-0.749807,16,1.2487,10,-9.39285e-05,-3.12505,-0.28688,-0.205661,0.1256,
2,0,0,1,0,11399.4,0.10662,0.106293,-0.746169,16,1.24575,10,-7.93124e-05,-3.12716,0.615309,0.0958868,0.106621,
2,0,0,1,0,11403.2,0.0876433,0.087299,-0.675929,16,1.24298,10,-5.90079e-05,-3.1701,0.453485,0.130104,0.0875964,
2,0,0,1,0,11407,0.0686664,0.0683539,-0.628134,16,1.24044,10,-4.29354e-05,-3.20195,0.545809,0.108096,0.0686302,
2,0,0,1,0,11410.8,0.0496895,0.0494271,-0.582209,16,1.23807,10,-2.87769e-05,-3.23492,0.575788,0.102468,0.0496833,
2,0,0,1,0,11414.6,0.0307126,0.0303747,-0.530921,16,1.23588,10,-1.61266e-05,-3.27497,0.509617,0.115773,0.0306083,
2,0,0,1,0,11418.4,0.0117356,0.0114276,-0.495136,16,1.23386,10,-5.6582e-06,-3.30528,1.25764,0.0469134,0.0116454,
2,0,0,1,0,11420.7,0.000274105,-7.48025e-05,-0.494781,16,1.23269,10,3.70108e-08,-3.30559, , ,0.000142901,