File: Figure_codes/Fig_3-5/workspace_calculate_alpha_eff/20221101_1-115_003_TrumpetPlot_ParaChange_from10_every3_16_CV_C01_8.csv
mode,ox/red,error,control changes,counter inc.,time/s,control/V,Ewe/V,<I>/mA,cycle number,(Q-Qo)/C,I Range,P/W,log(|I|),Tafel slope mV/dec,alpha_eff,E-IR/V,
2,0,0,0,0,5910.38,2.44065e-05,-0.000229887,-0.109571,9,0.0000000E+000,10,2.51888e-08,-3.96031, , ,-0.000181676,
2,1,0,1,0,5914.13,0.0187763,0.0184742,0.215233,9,0.00073968,10,3.97627e-06,-3.66709,0.149193,0.39546,0.0183795,
2,1,0,1,0,5917.93,0.0377538,0.0374729,0.279977,9,0.00175594,10,1.04915e-05,-3.55288,0.179198,0.329244,0.0373497,
2,1,0,0,0,5921.72,0.0567309,0.056434,0.351323,9,0.00303832,10,1.98266e-05,-3.45429,0.235234,0.250814,0.0562794,
2,1,0,1,0,5925.52,0.075708,0.0753835,0.413181,9,0.00457418,10,3.1147e-05,-3.38386,0.372265,0.158489,0.0752017,
2,1,0,0,0,5929.31,0.0946851,0.0943881,0.478968,9,0.00633155,10,4.52089e-05,-3.31969,0.250403,0.23562,0.0941773,
2,1,0,1,0,5933.11,0.113662,0.113327,0.600219,9,0.00845148,10,6.8021e-05,-3.22169,0.255651,0.230784,0.113063,
2,1,0,0,0,5936.9,0.132639,0.132337,0.693711,9,0.0109937,10,9.18035e-05,-3.15882,1.34962,0.0437161,0.132032,
2,1,0,1,0,5940.7,0.151617,0.151295,0.489085,9,0.0134441,10,7.39962e-05,-3.31062,-0.0659862,-0.894126,0.15108,
2,1,0,1,0,5944.49,0.170594,0.170243,0.312254,9,0.0149612,10,5.31591e-05,-3.50549,-0.166606,-0.354129,0.170106,
2,1,0,1,0,5948.29,0.189571,0.189243,0.268794,9,0.0161206,10,5.08672e-05,-3.57058,-0.4149,-0.142203,0.189124,
2,1,0,1,0,5952.09,0.208547,0.208273,0.251391,9,0.0171746,10,5.23579e-05,-3.59965,-1.24466,-0.0474024,0.208162,
2,1,0,1,0,5955.88,0.227524,0.227237,0.241262,9,0.018177,10,5.48236e-05,-3.61751,-0.885276,-0.0666459,0.227131,
2,1,0,1,0,5959.68,0.246501,0.246224,0.233851,9,0.0191492,10,5.75799e-05,-3.63106,-1.0841,-0.0544231,0.246121,
2,1,0,0,0,5963.47,0.265479,0.265185,0.229237,9,0.0201012,10,6.07902e-05,-3.63971,-0.891155,-0.0662062,0.265084,
2,1,0,1,0,5967.27,0.284456,0.28416,0.226842,9,0.0210364,10,6.44595e-05,-3.64428,14.2376,0.00414397,0.284061,
2,1,0,0,0,5971.06,0.303433,0.303113,0.222644,9,0.0219571,10,6.74864e-05,-3.65239,-1.23901,-0.0476185,0.303015,
2,1,0,1,0,5974.86,0.32241,0.32212,0.218447,9,0.0228635,10,7.0366e-05,-3.66065,-10.1878,-0.00579122,0.322024,
2,1,0,0,0,5978.65,0.341387,0.341122,0.216075,9,0.0237558,10,7.3708e-05,-3.6654,12.4172,0.00475149,0.341027,
2,1,0,1,0,5982.45,0.360364,0.360084,0.213724,9,0.024637,10,7.69583e-05,-3.67015,60.9369,0.000968215,0.35999,
2,1,0,1,0,5986.24,0.379342,0.379031,0.211934,9,0.0255091,10,8.03298e-05,-3.6738,-2.71575,-0.0217251,0.378938,
2,1,0,1,0,5990.04,0.398319,0.398057,0.209816,9,0.0263743,10,8.35189e-05,-3.67816,-1.00508,-0.058702,0.397965,
2,1,0,1,0,5993.83,0.417295,0.416987,0.20926,9,0.0272351,10,8.72587e-05,-3.67931,117.791,0.000500887,0.416895,
2,1,0,1,0,5997.63,0.436272,0.435976,0.209226,9,0.0280938,10,9.12173e-05,-3.67938,2.42301,0.0243499,0.435884,
2,1,0,1,0,6001.43,0.455249,0.454952,0.210916,9,0.0289548,10,9.59565e-05,-3.67589,1.56058,0.0378064,0.454859,
2,1,0,1,0,6005.22,0.474226,0.473916,0.212927,9,0.0298212,10,0.000100909,-3.67177,0.825354,0.0714845,0.473822,
2,1,0,1,0,6009.02,0.493203,0.492924,0.215539,9,0.0306975,10,0.000106244,-3.66647,1.42167,0.0415006,0.49283,
2,1,0,0,0,6012.81,0.512181,0.511924,0.221095,9,0.0315902,10,0.000113184,-3.65542,0.813989,0.0724826,0.511827,
2,1,0,1,0,6016.61,0.531158,0.530914,0.229688,9,0.0325084,10,0.000121944,-3.63886,1.01177,0.0583135,0.530813,
2,1,0,0,0,6020.4,0.550135,0.549851,0.240932,9,0.0334631,10,0.000132476,-3.61811,0.590117,0.0999802,0.549745,
2,1,0,1,0,6024.2,0.569112,0.568861,0.260964,9,0.0344745,10,0.000148452,-3.58342,0.368914,0.159929,0.568746,
2,1,0,0,0,6027.99,0.588089,0.587763,0.294109,9,0.0355825,10,0.000172867,-3.53149,0.276568,0.213329,0.587634,
2,1,0,1,0,6031.79,0.607066,0.606827,0.35567,9,0.0368624,10,0.00021583,-3.44895,0.194321,0.303622,0.606671,
2,1,0,1,0,6035.58,0.626044,0.625773,0.480077,9,0.0384825,10,0.000300419,-3.31869,0.10814,0.54559,0.625562,
2,1,0,1,0,6039.38,0.64502,0.644751,0.75711,9,0.0408266,10,0.000488148,-3.12084,0.079056,0.746307,0.644418,
2,1,0,1,0,6043.18,0.663997,0.663744,1.37329,9,0.0447877,10,0.000911516,-2.86224,0.0673567,0.875933,0.66314,
2,1,0,1,0,6046.97,0.682974,0.682751,2.62942,9,0.0521936,10,0.00179524,-2.58014,0.0654376,0.901622,0.681594,
2,1,0,1,0,6050.77,0.701951,0.701691,4.81487,9,0.0660655,10,0.00337856,-2.31742,0.0722349,0.81678,0.699573,
2,1,0,1,0,6054.56,0.720928,0.720674,7.98207,9,0.0901256,10,0.00575247,-2.09788,0.0890288,0.662707,0.717162,
2,1,0,1,0,6058.36,0.739905,0.739662,11.9823,9,0.127833,10,0.00886285,-1.92146,0.107868,0.546964,0.73439,
2,1,0,0,0,6062.15,0.758883,0.758645,16.916,9,0.182421,10,0.0128332,-1.7717,0.117792,0.500884,0.751202,
2,1,0,1,0,6065.95,0.77786,0.777585,23.3579,9,0.258391,10,0.0181628,-1.63157,0.117319,0.502901,0.767307,
2,1,0,0,0,6069.74,0.796837,0.796568,30.9242,9,0.361137,10,0.0246332,-1.5097,0.138552,0.425832,0.782961,
2,1,0,1,0,6073.54,0.815814,0.81555,38.9864,9,0.494022,10,0.0317954,-1.40909,0.176039,0.335152,0.798396,
2,1,0,0,0,6077.33,0.834791,0.834549,46.7189,9,0.657042,10,0.0389892,-1.33051,0.235777,0.250236,0.813992,
2,1,0,0,0,6081.03,0.846727,0.846525,49.8377,9,0.840907,10,0.0421889,-1.30244,0.159424,0.370081,0.824596,
2,1,0,1,0,6084.83,0.827749,0.827532,41.109,9,1.0131,10,0.034019,-1.38606,0.167365,0.352524,0.809444,
2,1,0,1,0,6088.62,0.808772,0.808511,32.6402,9,1.15273,10,0.0263899,-1.48625,0.134254,0.439466,0.794149,
2,1,0,1,0,6092.42,0.789795,0.789531,24.7425,9,1.26125,10,0.019535,-1.60656,0.158974,0.371129,0.778645,
2,1,0,1,0,6096.21,0.770818,0.770574,18.0684,9,1.34265,10,0.013923,-1.74308,0.103326,0.571006,0.762624,
2,1,0,1,0,6100.01,0.751841,0.751584,12.3258,9,1.39985,10,0.00926387,-1.90918,0.0931036,0.633703,0.74616,
2,1,0,1,0,6103.8,0.732865,0.73258,7.8387,9,1.43761,10,0.00574248,-2.10576,0.0825557,0.714669,0.729131,
2,1,0,0,0,6107.6,0.713887,0.713616,4.62734,9,1.46083,10,0.00330214,-2.33467,0.0715136,0.825018,0.71158,
2,1,0,1,0,6111.39,0.69491,0.694629,2.46415,9,1.47391,10,0.00171167,-2.60833,0.0609869,0.967421,0.693545,
2,1,0,0,0,6115.19,0.675933,0.675693,1.15808,9,1.48048,10,0.000782505,-2.93626,0.0510856,1.15492,0.675184,
2,1,0,1,0,6118.98,0.656956,0.656674,0.463557,9,1.48334,10,0.000304406,-3.3339,0.0427468,1.38022,0.65647,
2,1,0,0,0,6122.78,0.637979,0.637712,0.137335,9,1.48433,10,8.75801e-05,-3.86222,0.0275366,2.14261,0.637651,
2,1,0,1,0,6126.58,0.619002,0.618697,-0.00347395,9,1.48448,10,-2.14932e-06,-5.45918,-0.0110796,-5.32508,0.618698,
2,0,0,0,0,6130.37,0.600025,0.599753,-0.0613285,9,1.48428,10,-3.6782e-05,-4.21234,-0.0785784,-0.750842,0.59978,
2,0,0,1,0,6134.17,0.581047,0.580739,-0.0896601,9,1.48392,10,-5.20691e-05,-4.0474,-0.228327,-0.258401,0.580778,
2,0,0,1,0,6137.96,0.56207,0.561736,-0.102821,9,1.48348,10,-5.77582e-05,-3.98792,-0.22237,-0.265323,0.561781,
2,0,0,1,0,6141.76,0.543093,0.542793,-0.110709,9,1.48301,10,-6.0092e-05,-3.95582,-1.53398,-0.0384622,0.542842,
2,0,0,1,0,6145.55,0.524116,0.523846,-0.115926,9,1.48252,10,-6.07274e-05,-3.93582,-1.06918,-0.0551826,0.523897,
2,0,0,1,0,6149.35,0.505139,0.50486,-0.120169,9,1.482,10,-6.06683e-05,-3.92021,-6.43964,-0.009162,0.504913,
2,0,0,1,0,6153.14,0.486162,0.485851,-0.125913,9,1.48147,10,-6.11749e-05,-3.89993,-1.36892,-0.0430996,0.485907,
2,0,0,1,0,6156.94,0.467185,0.466842,-0.132772,9,1.48091,10,-6.19834e-05,-3.8769,-0.639224,-0.0922994,0.466901,
2,0,0,1,0,6160.73,0.448208,0.447885,-0.139828,9,1.48033,10,-6.26268e-05,-3.85441,-1.32668,-0.0444721,0.447947,
2,0,0,0,0,6164.53,0.429231,0.428954,-0.147017,9,1.47972,10,-6.30635e-05,-3.83263,113.285,0.000520809,0.429018,
2,0,0,1,0,6168.32,0.410254,0.409955,-0.155729,9,1.47908,10,-6.38418e-05,-3.80763,-2.33258,-0.0252939,0.410024,
2,0,0,0,0,6172.12,0.391277,0.390981,-0.164902,9,1.47841,10,-6.44736e-05,-3.78277,-0.532642,-0.110769,0.391053,
2,0,0,1,0,6175.92,0.3723,0.371971,-0.176535,9,1.47769,10,-6.56658e-05,-3.75317,-1.11238,-0.0530392,0.372048,
2,0,0,1,0,6179.71,0.353322,0.353043,-0.184564,9,1.47694,10,-6.51589e-05,-3.73385,-0.646343,-0.0912828,0.353124,
2,0,0,1,0,6183.51,0.334345,0.334046,-0.197079,9,1.47614,10,-6.58335e-05,-3.70536,-0.559064,-0.105534,0.334133,
2,0,0,1,0,6187.3,0.315368,0.31507,-0.207856,9,1.4753,10,-6.54894e-05,-3.68224,-0.60287,-0.0978652,0.315162,
2,0,0,1,0,6191.1,0.296391,0.296086,-0.222001,9,1.47442,10,-6.57314e-05,-3.65364,-0.789048,-0.0747737,0.296183,
2,0,0,1,0,6194.89,0.277414,0.277123,-0.233029,9,1.47348,10,-6.45775e-05,-3.63259,-1.46104,-0.0403821,0.277225,
2,0,0,1,0,6198.69,0.258437,0.258159,-0.246489,9,1.4725,10,-6.36332e-05,-3.6082,-0.992364,-0.059454,0.258267,
2,0,0,1,0,6202.48,0.239461,0.239179,-0.25607,9,1.47148,10,-6.12465e-05,-3.59164,-0.9493,-0.0621511,0.239291,
2,0,0,0,0,6206.28,0.220483,0.220229,-0.270655,9,1.47041,10,-5.96059e-05,-3.56758,-0.500618,-0.117854,0.220348,
2,0,0,1,0,6210.07,0.201506,0.201232,-0.284893,9,1.46928,10,-5.73297e-05,-3.54532,-0.407226,-0.144883,0.201358,
2,0,0,0,0,6213.87,0.182529,0.182222,-0.313002,9,1.46807,10,-5.70357e-05,-3.50445,-0.291817,-0.202181,0.182359,
2,0,0,1,0,6217.67,0.163552,0.163236,-0.371567,9,1.46672,10,-6.06531e-05,-3.42996,-0.171376,-0.344273,0.1634,
2,0,0,0,0,6221.46,0.144575,0.144241,-0.563185,9,1.46494,10,-8.12343e-05,-3.24935,-0.0730863,-0.807265,0.144489,
2,0,0,1,0,6225.26,0.125598,0.125282,-0.809771,9,1.46216,10,-0.00010145,-3.09164,-0.467101,-0.126311,0.125638,
2,0,0,1,0,6229.05,0.10662,0.106322,-0.774885,9,1.45903,10,-8.2387e-05,-3.11076,0.446148,0.132243,0.106662,
2,0,0,1,0,6232.85,0.0876433,0.0873045,-0.691241,9,1.45617,10,-6.03484e-05,-3.16037,0.427119,0.138135,0.0876086,
2,0,0,1,0,6236.64,0.0686664,0.0683645,-0.635993,9,1.45359,10,-4.34793e-05,-3.19655,0.588422,0.100268,0.0686443,
2,0,0,1,0,6240.44,0.0496895,0.0493634,-0.58498,9,1.45119,10,-2.88766e-05,-3.23286,0.489406,0.120554,0.0496208,
2,0,0,1,0,6244.23,0.0307126,0.0304065,-0.52677,9,1.449,10,-1.60172e-05,-3.27838,0.534065,0.110474,0.0306382,
2,0,0,1,0,6248.03,0.0117356,0.0113999,-0.494518,9,1.44699,10,-5.63747e-06,-3.30582,1.4909,0.0395734,0.0116175,
2,0,0,0,0,6250.32,0.000274105,-0.000117749,-0.497426,9,1.4458,10,5.85714e-08,-3.30327, , ,0.000101118,