File: Figure_codes/Fig_3-5/workspace_calculate_alpha_eff/20221101_1-115_003_TrumpetPlot_ParaChange_from10_every3_16_CV_C01_65.csv
mode,ox/red,error,control changes,counter inc.,time/s,control/V,Ewe/V,<I>/mA,cycle number,(Q-Qo)/C,I Range,P/W,log(|I|),Tafel slope mV/dec,alpha_eff,E-IR/V,
2,0,0,0,0,43342.9,2.44065e-05,-0.000363498,-0.0936697,66,0.0000000E+000,10,3.40488e-08,-4.0284, , ,-0.000322283,
2,1,0,1,0,43346.6,0.0187763,0.0184444,0.206809,66,0.000676954,10,3.81445e-06,-3.68443,0.152671,0.386453,0.0183534,
2,1,0,1,0,43350.4,0.0377538,0.0373817,0.270516,66,0.00164491,10,1.01123e-05,-3.56781,0.177654,0.332106,0.0372626,
2,1,0,0,0,43354.2,0.0567309,0.0564626,0.332769,66,0.00286108,10,1.8789e-05,-3.47786,0.318446,0.185275,0.0563162,
2,1,0,1,0,43358,0.075708,0.0753527,0.379899,66,0.00428387,10,2.86264e-05,-3.42033,0.394976,0.149376,0.0751856,
2,1,0,0,0,43361.8,0.094685,0.0943722,0.433283,66,0.00587686,10,4.08898e-05,-3.36323,0.254015,0.23227,0.0941815,
2,1,0,1,0,43365.6,0.113662,0.113333,0.531795,66,0.00777048,10,6.02701e-05,-3.27426,0.30694,0.19222,0.113099,
2,1,0,0,0,43369.4,0.132639,0.132385,0.572216,66,0.00994833,10,7.57525e-05,-3.24244,-0.723015,-0.0816028,0.132133,
2,1,0,1,0,43373.2,0.151617,0.151289,0.371452,66,0.0118717,10,5.61966e-05,-3.4301,-0.0745402,-0.791519,0.151125,
2,1,0,1,0,43377,0.170594,0.170287,0.276783,66,0.0131038,10,4.71324e-05,-3.55786,-0.305512,-0.193119,0.170165,
2,1,0,1,0,43380.8,0.189571,0.189255,0.257277,66,0.0141665,10,4.86911e-05,-3.5896,-0.906462,-0.0650882,0.189142,
2,1,0,1,0,43384.6,0.208547,0.208285,0.249273,66,0.015181,10,5.19199e-05,-3.60332,-1.36371,-0.0432644,0.208175,
2,1,0,1,0,43388.4,0.227524,0.227236,0.242761,66,0.0161686,10,5.5164e-05,-3.61482,-1.58785,-0.0371572,0.227129,
2,1,0,1,0,43392.2,0.246501,0.24622,0.239241,66,0.017138,10,5.89059e-05,-3.62116,-1.23819,-0.0476503,0.246115,
2,1,0,0,0,43395.9,0.265479,0.265143,0.235562,66,0.018093,10,6.24577e-05,-3.62789,-0.701201,-0.0841414,0.26504,
2,1,0,1,0,43399.7,0.284456,0.28417,0.232252,66,0.0190332,10,6.59992e-05,-3.63404,-1.87102,-0.0315336,0.284068,
2,1,0,0,0,43403.5,0.303433,0.303126,0.228162,66,0.0199563,10,6.91619e-05,-3.64176,-2.67617,-0.0220465,0.303025,
2,1,0,1,0,43407.3,0.32241,0.322142,0.225621,66,0.0208651,10,7.26821e-05,-3.64662,-8.8018,-0.00670318,0.322043,
2,1,0,0,0,43411.1,0.341387,0.341098,0.22244,66,0.021762,10,7.58737e-05,-3.65279,-6.12529,-0.0096322,0.341,
2,1,0,1,0,43414.9,0.360364,0.360051,0.219806,66,0.0226482,10,7.91411e-05,-3.65796,-7.66463,-0.00769769,0.359954,
2,1,0,1,0,43418.7,0.379342,0.379045,0.219082,66,0.0235254,10,8.30418e-05,-3.65939,15.8019,0.00373372,0.378949,
2,1,0,1,0,43422.5,0.398319,0.398006,0.216012,66,0.0243952,10,8.5974e-05,-3.66552,7.31278,0.00806807,0.397911,
2,1,0,1,0,43426.3,0.417295,0.416995,0.216951,66,0.0252606,10,9.04673e-05,-3.66364,-4.62675,-0.0127519,0.416899,
2,1,0,1,0,43430.1,0.436272,0.436017,0.215893,66,0.0261222,10,9.41332e-05,-3.66576,-5.76317,-0.0102374,0.435922,
2,1,0,1,0,43433.9,0.455249,0.455,0.215991,66,0.0269817,10,9.82758e-05,-3.66556,1.24877,0.0472464,0.454905,
2,1,0,1,0,43437.7,0.474226,0.473922,0.217478,66,0.0278446,10,0.000103068,-3.66258,0.92356,0.0638833,0.473826,
2,1,0,1,0,43441.5,0.493203,0.492889,0.220662,66,0.0287151,10,0.000108762,-3.65627,1.98287,0.0297548,0.492792,
2,1,0,0,0,43445.3,0.512181,0.511909,0.22509,66,0.0295979,10,0.000115226,-3.64764,1.49979,0.0393388,0.51181,
2,1,0,1,0,43449.1,0.531158,0.530848,0.231936,66,0.0304991,10,0.000123123,-3.63463,1.4198,0.0415552,0.530746,
2,1,0,0,0,43452.9,0.550135,0.549852,0.240725,66,0.0314286,10,0.000132363,-3.61848,0.749881,0.0786792,0.549746,
2,1,0,1,0,43456.7,0.569112,0.568785,0.253587,66,0.0323999,10,0.000144237,-3.59587,0.640166,0.0921636,0.568674,
2,1,0,0,0,43460.5,0.588089,0.587769,0.273456,66,0.0334327,10,0.000160729,-3.56311,0.347101,0.169979,0.587648,
2,1,0,1,0,43464.3,0.607066,0.606755,0.309005,66,0.0345672,10,0.00018749,-3.51003,0.279481,0.211105,0.606619,
2,1,0,1,0,43468.1,0.626044,0.625764,0.37383,66,0.0358842,10,0.000233929,-3.42733,0.169523,0.348035,0.625599,
2,1,0,1,0,43471.9,0.64502,0.644744,0.50874,66,0.0375647,10,0.000328007,-3.2935,0.115514,0.510761,0.64452,
2,1,0,1,0,43475.7,0.663997,0.663694,0.785533,66,0.0399927,10,0.000521354,-3.10484,0.0878431,0.671652,0.663348,
2,1,0,1,0,43479.4,0.682974,0.682661,1.32707,66,0.0439334,10,0.000905938,-2.87711,0.0793533,0.74351,0.682078,
2,1,0,1,0,43483.2,0.701951,0.701652,2.25814,66,0.0506348,10,0.00158443,-2.64625,0.0834837,0.706724,0.700658,
2,1,0,1,0,43487,0.720928,0.720612,3.64151,66,0.0617181,10,0.00262411,-2.43872,0.0943981,0.625012,0.71901,
2,1,0,1,0,43490.8,0.739905,0.73967,5.50994,66,0.0789632,10,0.00407554,-2.25885,0.108807,0.542246,0.737246,
2,1,0,0,0,43494.6,0.758883,0.758588,7.92951,66,0.104311,10,0.00601523,-2.10075,0.118823,0.496536,0.7551,
2,1,0,1,0,43498.4,0.77786,0.777585,11.0786,66,0.140137,10,0.00861453,-1.95552,0.120493,0.489654,0.77271,
2,1,0,0,0,43502.2,0.796837,0.796554,15.3481,66,0.1899,10,0.0122256,-1.81394,0.121763,0.484546,0.789801,
2,1,0,1,0,43506,0.815814,0.815554,21.0504,66,0.258524,10,0.0171677,-1.67674,0.123157,0.479061,0.806292,
2,1,0,0,0,43509.8,0.834791,0.83457,27.8046,66,0.351029,10,0.0232049,-1.55588,0.141752,0.416221,0.822336,
2,1,0,0,0,43513.5,0.846726,0.846511,31.613,66,0.4657,10,0.0267607,-1.50013,0.106608,0.553429,0.832601,
2,1,0,1,0,43517.3,0.827749,0.827489,23.271,66,0.569209,10,0.0192565,-1.63319,0.107575,0.548453,0.81725,
2,1,0,1,0,43521.1,0.808772,0.808508,16.8694,66,0.644508,10,0.0136391,-1.7729,0.116464,0.506594,0.801085,
2,1,0,1,0,43524.9,0.789795,0.789512,12.0198,66,0.698915,10,0.00948976,-1.9201,0.110576,0.53357,0.784223,
2,1,0,1,0,43528.7,0.770818,0.770537,8.33596,66,0.737148,10,0.00642317,-2.07904,0.108005,0.546271,0.76687,
2,1,0,1,0,43532.5,0.751841,0.751555,5.63735,66,0.763346,10,0.00423678,-2.24893,0.10315,0.571982,0.749075,
2,1,0,1,0,43536.3,0.732865,0.732606,3.72122,66,0.780836,10,0.00272619,-2.42931,0.0906408,0.650921,0.730968,
2,1,0,0,0,43540.1,0.713887,0.713623,2.2596,66,0.792,10,0.0016125,-2.64597,0.0785243,0.75136,0.712629,
2,1,0,1,0,43543.9,0.69491,0.694658,1.23417,66,0.798467,10,0.000857323,-2.90863,0.0634199,0.930307,0.694115,
2,1,0,0,0,43547.7,0.675933,0.67567,0.579206,66,0.801769,10,0.000391352,-3.23717,0.0508728,1.15976,0.675415,
2,1,0,1,0,43551.5,0.656956,0.656661,0.210987,66,0.803158,10,0.000138547,-3.67575,0.0356134,1.65668,0.656568,
2,1,0,0,0,43555.3,0.637979,0.637735,0.0280052,66,0.80353,10,1.78599e-05,-4.55276,0.00980869,6.01507,0.637723,
2,0,0,1,0,43559.1,0.619002,0.618727,-0.0518963,66,0.803426,10,-3.21097e-05,-4.28486,-0.0447705,-1.31783,0.61875,
2,0,0,0,0,43562.8,0.600024,0.599712,-0.087391,66,0.803116,10,-5.24094e-05,-4.05853,-0.14843,-0.397494,0.59975,
2,0,0,1,0,43566.6,0.581047,0.580813,-0.104833,66,0.802711,10,-6.08884e-05,-3.9795,-0.555808,-0.106152,0.580859,
2,0,0,1,0,43570.4,0.56207,0.561767,-0.112836,66,0.80226,10,-6.33875e-05,-3.94755,-0.507721,-0.116205,0.561817,
2,0,0,1,0,43574.2,0.543093,0.542752,-0.119632,66,0.801783,10,-6.49305e-05,-3.92215,-0.892221,-0.0661271,0.542805,
2,0,0,1,0,43578,0.524116,0.523797,-0.123845,66,0.801285,10,-6.48697e-05,-3.90712,-2.59649,-0.022723,0.523851,
2,0,0,1,0,43581.8,0.505139,0.504817,-0.127844,66,0.80077,10,-6.45379e-05,-3.89332,-4.44247,-0.0132809,0.504874,
2,0,0,1,0,43585.6,0.486162,0.485903,-0.133356,66,0.800236,10,-6.47984e-05,-3.87499,3.73865,0.0157811,0.485962,
2,0,0,1,0,43589.4,0.467185,0.466886,-0.138744,66,0.799681,10,-6.47776e-05,-3.85779,-0.720922,-0.0818396,0.466947,
2,0,0,1,0,43593.2,0.448208,0.447885,-0.146026,66,0.799102,10,-6.54029e-05,-3.83557,-1.63789,-0.0360219,0.447949,
2,0,0,0,0,43597,0.429231,0.428901,-0.153569,66,0.798494,10,-6.58657e-05,-3.8137,-0.942504,-0.0625992,0.428968,
2,0,0,1,0,43600.8,0.410254,0.409937,-0.162401,66,0.797853,10,-6.65742e-05,-3.78941,-0.864085,-0.0682803,0.410009,
2,0,0,0,0,43604.6,0.391277,0.390975,-0.171641,66,0.797178,10,-6.71074e-05,-3.76538,-0.961394,-0.0613692,0.391051,
2,0,0,1,0,43608.4,0.3723,0.372004,-0.181465,66,0.796464,10,-6.75055e-05,-3.74121,-0.546844,-0.107892,0.372083,
2,0,0,1,0,43612.2,0.353322,0.353015,-0.191181,66,0.795711,10,-6.74897e-05,-3.71856,-0.527961,-0.111751,0.353099,
2,0,0,1,0,43616,0.334345,0.334013,-0.203113,66,0.794917,10,-6.78423e-05,-3.69226,-0.815549,-0.0723439,0.334102,
2,0,0,1,0,43619.8,0.315368,0.315023,-0.213004,66,0.794079,10,-6.71012e-05,-3.67161,-0.951432,-0.0620118,0.315116,
2,0,0,1,0,43623.6,0.296391,0.296125,-0.226456,66,0.793198,10,-6.70593e-05,-3.64502,-0.612103,-0.0963891,0.296225,
2,0,0,1,0,43627.4,0.277414,0.277076,-0.23653,66,0.79227,10,-6.55367e-05,-3.62611,-0.760701,-0.07756,0.27718,
2,0,0,1,0,43631.2,0.258437,0.258131,-0.24993,66,0.791296,10,-6.45147e-05,-3.60218,-1.03152,-0.0571973,0.258241,
2,0,0,1,0,43635,0.239461,0.239125,-0.260744,66,0.790277,10,-6.23506e-05,-3.58379,-0.792373,-0.0744599,0.23924,
2,0,0,0,0,43638.8,0.220483,0.220158,-0.272392,66,0.789215,10,-5.99691e-05,-3.56481,-0.631554,-0.0934204,0.220277,
2,0,0,1,0,43642.6,0.201506,0.201191,-0.285074,66,0.788104,10,-5.73544e-05,-3.54504,-0.608828,-0.0969075,0.201317,
2,0,0,0,0,43646.3,0.182529,0.18221,-0.304594,66,0.786932,10,-5.55e-05,-3.51628,-0.44342,-0.133057,0.182344,
2,0,0,1,0,43650.1,0.163552,0.163216,-0.336216,66,0.785667,10,-5.48758e-05,-3.47338,-0.340917,-0.173062,0.163364,
2,0,0,0,0,43653.9,0.144575,0.144246,-0.431173,66,0.784189,10,-6.21951e-05,-3.36535,-0.110915,-0.53194,0.144436,
2,0,0,1,0,43657.7,0.125598,0.125272,-0.644022,66,0.782089,10,-8.06782e-05,-3.1911,-0.178246,-0.331004,0.125556,
2,0,0,1,0,43661.5,0.10662,0.106286,-0.696831,66,0.779426,10,-7.40636e-05,-3.15687,3.91617,0.0150657,0.106593,
2,0,0,1,0,43665.3,0.0876433,0.0873118,-0.677104,66,0.776769,10,-5.91192e-05,-3.16934,9.23055,0.00639182,0.0876098,
2,0,0,1,0,43669.1,0.0686664,0.0683358,-0.623205,66,0.774254,10,-4.25872e-05,-3.20537,0.599099,0.0984812,0.06861,
2,0,0,1,0,43672.9,0.0496895,0.0493738,-0.577126,66,0.771909,10,-2.8495e-05,-3.23873,0.52897,0.111538,0.0496278,
2,0,0,1,0,43676.7,0.0307126,0.0303461,-0.530874,66,0.769746,10,-1.611e-05,-3.27501,0.656716,0.089841,0.0305797,
2,0,0,1,0,43680.5,0.0117356,0.0114358,-0.500319,66,0.767741,10,-5.72156e-06,-3.30075,1.32849,0.0444113,0.011656,
2,0,0,0,0,43682.8,0.000274105,-0.00013445,-0.501545,66,0.766561,10,6.74329e-08,-3.29969, , ,8.62295e-05,