File: Figure_codes/Fig_3-5/workspace_calculate_alpha_eff/20221101_1-115_003_TrumpetPlot_ParaChange_from10_every3_16_CV_C01_29.csv
mode,ox/red,error,control changes,counter inc.,time/s,control/V,Ewe/V,<I>/mA,cycle number,(Q-Qo)/C,I Range,P/W,log(|I|),Tafel slope mV/dec,alpha_eff,E-IR/V,
2,0,0,0,0,19701.3,2.44065e-05,-0.000382585,-0.098758,30,0.0000000E+000,10,3.77834e-08,-4.00543, , ,-0.000339132,
2,1,0,1,0,19705,0.0187763,0.0184614,0.218059,30,0.000717755,10,4.02567e-06,-3.66143,0.16622,0.354951,0.0183654,
2,1,0,1,0,19708.8,0.0377538,0.0374453,0.286044,30,0.00174006,10,1.0711e-05,-3.54357,0.187326,0.314959,0.0373194,
2,1,0,0,0,19712.6,0.0567309,0.0564404,0.350041,30,0.0030182,10,1.97564e-05,-3.45588,0.2606,0.2264,0.0562863,
2,1,0,1,0,19716.4,0.075708,0.0753919,0.399624,30,0.00451439,10,3.01285e-05,-3.39835,0.486825,0.121193,0.0752161,
2,1,0,0,0,19720.2,0.0946851,0.0944178,0.460193,30,0.00619519,10,4.34504e-05,-3.33706,0.208293,0.283255,0.0942153,
2,1,0,1,0,19724,0.113662,0.113365,0.564659,30,0.0082055,10,6.40126e-05,-3.24821,0.312891,0.188564,0.113117,
2,1,0,0,0,19727.8,0.132639,0.132324,0.625656,30,0.0105428,10,8.27894e-05,-3.20366,-1.33948,-0.0440471,0.132049,
2,1,0,1,0,19731.6,0.151617,0.151298,0.414465,30,0.0126712,10,6.2708e-05,-3.38251,-0.0713901,-0.826445,0.151116,
2,1,0,1,0,19735.4,0.170594,0.170296,0.29441,30,0.0140134,10,5.01369e-05,-3.53105,-0.216035,-0.273104,0.170167,
2,1,0,1,0,19739.2,0.189571,0.189249,0.265052,30,0.015125,10,5.01609e-05,-3.57667,-0.678127,-0.0870044,0.189133,
2,1,0,1,0,19743,0.208547,0.208224,0.251693,30,0.0161615,10,5.24084e-05,-3.59913,-1.46334,-0.0403189,0.208113,
2,1,0,1,0,19746.8,0.227524,0.227219,0.243372,30,0.0171578,10,5.52986e-05,-3.61373,-1.33392,-0.0442306,0.227111,
2,1,0,1,0,19750.6,0.246501,0.246171,0.238136,30,0.01813,10,5.86221e-05,-3.62318,-0.661193,-0.0892327,0.246066,
2,1,0,0,0,19754.4,0.265479,0.26521,0.234613,30,0.0190843,10,6.22216e-05,-3.62965,-1.64829,-0.0357947,0.265107,
2,1,0,1,0,19758.2,0.284456,0.284101,0.230134,30,0.0200212,10,6.53813e-05,-3.63802,-2.32508,-0.0253754,0.284,
2,1,0,0,0,19762,0.303433,0.303126,0.225724,30,0.0209419,10,6.84229e-05,-3.64642,-1.19069,-0.0495511,0.303027,
2,1,0,1,0,19765.8,0.32241,0.322094,0.222694,30,0.021848,10,7.17286e-05,-3.65229,-1.74371,-0.0338358,0.321996,
2,1,0,0,0,19769.6,0.341387,0.341102,0.220287,30,0.0227423,10,7.51404e-05,-3.65701,-4.7414,-0.0124436,0.341005,
2,1,0,1,0,19773.4,0.360364,0.360039,0.218935,30,0.0236268,10,7.88253e-05,-3.65968,-3.24339,-0.0181909,0.359943,
2,1,0,1,0,19777.2,0.379342,0.379049,0.216476,30,0.0245025,10,8.2055e-05,-3.66459,-0.958019,-0.0615854,0.378954,
2,1,0,1,0,19781,0.398319,0.398002,0.214665,30,0.0253702,10,8.54372e-05,-3.66824,1.19426,0.0494028,0.397907,
2,1,0,1,0,19784.7,0.417295,0.417001,0.214419,30,0.0262328,10,8.94128e-05,-3.66874,-25.7356,-0.00229255,0.416907,
2,1,0,1,0,19788.5,0.436272,0.435971,0.213684,30,0.0270923,10,9.31601e-05,-3.67023,9.77143,0.00603801,0.435877,
2,1,0,1,0,19792.3,0.455249,0.454899,0.21406,30,0.0279524,10,9.73759e-05,-3.66946,11.0721,0.0053287,0.454805,
2,1,0,1,0,19796.1,0.474226,0.473924,0.215564,30,0.028817,10,0.000102161,-3.66642,1.11702,0.0528189,0.473829,
2,1,0,1,0,19799.9,0.493203,0.492933,0.220533,30,0.0296909,10,0.000108708,-3.65653,1.37811,0.0428122,0.492836,
2,1,0,0,0,19803.7,0.512181,0.511899,0.224158,30,0.0305793,10,0.000114746,-3.64945,1.50759,0.0391352,0.5118,
2,1,0,1,0,19807.5,0.531158,0.530841,0.230614,30,0.0314881,10,0.000122419,-3.63711,0.957812,0.0615987,0.530739,
2,1,0,0,0,19811.3,0.550135,0.549847,0.241292,30,0.0324288,10,0.000132674,-3.61746,0.543136,0.108628,0.549741,
2,1,0,1,0,19815.1,0.569112,0.56881,0.257246,30,0.0334178,10,0.000146324,-3.58965,0.592999,0.0994943,0.568697,
2,1,0,0,0,19818.9,0.588089,0.587782,0.282334,30,0.0344817,10,0.000165951,-3.54924,0.3666,0.160938,0.587658,
2,1,0,1,0,19822.7,0.607066,0.606763,0.326476,30,0.0356718,10,0.000198093,-3.48615,0.245658,0.240171,0.606619,
2,1,0,1,0,19826.5,0.626044,0.625782,0.412534,30,0.0370994,10,0.000258156,-3.38454,0.143386,0.411478,0.6256,
2,1,0,1,0,19830.3,0.64502,0.644776,0.594151,30,0.0390132,10,0.000383094,-3.2261,0.0991071,0.595316,0.644515,
2,1,0,1,0,19834.1,0.663997,0.663699,0.984636,30,0.0419666,10,0.000653502,-3.00672,0.0794901,0.742231,0.663266,
2,1,0,1,0,19837.9,0.682974,0.682675,1.7607,30,0.0470671,10,0.00120199,-2.75431,0.071969,0.819797,0.681901,
2,1,0,1,0,19841.7,0.701951,0.701684,3.09984,30,0.0561391,10,0.00217511,-2.50866,0.0782679,0.753822,0.70032,
2,1,0,1,0,19845.5,0.720928,0.720609,5.08331,30,0.07151,10,0.00366308,-2.29385,0.0920713,0.640807,0.718372,
2,1,0,1,0,19849.3,0.739905,0.73966,7.69238,30,0.0956083,10,0.00568975,-2.11394,0.107962,0.546488,0.736275,
2,1,0,0,0,19853.1,0.758883,0.758608,10.9407,30,0.130793,10,0.00829972,-1.96095,0.12004,0.491502,0.753794,
2,1,0,1,0,19856.9,0.77786,0.777629,14.9815,30,0.179719,10,0.01165,-1.82445,0.125292,0.470899,0.771037,
2,1,0,0,0,19860.7,0.796837,0.796586,20.3854,30,0.246436,10,0.0162387,-1.69068,0.125012,0.471954,0.787617,
2,1,0,1,0,19864.5,0.815814,0.815579,26.8702,30,0.336095,10,0.0219148,-1.57073,0.153857,0.383474,0.803756,
2,1,0,0,0,19868.2,0.834791,0.83452,34.2385,30,0.4521,10,0.0285727,-1.46549,0.162509,0.363056,0.819455,
2,1,0,0,0,19871.9,0.846727,0.846519,38.0918,30,0.590867,10,0.0322454,-1.41917,0.139749,0.422185,0.829758,
2,1,0,1,0,19875.7,0.827749,0.827486,29.641,30,0.718894,10,0.0245275,-1.52811,0.136059,0.433635,0.814444,
2,1,0,1,0,19879.5,0.808772,0.808503,22.3022,30,0.817008,10,0.0180314,-1.65165,0.126429,0.466665,0.79869,
2,1,0,1,0,19883.3,0.789795,0.789535,16.3695,30,0.889966,10,0.0129243,-1.78596,0.112351,0.52514,0.782333,
2,1,0,1,0,19887.1,0.770818,0.770517,11.494,30,0.942415,10,0.00885632,-1.93953,0.10715,0.550628,0.76546,
2,1,0,1,0,19890.9,0.751841,0.75156,7.78224,30,0.978595,10,0.00584882,-2.1089,0.109828,0.537205,0.748136,
2,1,0,1,0,19894.7,0.732865,0.732573,5.01465,30,1.00267,10,0.0036736,-2.29976,0.085359,0.691198,0.730366,
2,1,0,0,0,19898.5,0.713887,0.713647,2.97532,30,1.01755,10,0.00212333,-2.52647,0.0693858,0.850319,0.712338,
2,1,0,1,0,19902.3,0.69491,0.69462,1.5888,30,1.02594,10,0.00110361,-2.79893,0.0621597,0.949168,0.69392,
2,1,0,0,0,19906.1,0.675933,0.675639,0.743729,30,1.03019,10,0.000502493,-3.12858,0.0503004,1.17295,0.675312,
2,1,0,1,0,19909.9,0.656956,0.656635,0.28691,30,1.032,10,0.000188395,-3.54225,0.0372981,1.58185,0.656508,
2,1,0,0,0,19913.7,0.637979,0.637693,0.0622037,30,1.03256,10,3.96668e-05,-4.20618,0.0172288,3.4245,0.637665,
2,0,0,1,0,19917.5,0.619002,0.618706,-0.0365137,30,1.03253,10,-2.25913e-05,-4.43754,-0.0246387,-2.3946,0.618722,
2,0,0,0,0,19921.3,0.600025,0.599753,-0.0798777,30,1.03226,10,-4.79069e-05,-4.09757,-0.135362,-0.435867,0.599789,
2,0,0,1,0,19925.1,0.581047,0.580773,-0.100379,30,1.03186,10,-5.82974e-05,-3.99836,-0.620588,-0.0950712,0.580817,
2,0,0,1,0,19928.9,0.56207,0.561726,-0.109724,30,1.03142,10,-6.16351e-05,-3.9597,-1.32193,-0.0446318,0.561774,
2,0,0,1,0,19932.7,0.543093,0.542798,-0.115905,30,1.03095,10,-6.29127e-05,-3.9359,-1.15376,-0.0511372,0.542849,
2,0,0,1,0,19936.5,0.524116,0.523819,-0.120874,30,1.03045,10,-6.33161e-05,-3.91767,-0.72065,-0.0818705,0.523872,
2,0,0,1,0,19940.3,0.505139,0.504864,-0.125863,30,1.02994,10,-6.35439e-05,-3.9001,-0.693037,-0.0851326,0.504919,
2,0,0,1,0,19944.1,0.486162,0.485854,-0.130384,30,1.02941,10,-6.33475e-05,-3.88478,-1.24418,-0.0474209,0.485912,
2,0,0,1,0,19947.9,0.467185,0.466871,-0.137071,30,1.02886,10,-6.39943e-05,-3.86306,-0.970964,-0.0607643,0.466932,
2,0,0,1,0,19951.6,0.448208,0.44793,-0.14367,30,1.02828,10,-6.43543e-05,-3.84263,-0.710744,-0.0830116,0.447993,
2,0,0,0,0,19955.4,0.429231,0.428953,-0.150696,30,1.02767,10,-6.46415e-05,-3.8219,-6.71482,-0.00878654,0.429019,
2,0,0,1,0,19959.2,0.410254,0.409913,-0.159863,30,1.02704,10,-6.55298e-05,-3.79625,-0.754061,-0.078243,0.409983,
2,0,0,0,0,19963,0.391277,0.390992,-0.168995,30,1.02636,10,-6.60759e-05,-3.77213,-1.24245,-0.0474867,0.391067,
2,0,0,1,0,19966.8,0.3723,0.371983,-0.178599,30,1.02565,10,-6.64357e-05,-3.74812,-0.921721,-0.0640107,0.372062,
2,0,0,1,0,19970.6,0.353322,0.35303,-0.188676,30,1.0249,10,-6.66084e-05,-3.72428,-0.756277,-0.0780138,0.353113,
2,0,0,1,0,19974.4,0.334345,0.334031,-0.200465,30,1.02411,10,-6.69614e-05,-3.69796,-0.618253,-0.0954302,0.334119,
2,0,0,1,0,19978.2,0.315368,0.315009,-0.212271,30,1.02328,10,-6.68674e-05,-3.67311,-1.38511,-0.0425959,0.315102,
2,0,0,1,0,19982,0.296391,0.296061,-0.224926,30,1.0224,10,-6.6592e-05,-3.64796,-0.891173,-0.0662048,0.29616,
2,0,0,1,0,19985.8,0.277414,0.277098,-0.235295,30,1.02147,10,-6.51999e-05,-3.62839,-0.693047,-0.0851313,0.277202,
2,0,0,1,0,19989.6,0.258437,0.258085,-0.247639,30,1.0205,10,-6.3912e-05,-3.60618,-0.898582,-0.065659,0.258194,
2,0,0,1,0,19993.4,0.239461,0.239163,-0.259019,30,1.01948,10,-6.19478e-05,-3.58667,-0.867175,-0.068037,0.239277,
2,0,0,0,0,19997.2,0.220483,0.220187,-0.270319,30,1.01842,10,-5.95208e-05,-3.56812,-0.617894,-0.0954856,0.220306,
2,0,0,1,0,20001,0.201506,0.201186,-0.285691,30,1.01731,10,-5.7477e-05,-3.5441,-0.430168,-0.137156,0.201312,
2,0,0,0,0,20004.8,0.182529,0.182207,-0.305991,30,1.01614,10,-5.57536e-05,-3.51429,-0.413223,-0.14278,0.182341,
2,0,0,1,0,20008.6,0.163552,0.16323,-0.347201,30,1.01485,10,-5.66734e-05,-3.45942,-0.240628,-0.245192,0.163382,
2,0,0,0,0,20012.4,0.144575,0.144242,-0.472755,30,1.01329,10,-6.81911e-05,-3.32536,-0.0912526,-0.646557,0.14445,
2,0,0,1,0,20016.2,0.125598,0.125295,-0.714764,30,1.01094,10,-8.95561e-05,-3.14584,-0.2215,-0.266365,0.125609,
2,0,0,1,0,20020,0.10662,0.106291,-0.735633,30,1.00807,10,-7.8191e-05,-3.13334,1.11258,0.0530299,0.106614,
2,0,0,1,0,20023.8,0.0876433,0.0873437,-0.68182,30,1.00531,10,-5.95526e-05,-3.16633,0.492473,0.119804,0.0876437,
2,0,0,1,0,20027.6,0.0686664,0.0683381,-0.633137,30,1.00276,10,-4.32674e-05,-3.1985,0.801263,0.0736338,0.0686166,
2,0,0,1,0,20031.4,0.0496895,0.04934,-0.588531,30,1.00038,10,-2.90381e-05,-3.23023,0.539394,0.109382,0.0495989,
2,0,0,1,0,20035.1,0.0307126,0.0303863,-0.537934,30,0.998171,10,-1.63458e-05,-3.26927,0.539979,0.109263,0.030623,
2,0,0,1,0,20038.9,0.0117356,0.0114222,-0.50343,30,0.99614,10,-5.75028e-06,-3.29806,0.922288,0.0639713,0.0116437,
2,0,0,0,0,20041.2,0.000274105,-9.03109e-05,-0.501905,30,0.994954,10,4.53275e-08,-3.29938, , ,0.000130527,