File: Figure_codes/Fig_3-5/workspace_calculate_alpha_eff/20221101_1-115_003_TrumpetPlot_ParaChange_from10_every3_16_CV_C01_2.csv
mode,ox/red,error,control changes,counter inc.,time/s,control/V,Ewe/V,<I>/mA,cycle number,(Q-Qo)/C,I Range,P/W,log(|I|),Tafel slope mV/dec,alpha_eff,E-IR/V,
2,0,0,0,0,1970.12,2.44065e-05,-0.000401673,-0.110843,3,0.0000000E+000,10,4.45225e-08,-3.95529, , ,-0.000352902,
2,1,0,1,0,1973.87,0.0187763,0.0184317,0.207231,3,0.000728563,10,3.81962e-06,-3.68354,0.175638,0.335918,0.0183405,
2,1,0,1,0,1977.67,0.0377538,0.0374601,0.263509,3,0.00169842,10,9.87109e-06,-3.5792,0.156923,0.37598,0.0373442,
2,1,0,0,0,1981.46,0.0567309,0.0564276,0.340744,3,0.00292844,10,1.92274e-05,-3.46757,0.221219,0.266704,0.0562777,
2,1,0,1,0,1985.26,0.075708,0.0753962,0.413383,3,0.00444881,10,3.11675e-05,-3.38365,0.368086,0.160288,0.0752143,
2,1,0,0,0,1989.05,0.094685,0.0943711,0.481936,3,0.00621579,10,4.54808e-05,-3.31701,0.234816,0.251261,0.094159,
2,1,0,1,0,1992.85,0.113662,0.113384,0.611735,3,0.00834649,10,6.93611e-05,-3.21344,0.185736,0.317655,0.113115,
2,1,0,0,0,1996.64,0.132639,0.132373,0.730325,3,0.0109832,10,9.66752e-05,-3.13648,0.494894,0.119218,0.132052,
2,1,0,1,0,2000.44,0.151617,0.151286,0.568911,3,0.0136782,10,8.60679e-05,-3.24496,-0.0689718,-0.855422,0.151035,
2,1,0,1,0,2004.23,0.170594,0.17026,0.338833,3,0.015388,10,5.76898e-05,-3.47001,-0.128419,-0.459435,0.170111,
2,1,0,1,0,2008.03,0.189571,0.189285,0.276185,3,0.0166106,10,5.22777e-05,-3.5588,-0.384351,-0.153505,0.189163,
2,1,0,1,0,2011.82,0.208547,0.208255,0.253941,3,0.0176913,10,5.28846e-05,-3.59527,-0.689525,-0.0855661,0.208144,
2,1,0,1,0,2015.62,0.227524,0.227238,0.243433,3,0.0187078,10,5.53172e-05,-3.61362,-0.964716,-0.0611579,0.227131,
2,1,0,1,0,2019.42,0.246501,0.246224,0.235577,3,0.0196892,10,5.80048e-05,-3.62787,-0.616963,-0.0956297,0.24612,
2,1,0,0,0,2023.21,0.265479,0.265193,0.232475,3,0.0206493,10,6.16507e-05,-3.63362,-1.17277,-0.0503084,0.265091,
2,1,0,1,0,2027.01,0.284456,0.284148,0.227068,3,0.0215917,10,6.4521e-05,-3.64384,16.9121,0.00348862,0.284048,
2,1,0,0,0,2030.8,0.303433,0.303156,0.222915,3,0.0225172,10,6.7578e-05,-3.65186,-5.91433,-0.00997577,0.303057,
2,1,0,1,0,2034.6,0.32241,0.322162,0.218059,3,0.023427,10,7.02505e-05,-3.66143,-1.7514,-0.0336873,0.322066,
2,1,0,0,0,2038.39,0.341387,0.341081,0.216422,3,0.0243236,10,7.38175e-05,-3.6647,-1.39766,-0.0422134,0.340986,
2,1,0,1,0,2042.19,0.360364,0.360115,0.214127,3,0.0252092,10,7.71104e-05,-3.66933,-14.6252,-0.00403414,0.360021,
2,1,0,1,0,2045.98,0.379342,0.379074,0.211342,3,0.0260854,10,8.01142e-05,-3.67501,-2.30565,-0.0255893,0.378981,
2,1,0,1,0,2049.78,0.398318,0.398012,0.209884,3,0.0269533,10,8.35364e-05,-3.67802,4.89592,0.0120509,0.39792,
2,1,0,1,0,2053.57,0.417295,0.417024,0.209623,3,0.0278173,10,8.74177e-05,-3.67856,1.50652,0.0391631,0.416932,
2,1,0,1,0,2057.37,0.436272,0.436011,0.208738,3,0.0286792,10,9.10121e-05,-3.6804,3.40915,0.0173064,0.435919,
2,1,0,1,0,2061.17,0.455249,0.455009,0.21012,3,0.0295406,10,9.56065e-05,-3.67753,-6.43127,-0.00917392,0.454916,
2,1,0,1,0,2064.96,0.474226,0.473979,0.21121,3,0.0304071,10,0.000100109,-3.67529,1.06935,0.0551739,0.473886,
2,1,0,1,0,2068.76,0.493203,0.492966,0.217308,3,0.0312866,10,0.000107126,-3.66292,0.967947,0.0609538,0.49287,
2,1,0,0,0,2072.55,0.512181,0.511886,0.221857,3,0.0321839,10,0.000113565,-3.65393,0.961763,0.0613457,0.511788,
2,1,0,1,0,2076.35,0.531158,0.530869,0.229551,3,0.0331058,10,0.000121861,-3.63912,0.740615,0.0796635,0.530768,
2,1,0,0,0,2080.14,0.550135,0.549844,0.242822,3,0.0340666,10,0.000133514,-3.61471,0.50373,0.117126,0.549737,
2,1,0,1,0,2083.94,0.569112,0.568848,0.264378,3,0.0350917,10,0.000150391,-3.57777,0.353255,0.167018,0.568732,
2,1,0,0,0,2087.73,0.588089,0.587829,0.302806,3,0.0362272,10,0.000177998,-3.51884,0.259102,0.227709,0.587696,
2,1,0,1,0,2091.53,0.607066,0.606787,0.375141,3,0.0375623,10,0.000227631,-3.42581,0.157148,0.375442,0.606622,
2,1,0,1,0,2095.32,0.626043,0.625769,0.526821,3,0.0393052,10,0.000329668,-3.27834,0.107006,0.55137,0.625537,
2,1,0,1,0,2099.12,0.64502,0.64473,0.864823,3,0.0419276,10,0.000557577,-3.06307,0.0761832,0.774449,0.644349,
2,1,0,1,0,2102.91,0.663997,0.663721,1.62092,3,0.0465305,10,0.00107584,-2.79024,0.0637595,0.925353,0.663008,
2,1,0,1,0,2106.71,0.682974,0.682721,3.17097,3,0.0553854,10,0.00216489,-2.49881,0.0637192,0.925937,0.681325,
2,1,0,1,0,2110.51,0.701951,0.701675,5.84159,3,0.072187,10,0.0040989,-2.23347,0.0722657,0.816432,0.699105,
2,1,0,1,0,2114.3,0.720928,0.720664,9.60045,3,0.10126,10,0.0069187,-2.01771,0.0914658,0.64505,0.716439,
2,1,0,1,0,2118.1,0.739905,0.739669,14.2122,3,0.146252,10,0.0105123,-1.84734,0.10762,0.548225,0.733416,
2,1,0,0,0,2121.89,0.758883,0.758613,19.9627,3,0.210713,10,0.015144,-1.69978,0.115565,0.510536,0.749829,
2,1,0,1,0,2125.69,0.77786,0.777581,27.1225,3,0.299692,10,0.0210899,-1.56667,0.127751,0.461836,0.765648,
2,1,0,0,0,2129.48,0.796837,0.796571,34.4592,3,0.416377,10,0.0274492,-1.46269,0.144958,0.407014,0.781409,
2,1,0,1,0,2133.28,0.815814,0.815569,42.5133,3,0.562891,10,0.0346726,-1.37147,0.192425,0.306612,0.796863,
2,1,0,0,0,2137.07,0.834791,0.834577,47.5513,3,0.735611,10,0.0396852,-1.32284,0.238265,0.247623,0.813655,
2,1,0,0,0,2140.77,0.846726,0.846508,51.2933,3,0.92356,10,0.0434202,-1.28994,0.204857,0.288006,0.823939,
2,1,0,1,0,2144.56,0.827749,0.827531,43.235,3,1.10281,10,0.0357783,-1.36416,0.183572,0.321399,0.808508,
2,1,0,1,0,2148.36,0.808772,0.808489,35.2452,3,1.25192,10,0.0284954,-1.4529,0.152866,0.385959,0.792981,
2,1,0,1,0,2152.16,0.789795,0.789569,27.3291,3,1.37062,10,0.0215783,-1.56337,0.12305,0.47948,0.777544,
2,1,0,1,0,2155.95,0.770818,0.770528,20.1676,3,1.46049,10,0.0155397,-1.69535,0.110692,0.533009,0.761654,
2,1,0,1,0,2159.75,0.751841,0.751581,13.9682,3,1.52486,10,0.0104982,-1.85486,0.0942809,0.62579,0.745435,
2,1,0,1,0,2163.54,0.732865,0.732605,9.02085,3,1.56798,10,0.00660871,-2.04475,0.0971523,0.607294,0.728635,
2,1,0,0,0,2167.34,0.713887,0.713633,5.64599,3,1.59589,10,0.00402916,-2.24826,0.0700397,0.84238,0.711148,
2,1,0,1,0,2171.13,0.69491,0.694657,3.00872,3,1.61187,10,0.00209002,-2.52162,0.0604524,0.975974,0.693333,
2,1,0,0,0,2174.93,0.675933,0.675667,1.41863,3,1.61992,10,0.000958519,-2.84813,0.0515342,1.14487,0.675043,
2,1,0,1,0,2178.72,0.656956,0.656708,0.579189,3,1.62345,10,0.000380358,-3.23718,0.0446757,1.32063,0.656453,
2,1,0,0,0,2182.52,0.637979,0.637719,0.190635,3,1.62474,10,0.000121572,-3.7198,0.0329628,1.7899,0.637635,
2,1,0,1,0,2186.31,0.619002,0.618729,0.0209397,3,1.62503,10,1.2956e-05,-4.67903,0.00741281,7.9592,0.61872,
2,0,0,0,0,2190.11,0.600024,0.59975,-0.0506328,3,1.62489,10,-3.0367e-05,-4.29557,-0.0517181,-1.1408,0.599772,
2,0,0,1,0,2193.91,0.581047,0.580768,-0.0828433,3,1.62456,10,-4.81128e-05,-4.08174,-0.149668,-0.394207,0.580805,
2,0,0,1,0,2197.7,0.56207,0.561733,-0.0997477,3,1.62414,10,-5.60316e-05,-4.0011,-0.354065,-0.166636,0.561777,
2,0,0,1,0,2201.5,0.543093,0.54279,-0.108443,3,1.62368,10,-5.88619e-05,-3.9648,-0.38299,-0.154051,0.542838,
2,0,0,1,0,2205.29,0.524116,0.52386,-0.114393,3,1.6232,10,-5.99262e-05,-3.9416,-0.447536,-0.131833,0.52391,
2,0,0,1,0,2209.09,0.505139,0.504884,-0.118272,3,1.62269,10,-5.97135e-05,-3.92712,-2.16244,-0.027284,0.504936,
2,0,0,1,0,2212.88,0.486162,0.48587,-0.123854,3,1.62217,10,-6.01769e-05,-3.90709,-1.36873,-0.0431057,0.485925,
2,0,0,1,0,2216.68,0.467185,0.466873,-0.130266,3,1.62162,10,-6.08178e-05,-3.88517,-0.644788,-0.0915029,0.466931,
2,0,0,1,0,2220.47,0.448208,0.447893,-0.13711,3,1.62105,10,-6.14105e-05,-3.86293,-1.17076,-0.0503944,0.447953,
2,0,0,0,0,2224.27,0.429231,0.428967,-0.143704,3,1.62045,10,-6.16445e-05,-3.84253,-2.41179,-0.0244632,0.429031,
2,0,0,1,0,2228.06,0.410254,0.409979,-0.15375,3,1.61981,10,-6.30341e-05,-3.81319,-1.64312,-0.0359072,0.410046,
2,0,0,0,0,2231.86,0.391277,0.390988,-0.163691,3,1.61914,10,-6.40011e-05,-3.78598,-0.754527,-0.0781947,0.39106,
2,0,0,1,0,2235.65,0.3723,0.372011,-0.173114,3,1.61844,10,-6.44003e-05,-3.76167,-0.938652,-0.0628561,0.372087,
2,0,0,1,0,2239.45,0.353322,0.353027,-0.184917,3,1.61769,10,-6.52806e-05,-3.73302,-0.8291,-0.0711615,0.353109,
2,0,0,1,0,2243.25,0.334345,0.334053,-0.194976,3,1.6169,10,-6.51324e-05,-3.71002,-0.536142,-0.110045,0.334139,
2,0,0,1,0,2247.04,0.315368,0.315054,-0.206576,3,1.61606,10,-6.50827e-05,-3.68492,-1.04999,-0.056191,0.315145,
2,0,0,1,0,2250.84,0.296391,0.296102,-0.220069,3,1.61518,10,-6.51629e-05,-3.65744,-0.823622,-0.0716348,0.296198,
2,0,0,1,0,2254.63,0.277414,0.277098,-0.232796,3,1.61425,10,-6.45074e-05,-3.63302,-1.1901,-0.0495756,0.277201,
2,0,0,1,0,2258.43,0.258437,0.258113,-0.244486,3,1.61327,10,-6.3105e-05,-3.61175,-1.13405,-0.0520261,0.25822,
2,0,0,1,0,2262.22,0.239461,0.239129,-0.257032,3,1.61225,10,-6.14636e-05,-3.59001,-1.48029,-0.0398569,0.239242,
2,0,0,0,0,2266.02,0.220483,0.220196,-0.269191,3,1.61118,10,-5.92747e-05,-3.56994,-0.489463,-0.12054,0.220314,
2,0,0,1,0,2269.81,0.201506,0.201208,-0.287646,3,1.61005,10,-5.78767e-05,-3.54114,-0.365191,-0.161559,0.201335,
2,0,0,0,0,2273.61,0.182529,0.182269,-0.319445,3,1.60883,10,-5.8225e-05,-3.4956,-0.258448,-0.228285,0.18241,
2,0,0,1,0,2277.4,0.163552,0.163273,-0.393606,3,1.60743,10,-6.42653e-05,-3.40494,-0.137607,-0.428758,0.163446,
2,0,0,0,0,2281.2,0.144575,0.144271,-0.640208,3,1.60547,10,-9.23632e-05,-3.19368,-0.0779166,-0.75722,0.144552,
2,0,0,1,0,2285,0.125598,0.125298,-0.85699,3,1.60243,10,-0.000107379,-3.06702,-1.89327,-0.031163,0.125675,
2,0,0,1,0,2288.79,0.10662,0.10628,-0.787692,3,1.5992,10,-8.37161e-05,-3.10364,0.335705,0.175749,0.106627,
2,0,0,1,0,2292.59,0.0876433,0.0873274,-0.688502,3,1.59634,10,-6.01251e-05,-3.16209,0.47236,0.124905,0.0876303,
2,0,0,1,0,2296.38,0.0686664,0.0683622,-0.634373,3,1.59376,10,-4.33671e-05,-3.19766,0.58401,0.101026,0.0686413,
2,0,0,1,0,2300.18,0.0496895,0.0493655,-0.571978,3,1.59138,10,-2.8236e-05,-3.24262,0.38504,0.153231,0.0496171,
2,0,0,1,0,2303.97,0.0307126,0.0304435,-0.511465,3,1.58925,10,-1.55708e-05,-3.29118,0.584956,0.100862,0.0306686,
2,0,0,1,0,2307.77,0.0117356,0.0114116,-0.485659,3,1.58729,10,-5.54214e-06,-3.31367,13.3016,0.00443557,0.0116253,
2,0,0,0,0,2310.06,0.000274105,-0.00011417,-0.493881,3,1.58612,10,5.63864e-08,-3.30638, , ,0.000103138,