File: Figure_codes/Fig_3-5/workspace_calculate_alpha_eff/20221101_1-115_003_TrumpetPlot_ParaChange_from10_every3_16_CV_C01_37.csv
mode,ox/red,error,control changes,counter inc.,time/s,control/V,Ewe/V,<I>/mA,cycle number,(Q-Qo)/C,I Range,P/W,log(|I|),Tafel slope mV/dec,alpha_eff,E-IR/V,
2,0,0,0,0,25241.7,2.44065e-05,-0.000344411,-0.0898536,38,0.0000000E+000,10,3.09465e-08,-4.04646, , ,-0.000304875,
2,1,0,1,0,25245.4,0.0187763,0.0184404,0.221755,38,0.000741933,10,4.08926e-06,-3.65413,0.14584,0.404552,0.0183428,
2,1,0,1,0,25249.2,0.0377538,0.0374188,0.290498,38,0.00178766,10,1.08701e-05,-3.53686,0.187295,0.315011,0.037291,
2,1,0,0,0,25253,0.0567309,0.056399,0.353621,38,0.00308906,10,1.99439e-05,-3.45146,0.295311,0.19979,0.0562434,
2,1,0,1,0,25256.8,0.075708,0.0753845,0.401404,38,0.00460334,10,3.02597e-05,-3.39642,0.449114,0.13137,0.0752079,
2,1,0,0,0,25260.6,0.0946851,0.0943488,0.458616,38,0.00629298,10,4.32699e-05,-3.33855,0.234054,0.252079,0.094147,
2,1,0,1,0,25264.4,0.113662,0.113334,0.561191,38,0.00830342,10,6.36022e-05,-3.25089,0.319383,0.184731,0.113087,
2,1,0,0,0,25268.2,0.132639,0.132293,0.615094,38,0.0106237,10,8.13728e-05,-3.21106,-0.846353,-0.0697108,0.132023,
2,1,0,1,0,25272,0.151617,0.151318,0.405914,38,0.0127136,10,6.14223e-05,-3.39157,-0.0729478,-0.808798,0.15114,
2,1,0,1,0,25275.8,0.170594,0.170289,0.293927,38,0.0140484,10,5.00526e-05,-3.53176,-0.262367,-0.224876,0.17016,
2,1,0,1,0,25279.6,0.189571,0.189221,0.269394,38,0.0151752,10,5.09752e-05,-3.56961,-0.727716,-0.0810756,0.189103,
2,1,0,1,0,25283.4,0.208547,0.208229,0.257813,38,0.0162386,10,5.36842e-05,-3.58869,-2.67287,-0.0220737,0.208116,
2,1,0,1,0,25287.2,0.227524,0.227205,0.250065,38,0.0172644,10,5.6816e-05,-3.60195,-1.21768,-0.0484526,0.227095,
2,1,0,1,0,25291,0.246501,0.24624,0.244656,38,0.0182664,10,6.02441e-05,-3.61144,-1.59631,-0.0369602,0.246132,
2,1,0,0,0,25294.8,0.265479,0.26517,0.240381,38,0.0192505,10,6.37417e-05,-3.6191,-0.962612,-0.0612916,0.265064,
2,1,0,1,0,25298.6,0.284456,0.284113,0.236588,38,0.0202187,10,6.72178e-05,-3.62601,-12.8132,-0.00460462,0.284009,
2,1,0,0,0,25302.4,0.303433,0.303135,0.231876,38,0.0211697,10,7.02897e-05,-3.63475,-2.17742,-0.0270963,0.303033,
2,1,0,1,0,25306.2,0.32241,0.322055,0.229175,38,0.0221052,10,7.38071e-05,-3.63983,-1.9844,-0.0297318,0.321954,
2,1,0,0,0,25310,0.341387,0.341069,0.226753,38,0.0230286,10,7.73386e-05,-3.64445,12.8655,0.0045859,0.34097,
2,1,0,1,0,25313.8,0.360364,0.360046,0.225729,38,0.0239408,10,8.12728e-05,-3.64641,-3.1536,-0.0187088,0.359947,
2,1,0,1,0,25317.5,0.379342,0.379029,0.222215,38,0.024843,10,8.42262e-05,-3.65323,-5.95948,-0.0099002,0.378931,
2,1,0,1,0,25321.3,0.398319,0.397992,0.220164,38,0.0257376,10,8.76235e-05,-3.65725,-2.20028,-0.0268147,0.397895,
2,1,0,1,0,25325.1,0.417295,0.417033,0.219949,38,0.0266273,10,9.1726e-05,-3.65768,12.7984,0.00460996,0.416936,
2,1,0,1,0,25328.9,0.436272,0.435953,0.220664,38,0.0275144,10,9.61993e-05,-3.65627,16.4733,0.00358154,0.435856,
2,1,0,1,0,25332.7,0.455249,0.454969,0.22066,38,0.0283996,10,0.000100393,-3.65628,4.20791,0.0140212,0.454871,
2,1,0,1,0,25336.5,0.474226,0.473904,0.221385,38,0.0292879,10,0.000104915,-3.65485,1.61889,0.0364448,0.473807,
2,1,0,1,0,25340.3,0.493203,0.49293,0.225207,38,0.0301848,10,0.000111011,-3.64742,0.8016,0.0736028,0.49283,
2,1,0,0,0,25344.1,0.512181,0.511891,0.229302,38,0.0310956,10,0.000117378,-3.63959,1.70359,0.0346327,0.51179,
2,1,0,1,0,25347.9,0.531158,0.530816,0.235723,38,0.0320251,10,0.000125125,-3.6276,2.10707,0.028001,0.530713,
2,1,0,0,0,25351.7,0.550135,0.549851,0.244665,38,0.0329826,10,0.000134529,-3.61143,0.729997,0.0808223,0.549743,
2,1,0,1,0,25355.5,0.569112,0.568841,0.260123,38,0.0339855,10,0.000147969,-3.58482,0.594256,0.0992838,0.568727,
2,1,0,0,0,25359.3,0.588089,0.587803,0.284046,38,0.0350589,10,0.000166963,-3.54661,0.412982,0.142863,0.587678,
2,1,0,1,0,25363.1,0.607066,0.606752,0.324174,38,0.0362508,10,0.000196693,-3.48922,0.258,0.228682,0.60661,
2,1,0,1,0,25366.9,0.626044,0.625768,0.405369,38,0.037662,10,0.000253667,-3.39215,0.159435,0.370057,0.625589,
2,1,0,1,0,25370.7,0.64502,0.644743,0.570593,38,0.0395208,10,0.000367886,-3.24367,0.105719,0.558086,0.644492,
2,1,0,1,0,25374.5,0.663997,0.663718,0.92539,38,0.0423249,10,0.000614198,-3.03368,0.0793018,0.743994,0.663311,
2,1,0,1,0,25378.3,0.682974,0.682721,1.63288,38,0.0470861,10,0.0011148,-2.78705,0.0725892,0.812793,0.682002,
2,1,0,1,0,25382.1,0.701951,0.70169,2.87136,38,0.0554939,10,0.0020148,-2.54191,0.0778305,0.758058,0.700427,
2,1,0,1,0,25385.9,0.720928,0.72064,4.72675,38,0.0697589,10,0.00340629,-2.32544,0.0891725,0.661639,0.718561,
2,1,0,1,0,25389.7,0.739905,0.739629,7.21614,38,0.0922719,10,0.00533727,-2.14169,0.103847,0.568143,0.736454,
2,1,0,0,0,25393.5,0.758883,0.758611,10.3675,38,0.125464,10,0.00786489,-1.98433,0.1178,0.50085,0.754049,
2,1,0,1,0,25397.3,0.77786,0.777555,14.4663,38,0.172258,10,0.0112484,-1.83964,0.116616,0.505934,0.77119,
2,1,0,0,0,25401,0.796837,0.796533,20.034,38,0.237261,10,0.0159577,-1.69823,0.117567,0.501842,0.787718,
2,1,0,1,0,25404.8,0.815814,0.815532,26.9939,38,0.326311,10,0.0220144,-1.56873,0.136402,0.432546,0.803655,
2,1,0,0,0,25408.6,0.834791,0.834555,34.8084,38,0.443616,10,0.0290495,-1.45832,0.156156,0.377826,0.819239,
2,1,0,0,0,25412.3,0.846727,0.846477,38.9025,38,0.585153,10,0.0329301,-1.41002,0.142749,0.413314,0.82936,
2,1,0,1,0,25416.1,0.827749,0.827475,29.7801,38,0.714911,10,0.0246423,-1.52607,0.129447,0.455785,0.814372,
2,1,0,1,0,25419.9,0.808772,0.808525,21.9485,38,0.812826,10,0.0177459,-1.6586,0.105512,0.559179,0.798867,
2,1,0,1,0,25423.7,0.789795,0.789519,15.0949,38,0.88336,10,0.0119177,-1.82117,0.120795,0.488429,0.782878,
2,1,0,1,0,25427.5,0.770818,0.770563,10.6514,38,0.931875,10,0.00820758,-1.97259,0.110251,0.535142,0.765876,
2,1,0,1,0,25431.3,0.751841,0.751555,7.2845,38,0.965542,10,0.00547471,-2.1376,0.0995721,0.592536,0.74835,
2,1,0,1,0,25435.1,0.732865,0.732549,4.69697,38,0.987996,10,0.00344076,-2.32818,0.0876428,0.673187,0.730482,
2,1,0,0,0,25438.9,0.713887,0.713607,2.81651,38,1.00201,10,0.00200988,-2.55029,0.0746564,0.790287,0.712368,
2,1,0,1,0,25442.7,0.69491,0.694632,1.52485,38,1.01003,10,0.00105921,-2.81677,0.0617909,0.954834,0.693961,
2,1,0,0,0,25446.5,0.675933,0.675651,0.718167,38,1.01411,10,0.000485231,-3.14377,0.0507264,1.1631,0.675335,
2,1,0,1,0,25450.3,0.656956,0.656666,0.281948,38,1.01586,10,0.000185146,-3.54983,0.0406385,1.45183,0.656542,
2,1,0,0,0,25454.1,0.637979,0.637708,0.0597994,38,1.0164,10,3.81346e-05,-4.2233,0.0180137,3.27528,0.637681,
2,0,0,1,0,25457.9,0.619002,0.618705,-0.0353447,38,1.01637,10,-2.1868e-05,-4.45168,-0.0270153,-2.18395,0.618721,
2,0,0,0,0,25461.7,0.600025,0.599674,-0.0763675,38,1.0161,10,-4.57956e-05,-4.11709,-0.13683,-0.431191,0.599708,
2,0,0,1,0,25465.5,0.581047,0.580726,-0.0963117,38,1.01573,10,-5.59308e-05,-4.01632,-0.242644,-0.243155,0.580769,
2,0,0,1,0,25469.3,0.56207,0.561748,-0.106786,38,1.0153,10,-5.99867e-05,-3.97149,-0.541884,-0.108879,0.561795,
2,0,0,1,0,25473.1,0.543093,0.542785,-0.111877,38,1.01484,10,-6.07252e-05,-3.95126,-0.477365,-0.123595,0.542834,
2,0,0,1,0,25476.9,0.524116,0.523833,-0.1174,38,1.01436,10,-6.14979e-05,-3.93033,-3.56869,-0.0165327,0.523884,
2,0,0,1,0,25480.7,0.505139,0.50485,-0.121391,38,1.01386,10,-6.12843e-05,-3.91581,-1.52008,-0.0388138,0.504904,
2,0,0,1,0,25484.4,0.486162,0.485864,-0.126958,38,1.01334,10,-6.16843e-05,-3.89634,2.80109,0.0210632,0.48592,
2,0,0,1,0,25488.2,0.467185,0.466885,-0.132751,38,1.01281,10,-6.19793e-05,-3.87696,-3.4285,-0.0172087,0.466944,
2,0,0,1,0,25492,0.448208,0.447912,-0.140001,38,1.01224,10,-6.27083e-05,-3.85387,-1.41113,-0.0418103,0.447973,
2,0,0,0,0,25495.8,0.429231,0.428912,-0.146823,38,1.01165,10,-6.2974e-05,-3.83321,-2.00929,-0.0293637,0.428977,
2,0,0,1,0,25499.6,0.410254,0.40993,-0.156906,38,1.01103,10,-6.43206e-05,-3.80436,-9.15957,-0.00644135,0.409999,
2,0,0,0,0,25503.4,0.391277,0.39099,-0.165876,38,1.01037,10,-6.48557e-05,-3.78022,-1.64369,-0.0358949,0.391063,
2,0,0,1,0,25507.2,0.3723,0.371995,-0.175821,38,1.00967,10,-6.54045e-05,-3.75493,-0.719741,-0.0819739,0.372072,
2,0,0,1,0,25511,0.353322,0.353037,-0.185113,38,1.00893,10,-6.53517e-05,-3.73256,-0.885511,-0.0666282,0.353118,
2,0,0,1,0,25514.8,0.334345,0.33407,-0.197247,38,1.00815,10,-6.58944e-05,-3.70499,-1.04156,-0.0566456,0.334157,
2,0,0,1,0,25518.6,0.315368,0.315046,-0.208986,38,1.00733,10,-6.58402e-05,-3.67988,-0.838149,-0.0703932,0.315138,
2,0,0,1,0,25522.4,0.296391,0.296069,-0.220614,38,1.00646,10,-6.53168e-05,-3.65637,-0.874278,-0.0674842,0.296166,
2,0,0,1,0,25526.2,0.277414,0.277099,-0.232913,38,1.00555,10,-6.45402e-05,-3.63281,-0.502889,-0.117322,0.277202,
2,0,0,1,0,25530,0.258437,0.258104,-0.24597,38,1.00459,10,-6.3486e-05,-3.60912,-1.83108,-0.0322214,0.258213,
2,0,0,1,0,25533.8,0.239461,0.239123,-0.256696,38,1.00358,10,-6.1382e-05,-3.59058,-1.70077,-0.0346902,0.239236,
2,0,0,0,0,25537.6,0.220483,0.220164,-0.267993,38,1.00253,10,-5.90023e-05,-3.57188,-0.715218,-0.0824923,0.220282,
2,0,0,1,0,25541.4,0.201506,0.201202,-0.282769,38,1.00143,10,-5.68935e-05,-3.54857,-0.490825,-0.120206,0.201326,
2,0,0,0,0,25545.2,0.182529,0.18223,-0.302958,38,1.00026,10,-5.52081e-05,-3.51862,-0.443915,-0.132908,0.182363,
2,0,0,1,0,25549,0.163552,0.163253,-0.341301,38,0.998991,10,-5.57184e-05,-3.46686,-0.278663,-0.211725,0.163403,
2,0,0,0,0,25552.8,0.144575,0.144228,-0.459572,38,0.997459,10,-6.62833e-05,-3.33765,-0.088614,-0.665809,0.14443,
2,0,0,1,0,25556.6,0.125598,0.125281,-0.694496,38,0.995185,10,-8.70071e-05,-3.15833,-0.199393,-0.295898,0.125586,
2,0,0,1,0,25560.4,0.10662,0.106293,-0.725844,38,0.992368,10,-7.71521e-05,-3.13916,0.926512,0.0636797,0.106612,
2,0,0,1,0,25564.1,0.0876433,0.0873224,-0.675432,38,0.989641,10,-5.89804e-05,-3.17042,0.596182,0.098963,0.0876196,
2,0,0,1,0,25567.9,0.0686664,0.0683498,-0.630031,38,0.987106,10,-4.30625e-05,-3.20064,0.689853,0.0855254,0.068627,
2,0,0,1,0,25571.7,0.0496895,0.0493876,-0.584448,38,0.984735,10,-2.88645e-05,-3.23325,0.508998,0.115914,0.0496448,
2,0,0,1,0,25575.5,0.0307126,0.0304086,-0.534348,38,0.982542,10,-1.62488e-05,-3.27218,0.520994,0.113245,0.0306437,
2,0,0,1,0,25579.3,0.0117356,0.0114316,-0.501422,38,0.980518,10,-5.73207e-06,-3.2998,0.848377,0.0695446,0.0116523,
2,0,0,0,0,25581.6,0.000274105,-9.38898e-05,-0.502391,38,0.979331,10,4.71694e-08,-3.29896, , ,0.000127162,