File: Figure_codes/Fig_3-5/workspace_calculate_alpha_eff/20221101_1-115_002_TrumpetPlot_ParaChange_18_CV_C01_1.csv
mode,ox/red,error,control changes,counter inc.,time/s,control/V,Ewe/V,<I>/mA,cycle number,(Q-Qo)/C,I Range,P/W,log(|I|),Tafel slope mV/dec,alpha_eff,E-IR/V,
2,1,0,0,0,2481.92,2.44065e-05,-0.000268062,0.126397,2,0.0000000E+000,10,-3.38822e-08,-3.89826, , ,-0.000369179,
2,1,0,1,0,2485.57,0.0182777,0.0179934,0.262636,2,0.000982852,10,4.72573e-06,-3.58065,0.440068,0.13407,0.0177833,
2,1,0,0,0,2489.26,0.036755,0.0364952,0.290975,2,0.00210227,10,1.06192e-05,-3.53614,0.362766,0.162639,0.0362624,
2,1,0,1,0,2492.96,0.0552323,0.0549595,0.3278,2,0.0033302,10,1.80157e-05,-3.48439,0.254105,0.232187,0.0546973,
2,1,0,1,0,2496.66,0.0737106,0.0734495,0.403861,2,0.0047647,10,2.96634e-05,-3.39377,0.200318,0.294532,0.0731264,
2,1,0,1,0,2500.35,0.0921881,0.0918579,0.485321,2,0.00650087,10,4.45806e-05,-3.31397,0.218744,0.269722,0.0914697,
2,1,0,1,0,2504.05,0.110665,0.110393,0.591522,2,0.00855748,10,6.53001e-05,-3.22803,0.149722,0.394063,0.10992,
2,1,0,1,0,2507.74,0.129144,0.128865,0.854791,2,0.0112835,10,0.000110153,-3.06814,0.106077,0.5562,0.128181,
2,1,0,0,0,2511.44,0.147621,0.147309,0.963558,2,0.0148863,10,0.00014194,-3.01612,-0.266712,-0.221212,0.146538,
2,1,0,0,0,2515.13,0.166099,0.165811,0.600025,2,0.0179317,10,9.94905e-05,-3.22183,-0.0754586,-0.781886,0.165331,
2,1,0,1,0,2518.83,0.184576,0.184297,0.390884,2,0.0197814,10,7.20386e-05,-3.40795,-0.159722,-0.369393,0.183984,
2,1,0,1,0,2522.52,0.203054,0.202724,0.327838,2,0.021185,10,6.64608e-05,-3.48434,-0.309848,-0.190416,0.202462,
2,1,0,1,0,2526.22,0.221532,0.221225,0.298921,2,0.0224274,10,6.61289e-05,-3.52444,-0.63968,-0.0922337,0.220986,
2,1,0,1,0,2529.92,0.240009,0.23971,0.283748,2,0.0235954,10,6.80172e-05,-3.54707,-0.92423,-0.063837,0.239483,
2,1,0,1,0,2533.61,0.258488,0.258179,0.275195,2,0.0247237,10,7.10495e-05,-3.56036,-1.43193,-0.0412032,0.257959,
2,1,0,0,0,2537.31,0.276965,0.276639,0.269943,2,0.0258265,10,7.46768e-05,-3.56873,-1.7616,-0.0334922,0.276423,
2,1,0,1,0,2541,0.295442,0.295163,0.266542,2,0.0269108,10,7.86734e-05,-3.57423,3.64755,0.0161752,0.29495,
2,1,0,1,0,2544.7,0.313921,0.313644,0.263713,2,0.0279798,10,8.27122e-05,-3.57887,-4.40345,-0.0133986,0.313433,
2,1,0,1,0,2548.39,0.332398,0.332127,0.259497,2,0.0290345,10,8.6186e-05,-3.58587,1.41016,0.0418393,0.331919,
2,1,0,1,0,2552.09,0.350875,0.350616,0.25438,2,0.030076,10,8.91899e-05,-3.59452,-2.5555,-0.0230875,0.350413,
2,1,0,1,0,2555.78,0.369354,0.369076,0.251496,2,0.0311043,10,9.28211e-05,-3.59947,-2.24999,-0.0262224,0.368875,
2,1,0,0,0,2559.48,0.387831,0.387617,0.248261,2,0.0321196,10,9.623e-05,-3.60509,-3.29527,-0.0179045,0.387418,
2,1,0,1,0,2563.17,0.406308,0.406041,0.246849,2,0.0331268,10,0.000100231,-3.60757,-0.75558,-0.0780857,0.405844,
2,1,0,1,0,2566.87,0.424786,0.424522,0.245504,2,0.0341281,10,0.000104222,-3.60994,2.15171,0.02742,0.424326,
2,1,0,1,0,2570.57,0.443264,0.443032,0.245295,2,0.0351258,10,0.000108674,-3.61031,3.45284,0.0170874,0.442835,
2,1,0,1,0,2574.26,0.461741,0.461492,0.245928,2,0.0361232,10,0.000113494,-3.60919,2.67087,0.0220902,0.461295,
2,1,0,1,0,2577.96,0.480219,0.479957,0.248167,2,0.0371267,10,0.00011911,-3.60526,-24.7461,-0.00238422,0.479759,
2,1,0,0,0,2581.65,0.498697,0.498402,0.252482,2,0.0381434,10,0.000125837,-3.59777,2.30392,0.0256086,0.4982,
2,1,0,1,0,2585.35,0.517174,0.516928,0.261968,2,0.0391856,10,0.000135419,-3.58175,1.57631,0.0374292,0.516718,
2,1,0,1,0,2589.04,0.535652,0.53538,0.277383,2,0.0402706,10,0.000148505,-3.55692,0.421705,0.139908,0.535158,
2,1,0,1,0,2592.74,0.55413,0.553913,0.304164,2,0.0414304,10,0.00016848,-3.51689,0.34687,0.170093,0.55367,
2,1,0,1,0,2596.43,0.572608,0.572373,0.344671,2,0.0427124,10,0.00019728,-3.4626,0.330726,0.178395,0.572097,
2,1,0,1,0,2600.13,0.591085,0.590808,0.420133,2,0.0441993,10,0.000248218,-3.37661,0.166486,0.354384,0.590472,
2,1,0,0,0,2603.83,0.609563,0.609319,0.576607,2,0.0460941,10,0.000351338,-3.23912,0.107632,0.548162,0.608858,
2,1,0,0,0,2607.52,0.628041,0.627809,0.911275,2,0.0488546,10,0.000572106,-3.04035,0.0794824,0.742303,0.627079,
2,1,0,1,0,2611.22,0.646518,0.64626,1.63658,2,0.0534853,10,0.00105765,-2.78606,0.0639341,0.922825,0.64495,
2,1,0,1,0,2614.91,0.664996,0.664787,3.1757,2,0.0621378,10,0.00211116,-2.49816,0.0578622,1.01966,0.662246,
2,1,0,1,0,2618.61,0.683474,0.683225,6.10295,2,0.0788759,10,0.00416969,-2.21446,0.0566615,1.04127,0.678343,
2,1,0,1,0,2622.3,0.701951,0.701693,10.6786,2,0.109523,10,0.00749312,-1.97148,0.0666788,0.88484,0.69315,
2,1,0,1,0,2626,0.720429,0.7202,16.3625,2,0.159342,10,0.0117843,-1.78615,0.0826241,0.714078,0.70711,
2,1,0,0,0,2629.69,0.738907,0.73866,23.1912,2,0.232057,10,0.0171304,-1.63468,0.0872082,0.676542,0.720107,
2,1,0,1,0,2633.39,0.757384,0.757146,30.9247,2,0.331689,10,0.0234146,-1.50969,0.108597,0.543291,0.732406,
2,1,0,1,0,2637.09,0.775862,0.775587,39.2791,2,0.461876,10,0.0304644,-1.40584,0.145115,0.406574,0.744164,
2,1,0,1,0,2640.78,0.79434,0.794083,47.1662,2,0.621894,10,0.0374539,-1.32637,0.180502,0.326866,0.756351,
2,1,0,1,0,2644.48,0.812817,0.8126,54.0719,2,0.808837,10,0.0439388,-1.26703,0.242544,0.243255,0.769343,
2,1,0,1,0,2648.17,0.831295,0.831069,59.2611,2,1.01837,10,0.0492501,-1.22723,0.440308,0.133997,0.78366,
2,1,0,0,0,2651.86,0.849748,0.849562,62.8828,2,1.24407,10,0.0534228,-1.20147,-0.295695,-0.19953,0.799256,
2,1,0,1,0,2655.46,0.832244,0.832004,54.2685,2,1.4556,10,0.0451516,-1.26545,1.69397,0.0348295,0.788589,
2,1,0,1,0,2659.16,0.813766,0.813541,48.8868,2,1.64702,10,0.0397714,-1.31081,0.198228,0.297637,0.774431,
2,1,0,0,0,2662.85,0.795288,0.795038,41.1291,2,1.81352,10,0.0326992,-1.38585,0.190578,0.309585,0.762135,
2,1,0,0,0,2666.55,0.776811,0.776577,32.9286,2,1.9504,10,0.0255716,-1.48243,0.118983,0.495868,0.750234,
2,1,0,1,0,2670.25,0.758333,0.758074,24.6917,2,2.05694,10,0.0187181,-1.60745,0.0825643,0.714594,0.738321,
2,1,0,1,0,2673.94,0.739855,0.739586,17.1983,2,2.1341,10,0.0127197,-1.76451,0.0662901,0.890027,0.725827,
2,1,0,1,0,2677.64,0.721378,0.72115,11.053,2,2.18573,10,0.0079709,-1.95652,0.0664057,0.888477,0.712307,
2,1,0,1,0,2681.33,0.7029,0.702675,6.44126,2,2.21747,10,0.00452611,-2.19103,0.0599853,0.983574,0.697522,
2,1,0,0,0,2685.03,0.684422,0.684157,3.36616,2,2.23507,10,0.00230298,-2.47287,0.0545123,1.08232,0.681465,
2,1,0,0,0,2688.72,0.665945,0.665696,1.58575,2,2.2438,10,0.00105562,-2.79977,0.0506486,1.16489,0.664427,
2,1,0,1,0,2692.42,0.647467,0.647244,0.685472,2,2.24772,10,0.000443667,-3.16401,0.0472897,1.24763,0.646695,
2,1,0,1,0,2696.11,0.62899,0.628784,0.27612,2,2.24935,10,0.00017362,-3.5589,0.040801,1.44604,0.628563,
2,1,0,1,0,2699.81,0.610512,0.610284,0.0812611,2,2.24988,10,4.95924e-05,-4.09012,0.0262366,2.24877,0.610219,
2,1,0,1,0,2703.51,0.592034,0.591799,-0.00800261,2,2.24992,10,-4.73594e-06,-5.09677,-0.0039846,-14.807,0.591806,
2,0,0,1,0,2707.2,0.573556,0.573295,-0.0487422,2,2.24973,10,-2.79437e-05,-4.31209,-0.0771426,-0.764818,0.573334,
2,0,0,0,0,2710.9,0.555079,0.554783,-0.0691501,2,2.24943,10,-3.83633e-05,-4.16021,-0.251958,-0.234166,0.554838,
2,0,0,1,0,2714.59,0.536601,0.536337,-0.0829123,2,2.24906,10,-4.44689e-05,-4.08138,-1.10763,-0.0532668,0.536403,
2,0,0,1,0,2718.29,0.518123,0.51783,-0.0896309,2,2.24866,10,-4.64136e-05,-4.04754,3.10692,0.0189899,0.517902,
2,0,0,1,0,2721.98,0.499646,0.499383,-0.0976832,2,2.24824,10,-4.87813e-05,-4.01018,-1.44989,-0.0406927,0.499461,
2,0,0,1,0,2725.68,0.481168,0.480888,-0.103302,2,2.24779,10,-4.96769e-05,-3.98589,-0.449672,-0.131207,0.480971,
2,0,0,1,0,2729.37,0.46269,0.462413,-0.109767,2,2.24732,10,-5.07578e-05,-3.95953,-0.639495,-0.0922602,0.462501,
2,0,0,0,0,2733.07,0.444213,0.443947,-0.118413,2,2.24682,10,-5.25691e-05,-3.9266,-0.46102,-0.127977,0.444042,
2,0,0,1,0,2736.77,0.425735,0.425494,-0.126865,2,2.24629,10,-5.39801e-05,-3.89666,-0.36502,-0.161635,0.425595,
2,0,0,1,0,2740.46,0.407257,0.407027,-0.137682,2,2.24572,10,-5.60403e-05,-3.86112,-1.74398,-0.0338306,0.407137,
2,0,0,1,0,2744.16,0.38878,0.388516,-0.147573,2,2.24512,10,-5.73347e-05,-3.83099,-0.811995,-0.0726605,0.388634,
2,0,0,1,0,2747.85,0.370302,0.370028,-0.158389,2,2.24447,10,-5.86086e-05,-3.80027,-0.377825,-0.156157,0.370155,
2,0,0,1,0,2751.55,0.351824,0.351532,-0.171214,2,2.24378,10,-6.01874e-05,-3.76646,-3.9609,-0.0148956,0.351669,
2,0,0,0,0,2755.24,0.333347,0.333065,-0.18185,2,2.24305,10,-6.05679e-05,-3.74029,54.1782,0.001089,0.333211,
2,0,0,0,0,2758.94,0.314869,0.314599,-0.194814,2,2.24227,10,-6.12882e-05,-3.71038,-1.16966,-0.0504421,0.314755,
2,0,0,1,0,2762.63,0.296391,0.296118,-0.207549,2,2.24144,10,-6.14589e-05,-3.68288,-0.68016,-0.0867443,0.296284,
2,0,0,1,0,2766.33,0.277914,0.277625,-0.220411,2,2.24058,10,-6.11916e-05,-3.65677,-0.771861,-0.0764387,0.277802,
2,0,0,1,0,2770.03,0.259436,0.259166,-0.232043,2,2.23966,10,-6.01377e-05,-3.63443,-0.539681,-0.109324,0.259351,
2,0,0,1,0,2773.72,0.240958,0.240644,-0.246623,2,2.2387,10,-5.93483e-05,-3.60797,-0.619637,-0.095217,0.240841,
2,0,0,0,0,2777.42,0.222481,0.22224,-0.262912,2,2.23768,10,-5.84297e-05,-3.58019,-0.434053,-0.135928,0.222451,
2,0,0,0,0,2781.11,0.204003,0.203718,-0.291253,2,2.23658,10,-5.93336e-05,-3.53573,-0.32601,-0.180976,0.203951,
2,0,0,1,0,2784.81,0.185526,0.185247,-0.343133,2,2.23534,10,-6.35645e-05,-3.46454,-0.195413,-0.301925,0.185522,
2,0,0,1,0,2788.5,0.167047,0.166774,-0.478134,2,2.23378,10,-7.97404e-05,-3.32045,-0.101183,-0.583101,0.167157,
2,0,0,1,0,2792.2,0.14857,0.148295,-0.838584,2,2.23133,10,-0.000124358,-3.07645,-0.0867489,-0.680124,0.148966,
2,0,0,1,0,2795.89,0.130092,0.129853,-1.00942,2,2.22767,10,-0.000131075,-2.99593,0.441595,0.133607,0.13066,
2,0,0,1,0,2799.59,0.111614,0.111323,-0.791661,2,2.22424,10,-8.81297e-05,-3.10146,0.165846,0.355751,0.111956,
2,0,0,0,0,2803.29,0.0931369,0.0928484,-0.663569,2,2.22151,10,-6.16113e-05,-3.17811,0.439199,0.134336,0.0933792,
2,0,0,1,0,2806.98,0.0746596,0.0743923,-0.597329,2,2.21909,10,-4.44367e-05,-3.22379,0.374237,0.157654,0.0748702,
2,0,0,1,0,2810.68,0.0561813,0.055927,-0.525005,2,2.21694,10,-2.93619e-05,-3.27984,0.375894,0.156959,0.056347,
2,0,0,1,0,2814.37,0.0377039,0.0374008,-0.485315,2,2.215,10,-1.81512e-05,-3.31398,0.941837,0.0626435,0.037789,
2,0,0,1,0,2818.07,0.0192267,0.0189099,-0.479607,2,2.21315,10,-9.06932e-06,-3.31911,-1.91203,-0.0308572,0.0192936,
2,0,0,1,0,2821.76,0.00074842,0.000413662,-0.496139,2,2.21128,10,-2.05234e-07,-3.3044, , ,0.000810573,
2,0,0,0,0,2821.86,0.000274105,-8.19602e-05,-0.494052,2,2.21123,10,4.04926e-08,-3.30623, , ,0.000313281,