File: Figure_codes/Fig_3-5/workspace_calculate_alpha_eff/20221101_1-115_003_TrumpetPlot_ParaChange_from10_every3_16_CV_C01_44.csv
mode,ox/red,error,control changes,counter inc.,time/s,control/V,Ewe/V,<I>/mA,cycle number,(Q-Qo)/C,I Range,P/W,log(|I|),Tafel slope mV/dec,alpha_eff,E-IR/V,
2,0,0,0,0,29551.9,2.44065e-05,-0.000306236,-0.0962139,45,0.0000000E+000,10,2.94642e-08,-4.01676, , ,-0.000263902,
2,1,0,1,0,29555.7,0.0187763,0.0184868,0.213608,45,0.000694973,10,3.94893e-06,-3.67038,0.133784,0.441011,0.0183928,
2,1,0,1,0,29559.5,0.0377538,0.037388,0.279303,45,0.00169006,10,1.04426e-05,-3.55393,0.19754,0.298674,0.0372651,
2,1,0,0,0,29563.3,0.0567309,0.0563948,0.343169,45,0.00293833,10,1.9353e-05,-3.46449,0.298663,0.197547,0.0562438,
2,1,0,1,0,29567.1,0.075708,0.0754068,0.39081,45,0.00439971,10,2.94697e-05,-3.40803,0.415428,0.142022,0.0752348,
2,1,0,0,0,29570.9,0.0946851,0.0943711,0.447855,45,0.00603633,10,4.22646e-05,-3.34886,0.240637,0.245182,0.094174,
2,1,0,1,0,29574.7,0.113662,0.113339,0.548909,45,0.00798537,10,6.22126e-05,-3.2605,0.334523,0.17637,0.113097,
2,1,0,0,0,29578.5,0.132639,0.132319,0.599062,45,0.0102383,10,7.92671e-05,-3.22253,-1.21831,-0.0484278,0.132055,
2,1,0,1,0,29582.3,0.151617,0.151271,0.395137,45,0.0122656,10,5.97726e-05,-3.40325,-0.0734454,-0.803318,0.151097,
2,1,0,1,0,29586.1,0.170594,0.170236,0.286674,45,0.0135532,10,4.88023e-05,-3.54261,-0.249358,-0.236607,0.17011,
2,1,0,1,0,29589.9,0.189571,0.189218,0.26199,45,0.0146393,10,4.95734e-05,-3.58171,-0.945806,-0.0623807,0.189103,
2,1,0,1,0,29593.6,0.208547,0.208274,0.252157,45,0.015663,10,5.25177e-05,-3.59833,-1.00132,-0.0589219,0.208163,
2,1,0,1,0,29597.4,0.227524,0.227175,0.243934,45,0.0166537,10,5.54158e-05,-3.61273,-0.82771,-0.071281,0.227068,
2,1,0,1,0,29601.2,0.246501,0.246205,0.239446,45,0.0176227,10,5.89529e-05,-3.62079,-0.5953,-0.0991097,0.2461,
2,1,0,0,0,29605,0.265479,0.265156,0.235898,45,0.0185753,10,6.25497e-05,-3.62728,-1.11955,-0.0526998,0.265052,
2,1,0,1,0,29608.8,0.284456,0.284124,0.231976,45,0.0195125,10,6.591e-05,-3.63456,-1.6941,-0.0348267,0.284022,
2,1,0,0,0,29612.6,0.303433,0.303169,0.227412,45,0.0204335,10,6.89442e-05,-3.64319,165.145,0.000357262,0.303069,
2,1,0,1,0,29616.4,0.32241,0.322096,0.225188,45,0.021341,10,7.25322e-05,-3.64745,-5.18949,-0.0113691,0.321996,
2,1,0,0,0,29620.2,0.341387,0.341066,0.22274,45,0.0222354,10,7.59691e-05,-3.6522,-5.73846,-0.0102815,0.340968,
2,1,0,1,0,29624,0.360364,0.360076,0.220835,45,0.0231193,10,7.95173e-05,-3.65593,-2.72058,-0.0216865,0.359979,
2,1,0,1,0,29627.8,0.379342,0.379052,0.218455,45,0.0239954,10,8.2806e-05,-3.66064,6.43891,0.00916304,0.378956,
2,1,0,1,0,29631.6,0.398319,0.398024,0.216847,45,0.0248655,10,8.63102e-05,-3.66385,3.94735,0.0149468,0.397929,
2,1,0,1,0,29635.4,0.417295,0.417012,0.216525,45,0.02573,10,9.02934e-05,-3.66449,4.67583,0.0126181,0.416916,
2,1,0,1,0,29639.2,0.436272,0.435975,0.216265,45,0.0265911,10,9.42861e-05,-3.66501,4.60409,0.0128147,0.43588,
2,1,0,1,0,29643,0.455249,0.454944,0.216287,45,0.0274518,10,9.83985e-05,-3.66497,1.54011,0.0383091,0.454849,
2,1,0,1,0,29646.8,0.474226,0.473929,0.217966,45,0.0283161,10,0.0001033,-3.66161,1.27843,0.0461503,0.473833,
2,1,0,1,0,29650.6,0.493203,0.492947,0.221755,45,0.0291881,10,0.000109313,-3.65413,0.884753,0.0666853,0.492849,
2,1,0,0,0,29654.4,0.512181,0.511866,0.225319,45,0.0300726,10,0.000115333,-3.6472,1.1847,0.0498015,0.511767,
2,1,0,1,0,29658.2,0.531158,0.530843,0.232308,45,0.030977,10,0.000123319,-3.63394,2.25265,0.0261914,0.530741,
2,1,0,0,0,29662,0.550135,0.549869,0.240181,45,0.0319102,10,0.000132068,-3.61946,0.669309,0.0881507,0.549763,
2,1,0,1,0,29665.8,0.569112,0.568854,0.254901,45,0.0328857,10,0.000145001,-3.59363,0.55618,0.106081,0.568742,
2,1,0,0,0,29669.6,0.588089,0.587794,0.277163,45,0.0339275,10,0.000162915,-3.55726,0.416118,0.141787,0.587672,
2,1,0,1,0,29673.4,0.607066,0.606775,0.316546,45,0.0350828,10,0.000192072,-3.49956,0.270979,0.217729,0.606636,
2,1,0,1,0,29677.1,0.626044,0.625785,0.391271,45,0.0364447,10,0.000244852,-3.40752,0.168261,0.350646,0.625613,
2,1,0,1,0,29680.9,0.64502,0.644706,0.544597,45,0.0382222,10,0.000351105,-3.26392,0.111245,0.530361,0.644466,
2,1,0,1,0,29684.7,0.663997,0.663708,0.868742,45,0.0408683,10,0.000576591,-3.06111,0.0826074,0.714222,0.663326,
2,1,0,1,0,29688.5,0.682974,0.682695,1.50728,45,0.0452912,10,0.00102901,-2.82181,0.07773,0.759037,0.682032,
2,1,0,1,0,29692.3,0.701951,0.701683,2.6022,45,0.0529652,10,0.00182592,-2.58466,0.0827771,0.712757,0.700538,
2,1,0,1,0,29696.1,0.720928,0.720675,4.21826,45,0.0657761,10,0.00304,-2.37487,0.0947744,0.622531,0.718819,
2,1,0,1,0,29699.9,0.739905,0.739648,6.36834,45,0.0857244,10,0.00471033,-2.19597,0.109817,0.537258,0.736846,
2,1,0,0,0,29703.7,0.758883,0.758593,9.07274,45,0.114871,10,0.00688252,-2.04226,0.12281,0.480418,0.754601,
2,1,0,1,0,29707.5,0.77786,0.77758,12.525,45,0.155587,10,0.00973923,-1.90222,0.12953,0.455493,0.772069,
2,1,0,0,0,29711.3,0.796837,0.79659,17.0952,45,0.211348,10,0.0136178,-1.76713,0.12418,0.475116,0.789068,
2,1,0,1,0,29715.1,0.815814,0.81558,22.9753,45,0.287122,10,0.0187382,-1.63874,0.137686,0.428512,0.805471,
2,1,0,0,0,29718.9,0.834791,0.834555,29.753,45,0.387062,10,0.0248306,-1.52647,0.149922,0.393538,0.821464,
2,1,0,0,0,29722.6,0.846727,0.846474,33.5342,45,0.508591,10,0.0283858,-1.47451,0.123908,0.476158,0.831719,
2,1,0,1,0,29726.4,0.827749,0.827513,25.3243,45,0.61956,10,0.0209562,-1.59646,0.131682,0.448049,0.816371,
2,1,0,1,0,29730.2,0.808772,0.808505,18.9288,45,0.703086,10,0.015304,-1.72288,0.123026,0.479573,0.800176,
2,1,0,1,0,29734,0.789795,0.789532,13.6997,45,0.764558,10,0.0108163,-1.86329,0.10724,0.550167,0.783505,
2,1,0,1,0,29737.8,0.770818,0.770527,9.54891,45,0.808186,10,0.00735769,-2.02005,0.107259,0.550072,0.766325,
2,1,0,1,0,29741.6,0.751841,0.751575,6.49455,45,0.83829,10,0.00488114,-2.18745,0.109915,0.53678,0.748718,
2,1,0,1,0,29745.4,0.732865,0.732591,4.22584,45,0.858449,10,0.00309581,-2.37409,0.0902323,0.653868,0.730732,
2,1,0,0,0,29749.2,0.713887,0.713601,2.53893,45,0.871066,10,0.00181178,-2.59535,0.0763904,0.772348,0.712484,
2,1,0,1,0,29753,0.69491,0.694616,1.37838,45,0.878312,10,0.000957448,-2.86063,0.0634021,0.930569,0.69401,
2,1,0,0,0,29756.8,0.675933,0.675655,0.645633,45,0.881993,10,0.000436226,-3.19001,0.0496217,1.189,0.675371,
2,1,0,1,0,29760.5,0.656956,0.656691,0.238985,45,0.883548,10,0.000156939,-3.62163,0.0365953,1.61223,0.656586,
2,1,0,0,0,29764.3,0.637979,0.637706,0.040293,45,0.88399,10,2.56951e-05,-4.39477,0.012764,4.62237,0.637689,
2,0,0,1,0,29768.1,0.619002,0.618694,-0.0463737,45,0.883915,10,-2.86912e-05,-4.33373,-0.0366329,-1.61058,0.618715,
2,0,0,0,0,29771.9,0.600025,0.599729,-0.0850689,45,0.883616,10,-5.10183e-05,-4.07023,-0.194758,-0.30294,0.599766,
2,0,0,1,0,29775.7,0.581047,0.580714,-0.102474,45,0.883217,10,-5.95083e-05,-3.98938,-0.323656,-0.182292,0.58076,
2,0,0,1,0,29779.5,0.56207,0.561809,-0.112509,45,0.882769,10,-6.32087e-05,-3.94881,-1.3887,-0.0424858,0.561858,
2,0,0,1,0,29783.3,0.543093,0.542777,-0.117553,45,0.882294,10,-6.3805e-05,-3.92977,-0.838078,-0.0703992,0.542828,
2,0,0,1,0,29787.1,0.524116,0.523744,-0.122549,45,0.881799,10,-6.41844e-05,-3.91169,9.27908,0.00635839,0.523798,
2,0,0,1,0,29790.9,0.505139,0.504821,-0.126562,45,0.881289,10,-6.38911e-05,-3.8977,-1.07119,-0.0550787,0.504876,
2,0,0,1,0,29794.7,0.486162,0.485822,-0.131443,45,0.880757,10,-6.38579e-05,-3.88126,-1.14127,-0.0516968,0.485879,
2,0,0,1,0,29798.5,0.467185,0.466888,-0.13797,45,0.880203,10,-6.44167e-05,-3.86021,-1.71068,-0.0344892,0.466949,
2,0,0,1,0,29802.3,0.448208,0.447877,-0.144499,45,0.879626,10,-6.47179e-05,-3.84013,-1.27231,-0.0463723,0.44794,
2,0,0,0,0,29806.1,0.429231,0.428918,-0.152376,45,0.879019,10,-6.53568e-05,-3.81708,-1.25387,-0.0470543,0.428985,
2,0,0,1,0,29809.9,0.410254,0.409941,-0.16212,45,0.87838,10,-6.64595e-05,-3.79016,-3.99855,-0.0147554,0.410012,
2,0,0,0,0,29813.7,0.391277,0.390942,-0.171545,45,0.877706,10,-6.70644e-05,-3.76562,-0.779406,-0.0756986,0.391018,
2,0,0,1,0,29817.5,0.3723,0.371982,-0.180538,45,0.876994,10,-6.7157e-05,-3.74343,-0.560069,-0.105344,0.372062,
2,0,0,1,0,29821.3,0.353322,0.353002,-0.190347,45,0.876243,10,-6.71929e-05,-3.72045,-0.621478,-0.094935,0.353085,
2,0,0,1,0,29825.1,0.334345,0.334053,-0.201899,45,0.87545,10,-6.74451e-05,-3.69487,-1.28958,-0.0457513,0.334142,
2,0,0,1,0,29828.9,0.315368,0.315024,-0.214369,45,0.874614,10,-6.75312e-05,-3.66884,-0.786483,-0.0750175,0.315118,
2,0,0,1,0,29832.7,0.296391,0.296107,-0.225821,45,0.873732,10,-6.68673e-05,-3.64623,-0.834567,-0.0706954,0.296207,
2,0,0,1,0,29836.5,0.277414,0.277111,-0.237227,45,0.872804,10,-6.57381e-05,-3.62484,-0.712257,-0.0828352,0.277215,
2,0,0,1,0,29840.3,0.258437,0.258151,-0.249723,45,0.871829,10,-6.44663e-05,-3.60254,-0.897585,-0.0657319,0.258261,
2,0,0,1,0,29844,0.239461,0.239155,-0.261581,45,0.870808,10,-6.25585e-05,-3.58239,-0.733102,-0.0804799,0.23927,
2,0,0,0,0,29847.8,0.220483,0.220162,-0.272084,45,0.869745,10,-5.99025e-05,-3.5653,-0.647832,-0.0910729,0.220282,
2,0,0,1,0,29851.6,0.201506,0.201174,-0.287141,45,0.868632,10,-5.77654e-05,-3.5419,-0.611421,-0.0964965,0.201301,
2,0,0,0,0,29855.4,0.182529,0.182155,-0.306079,45,0.867456,10,-5.57538e-05,-3.51417,-0.489832,-0.12045,0.182289,
2,0,0,1,0,29859.2,0.163552,0.163239,-0.343342,45,0.866178,10,-5.60468e-05,-3.46427,-0.274232,-0.215146,0.16339,
2,0,0,0,0,29863,0.144575,0.144277,-0.452991,45,0.864657,10,-6.53562e-05,-3.34391,-0.0970859,-0.60771,0.144476,
2,0,0,1,0,29866.8,0.125598,0.125293,-0.681507,45,0.862433,10,-8.53877e-05,-3.16653,-0.195883,-0.301201,0.125592,
2,0,0,1,0,29870.6,0.10662,0.106278,-0.718999,45,0.859659,10,-7.64137e-05,-3.14327,1.27545,0.0462581,0.106594,
2,0,0,1,0,29874.4,0.0876433,0.087336,-0.674389,45,0.856949,10,-5.88984e-05,-3.17109,0.600184,0.0983031,0.0876328,
2,0,0,1,0,29878.2,0.0686664,0.0683231,-0.629399,45,0.854422,10,-4.30025e-05,-3.20107,0.711135,0.0829659,0.0686001,
2,0,0,1,0,29882,0.0496895,0.049357,-0.58312,45,0.852058,10,-2.87811e-05,-3.23424,0.566853,0.104084,0.0496136,
2,0,0,1,0,29885.8,0.0307126,0.0304151,-0.534237,45,0.849875,10,-1.62489e-05,-3.27227,0.489677,0.120488,0.0306502,
2,0,0,1,0,29889.6,0.0117356,0.0114328,-0.501209,45,0.847861,10,-5.73021e-06,-3.29998,2.54994,0.0231378,0.0116533,
2,0,0,0,0,29891.9,0.000274105,-9.74687e-05,-0.501484,45,0.846679,10,4.8879e-08,-3.29974, , ,0.000123184,