File: Figure_codes/Fig_3-5/workspace_calculate_alpha_eff/20221101_1-115_003_TrumpetPlot_ParaChange_from10_every3_16_CV_C01_41.csv
mode,ox/red,error,control changes,counter inc.,time/s,control/V,Ewe/V,<I>/mA,cycle number,(Q-Qo)/C,I Range,P/W,log(|I|),Tafel slope mV/dec,alpha_eff,E-IR/V,
2,0,0,0,0,27581.8,2.44065e-05,-0.000458935,-0.0873094,42,0.0000000E+000,10,4.00693e-08,-4.05894, , ,-0.000420519,
2,1,0,1,0,27585.6,0.0187763,0.0184646,0.212107,42,0.000694539,10,3.91648e-06,-3.67344,0.136273,0.432954,0.0183713,
2,1,0,1,0,27589.4,0.0377538,0.037405,0.279305,42,0.00168913,10,1.04474e-05,-3.55392,0.178002,0.331457,0.0372821,
2,1,0,0,0,27593.2,0.0567309,0.0564223,0.341565,42,0.00293827,10,1.92719e-05,-3.46653,0.289331,0.203918,0.056272,
2,1,0,1,0,27597,0.075708,0.0753707,0.390705,42,0.0044005,10,2.94478e-05,-3.40815,0.412615,0.14299,0.0751988,
2,1,0,0,0,27600.7,0.0946851,0.0943732,0.446941,42,0.00604029,10,4.21793e-05,-3.34975,0.254382,0.231935,0.0941766,
2,1,0,1,0,27604.5,0.113662,0.11332,0.548984,42,0.00799588,10,6.22106e-05,-3.26044,0.335665,0.17577,0.113078,
2,1,0,0,0,27608.3,0.132639,0.132319,0.598362,42,0.0102509,10,7.91745e-05,-3.22304,-0.904076,-0.06526,0.132056,
2,1,0,1,0,27612.1,0.151617,0.151298,0.394802,42,0.012278,10,5.97328e-05,-3.40362,-0.0723066,-0.815969,0.151125,
2,1,0,1,0,27615.9,0.170594,0.170277,0.287365,42,0.0135715,10,4.89317e-05,-3.54157,-0.324238,-0.181965,0.170151,
2,1,0,1,0,27619.7,0.189571,0.189196,0.262367,42,0.0146659,10,4.96388e-05,-3.58109,-0.850668,-0.0693572,0.18908,
2,1,0,1,0,27623.5,0.208547,0.208261,0.252002,42,0.0156983,10,5.24821e-05,-3.5986,-1.56956,-0.0375901,0.20815,
2,1,0,1,0,27627.3,0.227524,0.227224,0.244864,42,0.0166961,10,5.5639e-05,-3.61107,-1.55031,-0.0380569,0.227116,
2,1,0,1,0,27631.1,0.246501,0.246197,0.238943,42,0.0176707,10,5.8827e-05,-3.62171,-0.618042,-0.0954627,0.246091,
2,1,0,0,0,27634.9,0.265479,0.265193,0.234668,42,0.0186268,10,6.22324e-05,-3.62955,-2.21531,-0.0266328,0.26509,
2,1,0,1,0,27638.7,0.284456,0.284149,0.230388,42,0.019566,10,6.54646e-05,-3.63754,-4.86187,-0.0121353,0.284047,
2,1,0,0,0,27642.5,0.303433,0.303142,0.226987,42,0.0204888,10,6.88094e-05,-3.644,-1.08919,-0.0541688,0.303042,
2,1,0,1,0,27646.3,0.32241,0.322108,0.223751,42,0.0213964,10,7.20722e-05,-3.65023,32.6906,0.0018048,0.32201,
2,1,0,0,0,27650.1,0.341387,0.341068,0.22076,42,0.0222898,10,7.52941e-05,-3.65608,-2.50661,-0.0235378,0.340971,
2,1,0,1,0,27653.9,0.360364,0.36006,0.219521,42,0.0231719,10,7.90409e-05,-3.65852,-1.68031,-0.0351125,0.359964,
2,1,0,1,0,27657.7,0.379342,0.379011,0.217664,42,0.0240465,10,8.24973e-05,-3.66221,-1.72816,-0.0341404,0.378915,
2,1,0,1,0,27661.5,0.398319,0.398008,0.216123,42,0.0249143,10,8.60189e-05,-3.6653,5.3262,0.0110773,0.397913,
2,1,0,1,0,27665.3,0.417295,0.417012,0.215227,42,0.0257765,10,8.97524e-05,-3.6671,6.87475,0.00858213,0.416917,
2,1,0,1,0,27669.1,0.436272,0.435941,0.215306,42,0.0266355,10,9.38608e-05,-3.66694,2.87026,0.0205556,0.435846,
2,1,0,1,0,27672.9,0.455249,0.454978,0.21547,42,0.0274951,10,9.8034e-05,-3.66661,1.41639,0.0416553,0.454883,
2,1,0,1,0,27676.7,0.474226,0.473901,0.217035,42,0.0283577,10,0.000102853,-3.66347,1.51645,0.0389065,0.473805,
2,1,0,1,0,27680.5,0.493203,0.492903,0.220206,42,0.0292271,10,0.00010854,-3.65717,1.2183,0.0484283,0.492806,
2,1,0,0,0,27684.2,0.512181,0.511905,0.223572,42,0.0301099,10,0.000114448,-3.65058,1.54159,0.0382721,0.511807,
2,1,0,1,0,27688,0.531158,0.530854,0.231078,42,0.0310132,10,0.000122668,-3.63624,1.60331,0.0367989,0.530752,
2,1,0,0,0,27691.8,0.550135,0.549867,0.240104,42,0.0319467,10,0.000132025,-3.6196,0.859778,0.0686224,0.549761,
2,1,0,1,0,27695.6,0.569112,0.568803,0.254328,42,0.0329237,10,0.000144663,-3.59461,0.844697,0.0698475,0.568691,
2,1,0,0,0,27699.4,0.588089,0.587768,0.277782,42,0.0339683,10,0.000163271,-3.5563,0.425785,0.138568,0.587645,
2,1,0,1,0,27703.2,0.607066,0.606762,0.316296,42,0.0351275,10,0.000191916,-3.49991,0.252066,0.234065,0.606622,
2,1,0,1,0,27707,0.626044,0.625795,0.392037,42,0.0364967,10,0.000245335,-3.40667,0.15529,0.379936,0.625623,
2,1,0,1,0,27710.8,0.64502,0.644738,0.549976,42,0.0382899,10,0.000354591,-3.25966,0.109126,0.540658,0.644496,
2,1,0,1,0,27714.6,0.663997,0.66371,0.884025,42,0.0409755,10,0.000586736,-3.05354,0.0833276,0.708048,0.663321,
2,1,0,1,0,27718.4,0.682974,0.682705,1.54571,42,0.045498,10,0.00105526,-2.81087,0.0750683,0.78595,0.682025,
2,1,0,1,0,27722.2,0.701951,0.701667,2.68629,42,0.0534014,10,0.00188488,-2.57085,0.0798314,0.739057,0.700485,
2,1,0,1,0,27726,0.720928,0.720668,4.37327,42,0.066662,10,0.00315168,-2.35919,0.0919986,0.641314,0.718744,
2,1,0,1,0,27729.8,0.739905,0.73967,6.60675,42,0.0873675,10,0.00488682,-2.18001,0.108604,0.543259,0.736763,
2,1,0,0,0,27733.6,0.758883,0.758631,9.41099,42,0.117612,10,0.00713947,-2.02636,0.122675,0.480946,0.75449,
2,1,0,1,0,27737.4,0.77786,0.777622,12.9944,42,0.159856,10,0.0101047,-1.88624,0.123138,0.479138,0.771904,
2,1,0,0,0,27741.2,0.796837,0.796572,17.768,42,0.217835,10,0.0141535,-1.75036,0.12229,0.482458,0.788754,
2,1,0,1,0,27745,0.815814,0.815574,23.824,42,0.296541,10,0.0194302,-1.62299,0.13871,0.425348,0.805091,
2,1,0,0,0,27748.8,0.834791,0.834529,30.7289,42,0.399824,10,0.0256442,-1.51245,0.158524,0.372183,0.821009,
2,1,0,0,0,27752.5,0.846727,0.846461,34.4224,42,0.524968,10,0.0291372,-1.46316,0.124506,0.473874,0.831315,
2,1,0,1,0,27756.3,0.827749,0.827518,26.3552,42,0.639666,10,0.0218094,-1.57913,0.130056,0.453652,0.815921,
2,1,0,1,0,27760.1,0.808772,0.80853,19.7027,42,0.726629,10,0.0159302,-1.70547,0.116483,0.506511,0.799861,
2,1,0,1,0,27763.9,0.789795,0.789542,14.222,42,0.790532,10,0.0112289,-1.84704,0.115527,0.510704,0.783284,
2,1,0,1,0,27767.6,0.770818,0.77055,10.0066,42,0.836118,10,0.00771062,-1.99971,0.108315,0.544705,0.766147,
2,1,0,1,0,27771.4,0.751841,0.751564,6.78044,42,0.867632,10,0.00509593,-2.16874,0.0981984,0.600824,0.74858,
2,1,0,1,0,27775.2,0.732865,0.732633,4.37435,42,0.888527,10,0.00320479,-2.35909,0.0879578,0.670776,0.730709,
2,1,0,0,0,27779,0.713887,0.713579,2.62291,42,0.901577,10,0.00187165,-2.58122,0.0755241,0.781208,0.712424,
2,1,0,1,0,27782.8,0.69491,0.694627,1.41717,42,0.909046,10,0.000984405,-2.84858,0.0630379,0.935945,0.694003,
2,1,0,0,0,27786.6,0.675933,0.675679,0.66058,42,0.912822,10,0.00044634,-3.18007,0.0493963,1.19442,0.675388,
2,1,0,1,0,27790.4,0.656956,0.656685,0.243271,42,0.91441,10,0.000159752,-3.61391,0.0356201,1.65637,0.656577,
2,1,0,0,0,27794.2,0.637979,0.637706,0.0421849,42,0.914861,10,2.69016e-05,-4.37484,0.0133551,4.4178,0.637688,
2,0,0,1,0,27798,0.619002,0.618721,-0.0456626,42,0.914789,10,-2.82524e-05,-4.34044,-0.0352655,-1.67303,0.618741,
2,0,0,0,0,27801.8,0.600025,0.599715,-0.08465,42,0.91449,10,-5.07659e-05,-4.07237,-0.150147,-0.392948,0.599753,
2,0,0,1,0,27805.6,0.581047,0.580727,-0.102533,42,0.91409,10,-5.95439e-05,-3.98913,-0.425122,-0.138784,0.580773,
2,0,0,1,0,27809.4,0.56207,0.561778,-0.111561,42,0.913642,10,-6.26725e-05,-3.95249,-0.566388,-0.104169,0.561827,
2,0,0,1,0,27813.2,0.543093,0.542847,-0.117533,42,0.913167,10,-6.38025e-05,-3.92984,-5.86932,-0.0100523,0.542898,
2,0,0,1,0,27817,0.524116,0.523801,-0.122022,42,0.912672,10,-6.39154e-05,-3.91356,-1.21066,-0.0487338,0.523855,
2,0,0,1,0,27820.8,0.505139,0.504845,-0.126241,42,0.91216,10,-6.37321e-05,-3.8988,-1.65134,-0.0357285,0.504901,
2,0,0,1,0,27824.6,0.486162,0.485794,-0.131711,42,0.911628,10,-6.39846e-05,-3.88038,-1.80415,-0.0327024,0.485852,
2,0,0,1,0,27828.4,0.467185,0.466868,-0.137334,42,0.911076,10,-6.4117e-05,-3.86222,-0.765833,-0.0770403,0.466928,
2,0,0,1,0,27832.2,0.448208,0.447925,-0.143771,42,0.910499,10,-6.43985e-05,-3.84233,-1.07384,-0.054943,0.447989,
2,0,0,0,0,27836,0.429231,0.428923,-0.151384,42,0.909896,10,-6.4932e-05,-3.81992,-1.58493,-0.0372257,0.42899,
2,0,0,1,0,27839.8,0.410254,0.409915,-0.160553,42,0.909259,10,-6.58132e-05,-3.79438,-1.41982,-0.0415546,0.409986,
2,0,0,0,0,27843.6,0.391277,0.390939,-0.16881,42,0.908589,10,-6.59944e-05,-3.7726,-0.790725,-0.0746151,0.391013,
2,0,0,1,0,27847.3,0.3723,0.371991,-0.179028,42,0.907882,10,-6.65968e-05,-3.74708,-0.646904,-0.0912037,0.37207,
2,0,0,1,0,27851.1,0.353322,0.353011,-0.189776,42,0.907135,10,-6.69931e-05,-3.72176,-0.559448,-0.105461,0.353095,
2,0,0,1,0,27854.9,0.334345,0.334046,-0.200968,42,0.906344,10,-6.71326e-05,-3.69687,-0.934318,-0.0631477,0.334134,
2,0,0,1,0,27858.7,0.315368,0.315058,-0.211509,42,0.905512,10,-6.66378e-05,-3.67467,-0.680305,-0.0867258,0.315151,
2,0,0,1,0,27862.5,0.296391,0.296089,-0.225233,42,0.904634,10,-6.66889e-05,-3.64737,-1.82684,-0.0322961,0.296188,
2,0,0,1,0,27866.3,0.277414,0.277157,-0.23494,42,0.90371,10,-6.51153e-05,-3.62904,-1.08329,-0.0544637,0.27726,
2,0,0,1,0,27870.1,0.258437,0.258166,-0.247446,42,0.90274,10,-6.38822e-05,-3.60652,-0.780175,-0.0756241,0.258275,
2,0,0,1,0,27873.9,0.239461,0.239122,-0.259241,42,0.901725,10,-6.19904e-05,-3.5863,-0.785056,-0.0751539,0.239236,
2,0,0,0,0,27877.7,0.220483,0.220171,-0.270032,42,0.900666,10,-5.94533e-05,-3.56859,-0.642989,-0.091759,0.22029,
2,0,0,1,0,27881.5,0.201506,0.201224,-0.28464,42,0.899559,10,-5.72764e-05,-3.5457,-0.563833,-0.104641,0.201349,
2,0,0,0,0,27885.3,0.182529,0.182212,-0.304001,42,0.898388,10,-5.53925e-05,-3.51713,-0.385937,-0.152875,0.182346,
2,0,0,1,0,27889.1,0.163552,0.163235,-0.34101,42,0.897117,10,-5.56647e-05,-3.46723,-0.272199,-0.216753,0.163385,
2,0,0,0,0,27892.9,0.144575,0.144213,-0.450507,42,0.8956,10,-6.49692e-05,-3.3463,-0.0956042,-0.617128,0.144412,
2,0,0,1,0,27896.7,0.125598,0.125295,-0.680716,42,0.893376,10,-8.52901e-05,-3.16703,-0.19461,-0.30317,0.125594,
2,0,0,1,0,27900.5,0.10662,0.106251,-0.71737,42,0.890605,10,-7.62215e-05,-3.14426,1.36479,0.0432302,0.106567,
2,0,0,1,0,27904.3,0.0876433,0.0872958,-0.674763,42,0.887898,10,-5.8904e-05,-3.17085,0.575728,0.102479,0.0875927,
2,0,0,1,0,27908.1,0.0686664,0.0683678,-0.629107,42,0.885372,10,-4.30106e-05,-3.20128,0.582877,0.101222,0.0686446,
2,0,0,1,0,27911.9,0.0496895,0.0493367,-0.582981,42,0.883006,10,-2.87623e-05,-3.23435,0.49604,0.118942,0.0495932,
2,0,0,1,0,27915.7,0.0307126,0.0303831,-0.534239,42,0.88082,10,-1.62318e-05,-3.27226,0.515124,0.114536,0.0306182,
2,0,0,1,0,27919.5,0.0117356,0.0113682,-0.500612,42,0.878803,10,-5.69104e-06,-3.3005,1.58962,0.0371159,0.0115884,
2,0,0,0,0,27921.8,0.000274105,-0.000117749,-0.501318,42,0.877621,10,5.90297e-08,-3.29989, , ,0.000102831,