File: Figure_codes/Fig_3-5/workspace_calculate_alpha_eff/20221101_1-115_003_TrumpetPlot_ParaChange_from10_every3_16_CV_C01_36.csv
mode,ox/red,error,control changes,counter inc.,time/s,control/V,Ewe/V,<I>/mA,cycle number,(Q-Qo)/C,I Range,P/W,log(|I|),Tafel slope mV/dec,alpha_eff,E-IR/V,
2,0,0,1,0,24871.7,2.44065e-05,-0.000268062,-0.0415151,37,0.0000000E+000,10,1.11286e-08,-4.38179, , ,-0.000249795,
2,1,0,1,0,24875.4,0.0187763,0.0184506,0.272676,37,0.000923773,10,5.03104e-06,-3.56435,0.167481,0.352278,0.0183306,
2,1,0,0,0,24879.2,0.0377538,0.0374336,0.338629,37,0.00215186,10,1.26761e-05,-3.47028,0.24157,0.244235,0.0372846,
2,1,0,1,0,24883,0.0567309,0.0563523,0.399212,37,0.00362919,10,2.24965e-05,-3.3988,0.331457,0.178002,0.0561767,
2,1,0,0,0,24886.8,0.075708,0.075393,0.444195,37,0.00530879,10,3.34892e-05,-3.35243,0.573746,0.102833,0.0751976,
2,1,0,1,0,24890.6,0.0946851,0.0944071,0.499321,37,0.00715064,10,4.71395e-05,-3.30162,0.243822,0.24198,0.0941874,
2,1,0,0,0,24894.4,0.113662,0.113367,0.59762,37,0.00930597,10,6.77506e-05,-3.22357,0.374511,0.157539,0.113104,
2,1,0,1,0,24898.2,0.132639,0.132321,0.649246,37,0.0117588,10,8.59088e-05,-3.18759,-1.01927,-0.0578843,0.132035,
2,1,0,1,0,24902,0.151617,0.151297,0.437357,37,0.013965,10,6.61709e-05,-3.35916,-0.0805164,-0.73277,0.151105,
2,1,0,1,0,24905.8,0.170594,0.170293,0.329749,37,0.0154219,10,5.6154e-05,-3.48182,-0.328068,-0.179841,0.170148,
2,1,0,1,0,24909.6,0.189571,0.18923,0.304687,37,0.0166776,10,5.76559e-05,-3.51615,-0.813007,-0.0725701,0.189096,
2,1,0,1,0,24913.4,0.208547,0.208197,0.294904,37,0.0178727,10,6.13981e-05,-3.53032,-1.24573,-0.0473617,0.208067,
2,1,0,1,0,24917.2,0.227524,0.227243,0.287609,37,0.0190334,10,6.53572e-05,-3.5412,-1.8703,-0.0315458,0.227116,
2,1,0,1,0,24921,0.246501,0.246171,0.281008,37,0.020172,10,6.9176e-05,-3.55128,-1.1472,-0.0514294,0.246047,
2,1,0,1,0,24924.8,0.265479,0.265154,0.277861,37,0.0212931,10,7.36759e-05,-3.55617,-1.03516,-0.0569958,0.265032,
2,1,0,0,0,24928.6,0.284456,0.28418,0.27425,37,0.0223979,10,7.79362e-05,-3.56185,-3.28759,-0.0179463,0.284059,
2,1,0,1,0,24932.4,0.303433,0.303178,0.269644,37,0.0234861,10,8.17502e-05,-3.56921,-8.03544,-0.00734248,0.303059,
2,1,0,0,0,24936.2,0.32241,0.322178,0.266502,37,0.0245589,10,8.58613e-05,-3.5743,-1.94442,-0.0303432,0.322061,
2,1,0,1,0,24940,0.341387,0.341125,0.26325,37,0.0256181,10,8.98011e-05,-3.57963,-4.92512,-0.0119794,0.341009,
2,1,0,0,0,24943.8,0.360364,0.360054,0.260791,37,0.0266655,10,9.38989e-05,-3.58371,-5.196,-0.0113549,0.359939,
2,1,0,1,0,24947.5,0.379342,0.37907,0.258332,37,0.0277025,10,9.79259e-05,-3.58782,17.9712,0.00328304,0.378956,
2,1,0,1,0,24951.3,0.398319,0.398016,0.256154,37,0.0287307,10,0.000101953,-3.5915,-4.70058,-0.0125516,0.397903,
2,1,0,1,0,24955.1,0.417295,0.417004,0.254427,37,0.0297514,10,0.000106097,-3.59444,1.12323,0.0525272,0.416892,
2,1,0,1,0,24958.9,0.436272,0.435954,0.254284,37,0.0307664,10,0.000110856,-3.59468,9.43613,0.00625256,0.435842,
2,1,0,1,0,24962.7,0.455249,0.454996,0.253514,37,0.0317787,10,0.000115348,-3.596,10.3247,0.00571446,0.454884,
2,1,0,1,0,24966.5,0.474226,0.473886,0.254508,37,0.0327916,10,0.000120608,-3.5943,2.0769,0.0284077,0.473774,
2,1,0,1,0,24970.3,0.493203,0.49292,0.25659,37,0.0338094,10,0.000126478,-3.59076,1.72277,0.0342473,0.492807,
2,1,0,1,0,24974.1,0.512181,0.511905,0.261217,37,0.0348381,10,0.000133718,-3.583,1.49325,0.0395111,0.51179,
2,1,0,0,0,24977.9,0.531158,0.530882,0.266635,37,0.0358855,10,0.000141552,-3.57408,1.69481,0.0348121,0.530765,
2,1,0,1,0,24981.7,0.550135,0.54982,0.275507,37,0.0369609,10,0.000151479,-3.55987,0.827897,0.0712649,0.549699,
2,1,0,0,0,24985.5,0.569112,0.568832,0.290554,37,0.0380795,10,0.000165276,-3.53677,0.686877,0.0858961,0.568704,
2,1,0,1,0,24989.3,0.588089,0.587779,0.314563,37,0.0392666,10,0.000184893,-3.50229,0.453482,0.130104,0.587641,
2,1,0,0,0,24993.1,0.607066,0.606769,0.355539,37,0.0405724,10,0.00021573,-3.44911,0.258164,0.228537,0.606613,
2,1,0,1,0,24996.9,0.626044,0.625772,0.437668,37,0.042104,10,0.00027388,-3.35886,0.173645,0.339774,0.625579,
2,1,0,1,0,25000.7,0.64502,0.644738,0.605933,37,0.0440901,10,0.000390668,-3.21758,0.107103,0.55087,0.644472,
2,1,0,1,0,25004.5,0.663997,0.66369,0.968178,37,0.0470423,10,0.00064257,-3.01404,0.0827333,0.713135,0.663264,
2,1,0,1,0,25008.3,0.682974,0.682698,1.68262,37,0.0519784,10,0.00114872,-2.77401,0.075047,0.786174,0.681958,
2,1,0,1,0,25012.1,0.701951,0.701694,2.92617,37,0.0605863,10,0.00205327,-2.5337,0.0795949,0.741254,0.700407,
2,1,0,1,0,25015.9,0.720928,0.720646,4.77898,37,0.0750564,10,0.00344395,-2.32066,0.0922844,0.639328,0.718543,
2,1,0,1,0,25019.7,0.739905,0.739642,7.24792,37,0.0977311,10,0.00536087,-2.13979,0.106884,0.551999,0.736453,
2,1,0,1,0,25023.5,0.758883,0.758625,10.3365,37,0.130941,10,0.00784156,-1.98562,0.121265,0.486537,0.754076,
2,1,0,0,0,25027.3,0.77786,0.777577,14.2763,37,0.177339,10,0.0111009,-1.84538,0.12143,0.485877,0.771296,
2,1,0,1,0,25031,0.796837,0.796592,19.5408,37,0.241091,10,0.0155661,-1.70906,0.120364,0.490179,0.787994,
2,1,0,0,0,25034.8,0.815814,0.815558,26.0482,37,0.327376,10,0.0212438,-1.58422,0.145119,0.406564,0.804097,
2,1,0,1,0,25038.6,0.834791,0.83453,33.2691,37,0.43976,10,0.0277641,-1.47796,0.158949,0.371187,0.819891,
2,1,0,1,0,25042.3,0.846727,0.846487,37.0176,37,0.57472,10,0.0313349,-1.43159,0.125105,0.471604,0.830199,
2,1,0,1,0,25046.1,0.827749,0.827473,28.5665,37,0.698402,10,0.023638,-1.54414,0.133202,0.442938,0.814904,
2,1,0,1,0,25049.9,0.808772,0.808521,21.5874,37,0.793273,10,0.0174539,-1.6658,0.120527,0.489517,0.799022,
2,1,0,1,0,25053.7,0.789795,0.789512,15.7003,37,0.863331,10,0.0123956,-1.80409,0.112152,0.526073,0.782604,
2,1,0,1,0,25057.5,0.770818,0.770544,10.9576,37,0.913485,10,0.0084433,-1.96028,0.102617,0.574956,0.765722,
2,1,0,1,0,25061.3,0.751841,0.751593,7.39379,37,0.947937,10,0.00555713,-2.13113,0.0968282,0.609326,0.74834,
2,1,0,1,0,25065.1,0.732865,0.732577,4.75172,37,0.97068,10,0.003481,-2.32315,0.0861914,0.684523,0.730486,
2,1,0,1,0,25068.9,0.713887,0.713619,2.83606,37,0.984816,10,0.00202386,-2.54729,0.0754458,0.782018,0.712371,
2,1,0,0,0,25072.7,0.69491,0.694632,1.53656,37,0.992893,10,0.00106735,-2.81345,0.0637582,0.925371,0.693956,
2,1,0,1,0,25076.5,0.675933,0.675669,0.72964,37,0.997011,10,0.000492995,-3.13689,0.0528854,1.11562,0.675348,
2,1,0,0,0,25080.3,0.656956,0.656639,0.289771,37,0.998805,10,0.000190275,-3.53795,0.0411429,1.43402,0.656511,
2,1,0,1,0,25084.1,0.637979,0.637701,0.0769649,37,0.999402,10,4.90806e-05,-4.11371,0.0236506,2.49465,0.637667,
2,0,0,0,0,25087.9,0.619002,0.618729,-0.0172811,37,0.999443,10,-1.06924e-05,-4.76243,-0.0131577,-4.48405,0.618737,
2,0,0,1,0,25091.7,0.600025,0.599747,-0.0570595,37,0.999244,10,-3.42212e-05,-4.24367,-0.093973,-0.62784,0.599772,
2,0,0,1,0,25095.5,0.581047,0.580744,-0.075107,37,0.998942,10,-4.36179e-05,-4.12432,-0.391343,-0.150763,0.580777,
2,0,0,1,0,25099.3,0.56207,0.561755,-0.0860427,37,0.998586,10,-4.8335e-05,-4.06529,-0.473088,-0.124713,0.561793,
2,0,0,1,0,25103.1,0.543093,0.542796,-0.0929054,37,0.998198,10,-5.04286e-05,-4.03196,-0.950601,-0.062066,0.542836,
2,0,0,1,0,25106.9,0.524116,0.523809,-0.098187,37,0.997788,10,-5.14313e-05,-4.00795,-1.22289,-0.0482464,0.523853,
2,0,0,1,0,25110.6,0.505139,0.504871,-0.102965,37,0.997355,10,-5.1984e-05,-3.98731,-1.04199,-0.0566225,0.504916,
2,0,0,1,0,25114.4,0.486162,0.485864,-0.109722,37,0.996901,10,-5.33102e-05,-3.9597,-0.915229,-0.0644647,0.485912,
2,0,0,1,0,25118.2,0.467185,0.466884,-0.11545,37,0.996424,10,-5.39015e-05,-3.93761,-0.636186,-0.0927402,0.466935,
2,0,0,0,0,25122,0.448208,0.447892,-0.12322,37,0.995919,10,-5.51893e-05,-3.90932,-2.31653,-0.0254692,0.447946,
2,0,0,1,0,25125.8,0.429231,0.428953,-0.130601,37,0.995385,10,-5.60216e-05,-3.88405,-1.55172,-0.0380222,0.42901,
2,0,0,0,0,25129.6,0.410254,0.409936,-0.140546,37,0.994817,10,-5.7615e-05,-3.85218,-0.496565,-0.118816,0.409998,
2,0,0,1,0,25133.4,0.391277,0.390993,-0.149788,37,0.994211,10,-5.8566e-05,-3.82452,-0.813209,-0.0725521,0.391059,
2,0,0,0,0,25137.2,0.3723,0.371971,-0.15991,37,0.993567,10,-5.94816e-05,-3.79613,-0.7802,-0.0756216,0.372041,
2,0,0,1,0,25141,0.353322,0.353064,-0.1707,37,0.992883,10,-6.02679e-05,-3.76777,-0.628859,-0.0938207,0.353139,
2,0,0,1,0,25144.8,0.334345,0.334005,-0.182058,37,0.992153,10,-6.08081e-05,-3.73979,-0.735285,-0.080241,0.334085,
2,0,0,1,0,25148.6,0.315368,0.315081,-0.19258,37,0.99138,10,-6.06783e-05,-3.71539,-0.975659,-0.0604719,0.315165,
2,0,0,1,0,25152.4,0.296391,0.296092,-0.20573,37,0.990562,10,-6.09151e-05,-3.6867,-0.493579,-0.119535,0.296183,
2,0,0,1,0,25156.2,0.277414,0.277105,-0.218266,37,0.989696,10,-6.04824e-05,-3.66101,-0.77023,-0.0766005,0.277201,
2,0,0,1,0,25160,0.258437,0.258104,-0.230345,37,0.98878,10,-5.9453e-05,-3.63762,-0.884123,-0.0667328,0.258206,
2,0,0,1,0,25163.8,0.239461,0.23914,-0.242698,37,0.987818,10,-5.80389e-05,-3.61493,-0.884274,-0.0667214,0.239247,
2,0,0,1,0,25167.6,0.220483,0.22019,-0.255194,37,0.98681,10,-5.61913e-05,-3.59313,-0.686893,-0.085894,0.220303,
2,0,0,0,0,25171.4,0.201506,0.201174,-0.268795,37,0.98575,10,-5.40746e-05,-3.57058,-0.448047,-0.131682,0.201292,
2,0,0,1,0,25175.2,0.182529,0.182238,-0.288955,37,0.984625,10,-5.26587e-05,-3.53917,-0.36815,-0.160261,0.182366,
2,0,0,0,0,25179,0.163552,0.163213,-0.328722,37,0.983392,10,-5.36516e-05,-3.48317,-0.262853,-0.22446,0.163357,
2,0,0,1,0,25182.8,0.144575,0.144241,-0.447973,37,0.981896,10,-6.46161e-05,-3.34875,-0.0861421,-0.684915,0.144438,
2,0,0,0,0,25186.6,0.125598,0.12527,-0.684309,37,0.97965,10,-8.57236e-05,-3.16475,-0.194178,-0.303845,0.125571,
2,0,0,1,0,25190.4,0.10662,0.106319,-0.713146,37,0.976862,10,-7.58212e-05,-3.14682,0.798468,0.0738915,0.106633,
2,0,0,1,0,25194.1,0.0876433,0.0873434,-0.665175,37,0.974169,10,-5.80987e-05,-3.17706,0.638176,0.0924509,0.0876361,
2,0,0,1,0,25197.9,0.0686664,0.0683487,-0.620687,37,0.971664,10,-4.24232e-05,-3.20713,0.607126,0.0971792,0.0686218,
2,0,0,1,0,25201.7,0.0496895,0.0493812,-0.575938,37,0.969318,10,-2.84405e-05,-3.23962,0.542709,0.108714,0.0496346,
2,0,0,1,0,25205.5,0.0307126,0.0304204,-0.526661,37,0.967149,10,-1.60212e-05,-3.27847,0.441562,0.133616,0.0306521,
2,0,0,1,0,25209.3,0.0117356,0.0114255,-0.492615,37,0.965146,10,-5.62836e-06,-3.30749,1.11384,0.0529699,0.0116422,
2,0,0,1,0,25211.6,0.000274105,-8.6732e-05,-0.493643,37,0.963973,10,4.28146e-08,-3.30659, , ,0.000130471,