File: Figure_codes/Fig_3-5/workspace_calculate_alpha_eff/20221101_1-115_003_TrumpetPlot_ParaChange_from10_every3_16_CV_C01_87.csv
mode,ox/red,error,control changes,counter inc.,time/s,control/V,Ewe/V,<I>/mA,cycle number,(Q-Qo)/C,I Range,P/W,log(|I|),Tafel slope mV/dec,alpha_eff,E-IR/V,
2,0,0,1,0,58363.9,2.44065e-05,-0.000306236,-0.0408791,88,0.0000000E+000,10,1.25187e-08,-4.3885, , ,-0.000288249,
2,1,0,1,0,58367.7,0.0187763,0.0184147,0.26035,88,0.000866812,10,4.79427e-06,-3.58444,0.193225,0.305344,0.0183002,
2,1,0,0,0,58371.4,0.0377538,0.037388,0.323713,88,0.00202719,10,1.2103e-05,-3.48984,0.210804,0.279881,0.0372456,
2,1,0,1,0,58375.2,0.0567309,0.0563481,0.379653,88,0.00342054,10,2.13927e-05,-3.42061,0.32709,0.180379,0.056181,
2,1,0,0,0,58379,0.075708,0.0753432,0.42166,88,0.00500092,10,3.17692e-05,-3.37504,0.600598,0.0982354,0.0751576,
2,1,0,1,0,58382.8,0.094685,0.0943043,0.469347,88,0.00672893,10,4.42614e-05,-3.32851,0.275777,0.213941,0.0940978,
2,1,0,0,0,58386.6,0.113662,0.113286,0.561795,88,0.00874165,10,6.36433e-05,-3.25042,0.3882,0.151983,0.113038,
2,1,0,1,0,58390.4,0.132639,0.132269,0.588773,88,0.0109994,10,7.78764e-05,-3.23005,-0.452982,-0.130248,0.13201,
2,1,0,1,0,58394.2,0.151617,0.15126,0.39558,88,0.0129702,10,5.98356e-05,-3.40277,-0.0952488,-0.619431,0.151086,
2,1,0,1,0,58398,0.170594,0.170234,0.312924,88,0.0143118,10,5.32703e-05,-3.50456,-0.385148,-0.153188,0.170096,
2,1,0,1,0,58401.8,0.189571,0.189213,0.297935,88,0.0155105,10,5.63732e-05,-3.52588,-1.92131,-0.0307082,0.189082,
2,1,0,1,0,58405.6,0.208547,0.208198,0.291822,88,0.0166727,10,6.07569e-05,-3.53488,-3.01719,-0.0195546,0.20807,
2,1,0,1,0,58409.4,0.227524,0.227171,0.286244,88,0.0178134,10,6.50263e-05,-3.54326,-1.53914,-0.038333,0.227045,
2,1,0,1,0,58413.2,0.246501,0.246145,0.283342,88,0.0189382,10,6.97432e-05,-3.54769,-1.57603,-0.0374359,0.24602,
2,1,0,1,0,58417,0.265479,0.265118,0.278852,88,0.0200483,10,7.39286e-05,-3.55463,-1.53471,-0.0384439,0.264995,
2,1,0,0,0,58420.8,0.284456,0.284065,0.27526,88,0.021144,10,7.81916e-05,-3.56026,-4.05012,-0.0145675,0.283944,
2,1,0,1,0,58424.6,0.303433,0.303126,0.271496,88,0.0222225,10,8.22976e-05,-3.56624,-3.10629,-0.0189937,0.303006,
2,1,0,0,0,58428.4,0.32241,0.322036,0.268653,88,0.0232871,10,8.65161e-05,-3.57081,92.1991,0.000639919,0.321918,
2,1,0,1,0,58432.2,0.341387,0.341041,0.265731,88,0.0243388,10,9.06251e-05,-3.57556,6.16724,0.00956668,0.340924,
2,1,0,0,0,58436,0.360364,0.360057,0.263674,88,0.0253788,10,9.49377e-05,-3.57893,-2.50827,-0.0235222,0.359941,
2,1,0,1,0,58439.8,0.379342,0.378997,0.259883,88,0.0264078,10,9.84949e-05,-3.58522,-3.03286,-0.0194536,0.378883,
2,1,0,1,0,58443.6,0.398319,0.397966,0.258081,88,0.0274269,10,0.000102707,-3.58824,-6.26941,-0.00941077,0.397852,
2,1,0,1,0,58447.4,0.417295,0.416942,0.256199,88,0.0284381,10,0.00010682,-3.59142,-5.15729,-0.0114401,0.416829,
2,1,0,1,0,58451.1,0.436272,0.435903,0.254524,88,0.0294417,10,0.000110948,-3.59427,2.67355,0.022068,0.435791,
2,1,0,1,0,58454.9,0.455249,0.454907,0.254119,88,0.030441,10,0.000115601,-3.59496,1.81358,0.0325323,0.454795,
2,1,0,1,0,58458.7,0.474226,0.473848,0.255703,88,0.0314397,10,0.000121164,-3.59226,1.81776,0.0324576,0.473735,
2,1,0,1,0,58462.5,0.493203,0.492908,0.256996,88,0.0324422,10,0.000126675,-3.59007,2.91937,0.0202099,0.492795,
2,1,0,1,0,58466.3,0.512181,0.511822,0.260254,88,0.0334532,10,0.000133204,-3.5846,1.89321,0.031164,0.511708,
2,1,0,0,0,58470.1,0.531158,0.530826,0.265177,88,0.0344793,10,0.000140763,-3.57646,1.67535,0.0352164,0.530709,
2,1,0,1,0,58473.9,0.550135,0.549767,0.272187,88,0.0355294,10,0.000149639,-3.56513,0.992114,0.059469,0.549647,
2,1,0,0,0,58477.7,0.569112,0.568738,0.283873,88,0.0366129,10,0.000161449,-3.54688,0.818838,0.0720533,0.568613,
2,1,0,1,0,58481.5,0.588089,0.587767,0.301459,88,0.0377486,10,0.000177188,-3.52077,0.734343,0.0803439,0.587634,
2,1,0,0,0,58485.3,0.607066,0.60673,0.329847,88,0.0389682,10,0.000200128,-3.48169,0.372987,0.158182,0.606585,
2,1,0,1,0,58489.1,0.626044,0.625705,0.38274,88,0.0403361,10,0.000239482,-3.4171,0.23637,0.249608,0.625537,
2,1,0,1,0,58492.9,0.64502,0.644685,0.487084,88,0.0419908,10,0.000314016,-3.3124,0.145903,0.404379,0.644471,
2,1,0,1,0,58496.7,0.663997,0.663692,0.696902,88,0.0442178,10,0.000462528,-3.15683,0.105519,0.559141,0.663385,
2,1,0,1,0,58500.5,0.682974,0.682646,1.10228,88,0.0475834,10,0.00075247,-2.95771,0.0894826,0.659346,0.682161,
2,1,0,1,0,58504.3,0.701951,0.701613,1.79812,88,0.0530124,10,0.00126158,-2.74518,0.0883718,0.667634,0.700821,
2,1,0,1,0,58508.1,0.720928,0.720628,2.83995,88,0.0617264,10,0.00204655,-2.54669,0.0991649,0.594969,0.719378,
2,1,0,1,0,58511.9,0.739905,0.739581,4.25117,88,0.0750846,10,0.00314409,-2.37149,0.111295,0.53012,0.737711,
2,1,0,1,0,58515.7,0.758883,0.758524,6.0902,88,0.0945895,10,0.00461956,-2.21537,0.121116,0.487138,0.755844,
2,1,0,0,0,58519.5,0.77786,0.777555,8.45379,88,0.122035,10,0.00657328,-2.07295,0.12942,0.455879,0.773835,
2,1,0,1,0,58523.3,0.796837,0.796513,11.5192,88,0.159697,10,0.00917523,-1.93858,0.131664,0.448112,0.791444,
2,1,0,0,0,58527.1,0.815814,0.815437,15.6234,88,0.210896,10,0.0127399,-1.80622,0.13109,0.450071,0.808563,
2,1,0,1,0,58530.9,0.834791,0.834503,20.7086,88,0.279699,10,0.0172814,-1.68385,0.144848,0.407325,0.825391,
2,1,0,1,0,58534.5,0.846726,0.846434,23.7221,88,0.365657,10,0.0200792,-1.62485,0.108144,0.545567,0.835996,
2,1,0,1,0,58538.3,0.827749,0.827423,17.3148,88,0.44288,10,0.0143266,-1.76158,0.117068,0.503981,0.819805,
2,1,0,1,0,58542.1,0.808772,0.808446,12.5113,88,0.499003,10,0.0101147,-1.9027,0.116522,0.50634,0.802942,
2,1,0,1,0,58545.9,0.789795,0.789431,8.90064,88,0.539274,10,0.00702644,-2.05058,0.115327,0.51159,0.785514,
2,1,0,1,0,58549.7,0.770818,0.770497,6.23408,88,0.567713,10,0.00480334,-2.20523,0.11226,0.525566,0.767754,
2,1,0,1,0,58553.5,0.751841,0.751507,4.26263,88,0.587421,10,0.0032034,-2.37032,0.105534,0.559063,0.749632,
2,1,0,1,0,58557.3,0.732865,0.732544,2.79542,88,0.600649,10,0.00204777,-2.55355,0.0946269,0.623501,0.731314,
2,1,0,1,0,58561.1,0.713887,0.713589,1.70879,88,0.60906,10,0.00121937,-2.76731,0.0794358,0.742739,0.712837,
2,1,0,0,0,58564.9,0.69491,0.694604,0.941984,88,0.613969,10,0.000654306,-3.02596,0.0646311,0.912873,0.694189,
2,1,0,1,0,58568.7,0.675933,0.67562,0.44671,88,0.6165,10,0.000301806,-3.34997,0.0510151,1.15652,0.675424,
2,1,0,0,0,58572.5,0.656956,0.656613,0.163836,88,0.617572,10,0.000107577,-3.78559,0.0349268,1.68925,0.656541,
2,1,0,1,0,58576.3,0.637979,0.637684,0.0213548,88,0.617861,10,1.36176e-05,-4.6705,0.00909733,6.48542,0.637675,
2,0,0,0,0,58580.1,0.619002,0.618691,-0.0409174,88,0.617779,10,-2.53152e-05,-4.38809,-0.0484873,-1.21681,0.618709,
2,0,0,1,0,58583.9,0.600024,0.599683,-0.0694988,88,0.617532,10,-4.16773e-05,-4.15802,-0.231964,-0.254349,0.599714,
2,0,0,1,0,58587.7,0.581047,0.580706,-0.0822885,88,0.617212,10,-4.77855e-05,-4.08466,-0.293034,-0.201342,0.580742,
2,0,0,1,0,58591.5,0.56207,0.561734,-0.091114,88,0.61685,10,-5.11819e-05,-4.04041,-1.05474,-0.0559378,0.561775,
2,0,0,1,0,58595.3,0.543093,0.542751,-0.0970326,88,0.616465,10,-5.26646e-05,-4.01308,-1.17053,-0.0504047,0.542794,
2,0,0,1,0,58599.1,0.524116,0.523753,-0.102025,88,0.616059,10,-5.34359e-05,-3.99129,-3.20889,-0.0183864,0.523798,
2,0,0,1,0,58602.9,0.505139,0.504827,-0.106242,88,0.615634,10,-5.36339e-05,-3.9737,-0.656628,-0.089853,0.504874,
2,0,0,1,0,58606.7,0.486162,0.485816,-0.112163,88,0.615187,10,-5.44908e-05,-3.95015,-1.46694,-0.0402198,0.485866,
2,0,0,1,0,58610.5,0.467185,0.466821,-0.118421,88,0.614717,10,-5.52813e-05,-3.92657,-0.428614,-0.137653,0.466873,
2,0,0,0,0,58614.3,0.448208,0.447899,-0.12562,88,0.61422,10,-5.62651e-05,-3.90094,-1.20287,-0.0490494,0.447954,
2,0,0,1,0,58618,0.429231,0.428837,-0.133977,88,0.613693,10,-5.74542e-05,-3.87297,-0.702083,-0.0840356,0.428896,
2,0,0,0,0,58621.8,0.410254,0.409902,-0.143017,88,0.613132,10,-5.86229e-05,-3.84461,-1.3818,-0.042698,0.409965,
2,0,0,1,0,58625.6,0.391277,0.39089,-0.152906,88,0.612535,10,-5.97695e-05,-3.81558,-0.677932,-0.0870294,0.390958,
2,0,0,0,0,58629.4,0.3723,0.371887,-0.163679,88,0.611899,10,-6.08702e-05,-3.78601,-0.480266,-0.122849,0.371959,
2,0,0,1,0,58633.2,0.353322,0.352993,-0.172893,88,0.611223,10,-6.103e-05,-3.76222,-0.654274,-0.0901762,0.353069,
2,0,0,1,0,58637,0.334345,0.334035,-0.184911,88,0.610504,10,-6.17667e-05,-3.73304,-0.614396,-0.0960293,0.334117,
2,0,0,1,0,58640.8,0.315368,0.315031,-0.197053,88,0.609742,10,-6.20779e-05,-3.70542,-1.15453,-0.0511029,0.315118,
2,0,0,1,0,58644.6,0.296391,0.296041,-0.208868,88,0.608935,10,-6.18337e-05,-3.68013,-0.506958,-0.11638,0.296133,
2,0,0,1,0,58648.4,0.277414,0.277055,-0.220088,88,0.60808,10,-6.09764e-05,-3.6574,-0.655578,-0.0899969,0.277152,
2,0,0,1,0,58652.2,0.258437,0.258094,-0.232879,88,0.607176,10,-6.01047e-05,-3.63287,-0.784764,-0.0751819,0.258196,
2,0,0,1,0,58656,0.239461,0.239076,-0.244486,88,0.606226,10,-5.84507e-05,-3.61175,-0.809526,-0.0728821,0.239183,
2,0,0,1,0,58659.8,0.220483,0.220141,-0.256915,88,0.605233,10,-5.65574e-05,-3.59021,-0.563139,-0.10477,0.220254,
2,0,0,0,0,58663.6,0.201506,0.201176,-0.269419,88,0.604192,10,-5.42008e-05,-3.56957,-0.505362,-0.116748,0.201295,
2,0,0,1,0,58667.4,0.182529,0.182201,-0.285785,88,0.603093,10,-5.20705e-05,-3.54396,-0.695476,-0.084834,0.182327,
2,0,0,0,0,58671.2,0.163552,0.163154,-0.316873,88,0.60191,10,-5.16992e-05,-3.49912,-0.330346,-0.178601,0.163294,
2,0,0,1,0,58675,0.144575,0.144227,-0.395411,88,0.600542,10,-5.7029e-05,-3.40295,-0.120512,-0.489578,0.144401,
2,0,0,0,0,58678.8,0.125598,0.125229,-0.587045,88,0.598642,10,-7.3515e-05,-3.23133,-0.143291,-0.411749,0.125487,
2,0,0,1,0,58682.6,0.10662,0.106256,-0.658385,88,0.596166,10,-6.99572e-05,-3.18152,-13.7755,-0.00428295,0.106545,
2,0,0,1,0,58686.4,0.0876433,0.0872895,-0.64116,88,0.593639,10,-5.59665e-05,-3.19303,0.820052,0.0719466,0.0875716,
2,0,0,1,0,58690.2,0.0686664,0.0683051,-0.604105,88,0.591222,10,-4.12634e-05,-3.21889,0.617549,0.095539,0.0685709,
2,0,0,1,0,58694,0.0496895,0.0493072,-0.563863,88,0.588946,10,-2.78025e-05,-3.24883,0.617116,0.0956059,0.0495553,
2,0,0,1,0,58697.8,0.0307126,0.0302676,-0.520422,88,0.586831,10,-1.5752e-05,-3.28364,0.545452,0.108167,0.0304966,
2,0,0,1,0,58701.5,0.0117356,0.0113862,-0.491403,88,0.584864,10,-5.5952e-06,-3.30856,1.77965,0.0331527,0.0116024,
2,0,0,1,0,58703.8,0.000274105,-0.000135643,-0.490774,88,0.583707,10,6.65702e-08,-3.30912, , ,8.02972e-05,