File: Figure_codes/Fig_3-5/workspace_calculate_alpha_eff/20221101_1-115_003_TrumpetPlot_ParaChange_from10_every3_16_CV_C01_4.csv
mode,ox/red,error,control changes,counter inc.,time/s,control/V,Ewe/V,<I>/mA,cycle number,(Q-Qo)/C,I Range,P/W,log(|I|),Tafel slope mV/dec,alpha_eff,E-IR/V,
2,0,0,0,0,3570.25,2.44065e-05,-0.000439847,-0.0968499,5,0.0000000E+000,10,4.25992e-08,-4.0139, , ,-0.000397234,
2,1,0,1,0,3574,0.0187763,0.0184529,0.22236,5,0.000767984,10,4.10317e-06,-3.65294,0.168304,0.350555,0.018355,
2,1,0,1,0,3577.8,0.0377538,0.0374018,0.280825,5,0.00179548,10,1.05034e-05,-3.55156,0.190677,0.309424,0.0372783,
2,1,0,0,0,3581.59,0.0567309,0.0563979,0.356552,5,0.00308588,10,2.01088e-05,-3.44788,0.215855,0.273332,0.0562411,
2,1,0,1,0,3585.39,0.075708,0.0754047,0.423535,5,0.00464919,10,3.19365e-05,-3.37311,0.347887,0.169595,0.0752183,
2,1,0,0,0,3589.18,0.094685,0.09437,0.490874,5,0.00644555,10,4.63238e-05,-3.30903,0.226028,0.26103,0.094154,
2,1,0,1,0,3592.98,0.113662,0.113314,0.615693,5,0.00860246,10,6.97667e-05,-3.21064,0.21076,0.279939,0.113043,
2,1,0,0,0,3596.77,0.132639,0.132342,0.721997,5,0.0112243,10,9.55506e-05,-3.14146,0.582821,0.101232,0.132024,
2,1,0,1,0,3600.57,0.151617,0.151296,0.546428,5,0.0138518,10,8.26725e-05,-3.26247,-0.0701798,-0.840697,0.151056,
2,1,0,1,0,3604.36,0.170594,0.170258,0.344666,5,0.0155772,10,5.86822e-05,-3.4626,-0.10412,-0.566654,0.170107,
2,1,0,1,0,3608.16,0.189571,0.189249,0.282711,5,0.0168147,10,5.35027e-05,-3.54866,-0.4908,-0.120212,0.189124,
2,1,0,1,0,3611.95,0.208547,0.208258,0.260324,5,0.0179159,10,5.42147e-05,-3.58449,-0.544672,-0.108322,0.208144,
2,1,0,1,0,3615.75,0.227524,0.22723,0.248288,5,0.0189573,10,5.64185e-05,-3.60504,-1.25738,-0.0469228,0.227121,
2,1,0,1,0,3619.55,0.246501,0.246202,0.241581,5,0.019965,10,5.94776e-05,-3.61694,-1.07656,-0.0548043,0.246096,
2,1,0,0,0,3623.34,0.265479,0.26516,0.237656,5,0.0209502,10,6.30168e-05,-3.62405,-0.685828,-0.0860275,0.265056,
2,1,0,1,0,3627.14,0.284456,0.284142,0.23411,5,0.021918,10,6.65207e-05,-3.63058,7.47191,0.00789624,0.284039,
2,1,0,0,0,3630.93,0.303433,0.303124,0.230306,5,0.0228691,10,6.98112e-05,-3.63769,-4.85545,-0.0121513,0.303022,
2,1,0,1,0,3634.73,0.32241,0.322106,0.226853,5,0.023804,10,7.30709e-05,-3.64425,-1.12828,-0.0522919,0.322006,
2,1,0,0,0,3638.52,0.341387,0.341118,0.222749,5,0.024726,10,7.59836e-05,-3.65218,-2.82494,-0.0208854,0.34102,
2,1,0,1,0,3642.32,0.360364,0.360058,0.22077,5,0.0256372,10,7.949e-05,-3.65606,30.1033,0.00195992,0.359961,
2,1,0,1,0,3646.11,0.379342,0.37906,0.219571,5,0.0265387,10,8.32306e-05,-3.65842,-1.43082,-0.0412351,0.378963,
2,1,0,1,0,3649.91,0.398318,0.39799,0.216241,5,0.027431,10,8.60618e-05,-3.66506,-6.64581,-0.00887778,0.397895,
2,1,0,1,0,3653.7,0.417295,0.417051,0.216368,5,0.0283187,10,9.02365e-05,-3.66481,30.0841,0.00196117,0.416956,
2,1,0,1,0,3657.5,0.436272,0.436033,0.215536,5,0.0292041,10,9.39806e-05,-3.66648,8.94831,0.00659343,0.435938,
2,1,0,1,0,3661.29,0.455249,0.455006,0.217308,5,0.0300909,10,9.88765e-05,-3.66292,1.66459,0.0354442,0.45491,
2,1,0,1,0,3665.09,0.474226,0.473951,0.218821,5,0.0309816,10,0.00010371,-3.65991,1.14055,0.0517294,0.473854,
2,1,0,1,0,3668.89,0.493203,0.492931,0.22176,5,0.0318821,10,0.000109312,-3.65412,2.01816,0.0292345,0.492833,
2,1,0,0,0,3672.68,0.512181,0.511929,0.227762,5,0.0328,10,0.000116598,-3.64252,1.87865,0.0314055,0.511829,
2,1,0,1,0,3676.48,0.531158,0.530896,0.235606,5,0.0337444,10,0.000125082,-3.62781,0.786035,0.0750603,0.530792,
2,1,0,0,0,3680.27,0.550135,0.549837,0.248532,5,0.0347266,10,0.000136652,-3.60462,0.520798,0.113288,0.549728,
2,1,0,1,0,3684.07,0.569112,0.568813,0.269042,5,0.0357699,10,0.000153035,-3.57018,0.397344,0.148486,0.568694,
2,1,0,0,0,3687.86,0.588089,0.587759,0.30596,5,0.036919,10,0.000179831,-3.51434,0.254064,0.232225,0.587624,
2,1,0,1,0,3691.66,0.607066,0.606801,0.375393,5,0.0382615,10,0.000227789,-3.42551,0.169535,0.34801,0.606636,
2,1,0,1,0,3695.45,0.626043,0.62579,0.519587,5,0.0399907,10,0.000325153,-3.28434,0.110419,0.53433,0.625561,
2,1,0,1,0,3699.25,0.64502,0.644767,0.838684,5,0.042552,10,0.000540756,-3.0764,0.076957,0.766662,0.644398,
2,1,0,1,0,3703.04,0.663997,0.663732,1.54809,5,0.0469785,10,0.00102752,-2.8102,0.0657336,0.897562,0.663051,
2,1,0,1,0,3706.84,0.682974,0.682706,2.99552,5,0.0553794,10,0.00204506,-2.52353,0.0649298,0.908674,0.681388,
2,1,0,1,0,3710.64,0.701951,0.701674,5.48562,5,0.0711908,10,0.00384912,-2.26077,0.0734906,0.802824,0.69926,
2,1,0,1,0,3714.43,0.720928,0.720676,9.02115,5,0.0984943,10,0.00650133,-2.04474,0.0901858,0.654205,0.716707,
2,1,0,1,0,3718.23,0.739905,0.739675,13.374,5,0.140822,10,0.00989245,-1.87374,0.109731,0.537678,0.73379,
2,1,0,0,0,3722.02,0.758883,0.758657,18.7197,5,0.201411,10,0.0142019,-1.7277,0.117491,0.502167,0.750421,
2,1,0,1,0,3725.82,0.77786,0.777537,25.3516,5,0.284624,10,0.0197118,-1.59599,0.121315,0.486336,0.766382,
2,1,0,0,0,3729.61,0.796837,0.796606,33.2006,5,0.39556,10,0.0264478,-1.47885,0.143667,0.410672,0.781998,
2,1,0,1,0,3733.41,0.815814,0.815573,41.5222,5,0.537218,10,0.0338644,-1.38172,0.177609,0.332191,0.797303,
2,1,0,0,0,3737.2,0.834791,0.834549,49.3795,5,0.709958,10,0.0412096,-1.30645,0.234068,0.252064,0.812822,
2,1,0,0,0,3740.9,0.846726,0.846495,52.6402,5,0.903854,10,0.0445597,-1.27868,0.202182,0.291817,0.823333,
2,1,0,1,0,3744.69,0.827749,0.827497,44.103,5,1.0869,10,0.0364951,-1.35553,0.176136,0.334967,0.808092,
2,1,0,1,0,3748.49,0.808772,0.808509,35.8611,5,1.23818,10,0.028994,-1.44538,0.140989,0.418472,0.79273,
2,1,0,1,0,3752.29,0.789795,0.789555,27.6165,5,1.35841,10,0.0218047,-1.55883,0.118871,0.496337,0.777403,
2,1,0,1,0,3756.08,0.770818,0.770583,19.855,5,1.44781,10,0.0152999,-1.70213,0.103588,0.569562,0.761847,
2,1,0,1,0,3759.88,0.751841,0.751563,13.4092,5,1.51003,10,0.0100778,-1.8726,0.100314,0.588154,0.745662,
2,1,0,1,0,3763.67,0.732865,0.732606,8.71451,5,1.55165,10,0.0063843,-2.05976,0.0830367,0.710529,0.728771,
2,1,0,0,0,3767.47,0.713887,0.71361,5.16707,5,1.57752,10,0.00368728,-2.28676,0.0712818,0.8277,0.711337,
2,1,0,1,0,3771.26,0.69491,0.694648,2.7701,5,1.59218,10,0.00192425,-2.5575,0.0614585,0.959998,0.693429,
2,1,0,0,0,3775.06,0.675933,0.675655,1.3099,5,1.5996,10,0.000885043,-2.88276,0.0521175,1.13206,0.675079,
2,1,0,1,0,3778.85,0.656956,0.656713,0.534135,5,1.60286,10,0.000350773,-3.27235,0.0439066,1.34376,0.656478,
2,1,0,0,0,3782.65,0.637979,0.637739,0.171326,5,1.60404,10,0.000109261,-3.76618,0.0309265,1.90775,0.637664,
2,1,0,1,0,3786.44,0.619002,0.618694,0.0140022,5,1.60428,10,8.66308e-06,-4.8538,0.0041582,14.1888,0.618688,
2,0,0,0,0,3790.24,0.600024,0.599733,-0.0511878,5,1.60413,10,-3.0699e-05,-4.29083,-0.0564875,-1.04448,0.599756,
2,0,0,1,0,3794.03,0.581047,0.580759,-0.0835369,5,1.6038,10,-4.85148e-05,-4.07812,-0.216335,-0.272725,0.580796,
2,0,0,1,0,3797.83,0.56207,0.56177,-0.0972082,5,1.6034,10,-5.46087e-05,-4.0123,-0.499151,-0.118201,0.561813,
2,0,0,1,0,3801.63,0.543093,0.542803,-0.105705,5,1.60295,10,-5.73771e-05,-3.9759,-0.400323,-0.147381,0.54285,
2,0,0,1,0,3805.42,0.524116,0.523821,-0.112144,5,1.60247,10,-5.87436e-05,-3.95022,-0.522488,-0.112921,0.52387,
2,0,0,1,0,3809.22,0.505139,0.504859,-0.117153,5,1.60198,10,-5.91456e-05,-3.93125,16.112,0.00366186,0.50491,
2,0,0,1,0,3813.01,0.486162,0.485893,-0.120944,5,1.60146,10,-5.87658e-05,-3.91742,-1.35225,-0.0436309,0.485947,
2,0,0,1,0,3816.81,0.467185,0.466888,-0.126899,5,1.60093,10,-5.92475e-05,-3.89654,2.13543,0.0276291,0.466944,
2,0,0,1,0,3820.6,0.448208,0.447976,-0.134535,5,1.60036,10,-6.02684e-05,-3.87117,-0.984014,-0.0599585,0.448036,
2,0,0,0,0,3824.4,0.429231,0.428924,-0.14271,5,1.59977,10,-6.12119e-05,-3.84554,-12.7406,-0.00463088,0.428987,
2,0,0,1,0,3828.19,0.410254,0.409951,-0.151599,5,1.59915,10,-6.21481e-05,-3.8193,-1.95476,-0.0301827,0.410018,
2,0,0,0,0,3831.99,0.391277,0.390956,-0.160324,5,1.59849,10,-6.26795e-05,-3.795,-1.34848,-0.0437529,0.391027,
2,0,0,1,0,3835.78,0.3723,0.372023,-0.170926,5,1.59779,10,-6.35883e-05,-3.76719,-0.890467,-0.0662574,0.372098,
2,0,0,1,0,3839.58,0.353322,0.353017,-0.182351,5,1.59705,10,-6.43728e-05,-3.73909,-0.451894,-0.130562,0.353097,
2,0,0,1,0,3843.38,0.334345,0.334041,-0.192358,5,1.59627,10,-6.42553e-05,-3.71589,-0.654521,-0.0901422,0.334125,
2,0,0,1,0,3847.17,0.315368,0.315074,-0.204882,5,1.59544,10,-6.45529e-05,-3.6885,-0.662728,-0.0890259,0.315165,
2,0,0,1,0,3850.97,0.296391,0.296112,-0.217151,5,1.59457,10,-6.43009e-05,-3.66324,-0.56379,-0.104649,0.296208,
2,0,0,1,0,3854.76,0.277414,0.277172,-0.230461,5,1.59364,10,-6.38772e-05,-3.6374,-0.914795,-0.0644954,0.277273,
2,0,0,1,0,3858.56,0.258437,0.258093,-0.241744,5,1.59267,10,-6.23924e-05,-3.61664,-0.707366,-0.083408,0.258199,
2,0,0,1,0,3862.35,0.239461,0.239133,-0.253796,5,1.59166,10,-6.0691e-05,-3.59551,-1.13167,-0.0521351,0.239245,
2,0,0,0,0,3866.15,0.220483,0.220232,-0.2672,5,1.5906,10,-5.8846e-05,-3.57316,-0.587517,-0.100423,0.220349,
2,0,0,1,0,3869.94,0.201506,0.201193,-0.283349,5,1.58948,10,-5.70078e-05,-3.54768,-0.451369,-0.130713,0.201318,
2,0,0,0,0,3873.74,0.182529,0.182249,-0.3125,5,1.58828,10,-5.69528e-05,-3.50515,-0.273491,-0.215729,0.182387,
2,0,0,1,0,3877.53,0.163552,0.163242,-0.383225,5,1.58691,10,-6.25585e-05,-3.41655,-0.153555,-0.384227,0.163411,
2,0,0,0,0,3881.33,0.144575,0.14427,-0.604168,5,1.58504,10,-8.7163e-05,-3.21884,-0.0718173,-0.821529,0.144535,
2,0,0,1,0,3885.12,0.125598,0.125336,-0.835394,5,1.58212,10,-0.000104705,-3.07811,-0.831953,-0.0709174,0.125704,
2,0,0,1,0,3888.92,0.10662,0.106295,-0.781125,5,1.57893,10,-8.30298e-05,-3.10728,0.455192,0.129616,0.106639,
2,0,0,1,0,3892.72,0.0876433,0.0873403,-0.690608,5,1.57606,10,-6.03179e-05,-3.16077,0.43323,0.136186,0.0876441,
2,0,0,1,0,3896.51,0.0686664,0.0683732,-0.636164,5,1.57348,10,-4.34965e-05,-3.19643,0.613175,0.0962205,0.0686531,
2,0,0,1,0,3900.31,0.0496895,0.0493697,-0.57831,5,1.57108,10,-2.8551e-05,-3.23784,0.408452,0.144448,0.0496241,
2,0,0,1,0,3904.1,0.0307126,0.0304351,-0.519922,5,1.56892,10,-1.58239e-05,-3.28406,0.479078,0.123153,0.0306638,
2,0,0,1,0,3907.9,0.0117356,0.0114381,-0.490256,5,1.56693,10,-5.6076e-06,-3.30958,1.49419,0.0394862,0.0116538,
2,0,0,0,0,3910.19,0.000274105,-7.00306e-05,-0.496112,5,1.56575,10,3.4743e-08,-3.30442, , ,0.000148259,