File: Figure_codes/Fig_3-5/workspace_calculate_alpha_eff/20221101_1-115_003_TrumpetPlot_ParaChange_from10_every3_16_CV_C01_67.csv
mode,ox/red,error,control changes,counter inc.,time/s,control/V,Ewe/V,<I>/mA,cycle number,(Q-Qo)/C,I Range,P/W,log(|I|),Tafel slope mV/dec,alpha_eff,E-IR/V,
2,0,0,0,0,44943,2.44065e-05,-0.000516197,-0.0860374,68,0.0000000E+000,10,4.44122e-08,-4.06531, , ,-0.00047834,
2,1,0,1,0,44946.7,0.0187763,0.0184647,0.214748,68,0.000706857,10,3.96526e-06,-3.66807,0.147305,0.40053,0.0183702,
2,1,0,1,0,44950.5,0.0377538,0.0374039,0.279663,68,0.00170637,10,1.04605e-05,-3.55336,0.179184,0.329271,0.0372809,
2,1,0,0,0,44954.3,0.0567309,0.0564128,0.340753,68,0.00295342,10,1.92228e-05,-3.46756,0.290829,0.202868,0.0562629,
2,1,0,1,0,44958.1,0.075708,0.0754068,0.387094,68,0.00440577,10,2.91895e-05,-3.41218,0.400798,0.147206,0.0752365,
2,1,0,0,0,44961.9,0.094685,0.0943425,0.441722,68,0.00602642,10,4.16731e-05,-3.35485,0.24983,0.236161,0.0941481,
2,1,0,1,0,44965.7,0.113662,0.113344,0.536588,68,0.00794533,10,6.08189e-05,-3.27036,0.333176,0.177083,0.113108,
2,1,0,0,0,44969.5,0.132639,0.132335,0.577421,68,0.0101441,10,7.64129e-05,-3.23851,-0.647062,-0.0911813,0.132081,
2,1,0,1,0,44973.3,0.151617,0.151343,0.379542,68,0.0120893,10,5.7441e-05,-3.42074,-0.0771646,-0.764599,0.151176,
2,1,0,1,0,44977.1,0.170594,0.170242,0.286545,68,0.0133556,10,4.87821e-05,-3.54281,-0.30986,-0.190409,0.170116,
2,1,0,1,0,44980.9,0.189571,0.189239,0.267965,68,0.0144556,10,5.07095e-05,-3.57192,-1.15019,-0.051296,0.189122,
2,1,0,1,0,44984.7,0.208547,0.208207,0.259496,68,0.015509,10,5.40287e-05,-3.58587,18.893,0.00312285,0.208092,
2,1,0,1,0,44988.5,0.227524,0.227189,0.252537,68,0.0165342,10,5.73737e-05,-3.59767,-0.995226,-0.059283,0.227078,
2,1,0,1,0,44992.3,0.246501,0.246162,0.248033,68,0.0175382,10,6.10561e-05,-3.60549,-1.61587,-0.0365128,0.246052,
2,1,0,0,0,44996.1,0.265479,0.265161,0.245029,68,0.0185256,10,6.49722e-05,-3.61078,-1.41611,-0.0416634,0.265053,
2,1,0,1,0,44999.9,0.284456,0.284162,0.240974,68,0.0194977,10,6.84756e-05,-3.61803,-2.15202,-0.0274161,0.284056,
2,1,0,0,0,45003.7,0.303433,0.303161,0.236314,68,0.0204522,10,7.16413e-05,-3.62651,-2.66043,-0.0221769,0.303057,
2,1,0,1,0,45007.5,0.32241,0.322096,0.23309,68,0.0213904,10,7.50773e-05,-3.63248,-2.86194,-0.0206154,0.321993,
2,1,0,0,0,45011.3,0.341387,0.341028,0.230016,68,0.022317,10,7.84419e-05,-3.63824,-1.38334,-0.0426503,0.340927,
2,1,0,1,0,45015.1,0.360364,0.360051,0.228756,68,0.0232328,10,8.23636e-05,-3.64063,-1.02271,-0.0576898,0.35995,
2,1,0,1,0,45018.9,0.379342,0.379032,0.225729,68,0.024138,10,8.55584e-05,-3.64641,-1.48714,-0.0396734,0.378933,
2,1,0,1,0,45022.6,0.398319,0.398006,0.224548,68,0.0250361,10,8.93714e-05,-3.64869,12.417,0.00475156,0.397907,
2,1,0,1,0,45026.4,0.417295,0.417021,0.224194,68,0.0259297,10,9.34938e-05,-3.64938,-7.45332,-0.00791594,0.416922,
2,1,0,1,0,45030.2,0.436272,0.435944,0.224086,68,0.0268206,10,9.76889e-05,-3.64959,2.35854,0.0250155,0.435845,
2,1,0,1,0,45034,0.455249,0.454956,0.223578,68,0.0277091,10,0.000101718,-3.65057,7.69662,0.0076657,0.454858,
2,1,0,1,0,45037.8,0.474226,0.473947,0.225265,68,0.0285987,10,0.000106763,-3.64731,1.02558,0.0575282,0.473847,
2,1,0,1,0,45041.6,0.493203,0.492904,0.227956,68,0.0294951,10,0.000112361,-3.64215,1.25831,0.0468882,0.492804,
2,1,0,0,0,45045.4,0.512181,0.511869,0.232037,68,0.0304037,10,0.000118773,-3.63444,1.18142,0.04994,0.511767,
2,1,0,1,0,45049.2,0.531158,0.530852,0.237534,68,0.0313299,10,0.000126095,-3.62428,1.41352,0.0417398,0.530748,
2,1,0,0,0,45053,0.550135,0.549862,0.246211,68,0.0322826,10,0.000135382,-3.60869,1.04727,0.056337,0.549754,
2,1,0,1,0,45056.8,0.569112,0.568809,0.25935,68,0.0332764,10,0.00014752,-3.58611,0.610429,0.0966533,0.568694,
2,1,0,0,0,45060.6,0.588089,0.587792,0.279887,68,0.0343324,10,0.000164515,-3.55302,0.437505,0.134856,0.587669,
2,1,0,1,0,45064.4,0.607066,0.606755,0.315168,68,0.03549,10,0.00019123,-3.50146,0.293702,0.200884,0.606617,
2,1,0,1,0,45068.2,0.626044,0.625726,0.380756,68,0.0368307,10,0.000238249,-3.41935,0.17574,0.335723,0.625559,
2,1,0,1,0,45072,0.64502,0.644728,0.516072,68,0.0385359,10,0.000332726,-3.28729,0.118905,0.496196,0.644501,
2,1,0,1,0,45075.8,0.663997,0.663709,0.793237,68,0.0409887,10,0.000526478,-3.1006,0.086611,0.681207,0.66336,
2,1,0,1,0,45079.6,0.682974,0.682695,1.33135,68,0.0449496,10,0.000908904,-2.87571,0.0817309,0.721881,0.682109,
2,1,0,1,0,45083.4,0.701951,0.701664,2.25633,68,0.0516523,10,0.00158318,-2.6466,0.0807189,0.730932,0.700671,
2,1,0,1,0,45087.2,0.720928,0.720632,3.63651,68,0.0627349,10,0.00262058,-2.43932,0.0957834,0.615973,0.719032,
2,1,0,1,0,45091,0.739905,0.739638,5.4879,68,0.0799304,10,0.00405906,-2.26059,0.106877,0.552035,0.737223,
2,1,0,0,0,45094.8,0.758883,0.758565,7.8779,68,0.105145,10,0.0059759,-2.10359,0.119537,0.493572,0.755099,
2,1,0,1,0,45098.6,0.77786,0.777596,10.9663,68,0.14068,10,0.00852733,-1.95994,0.12566,0.469522,0.772771,
2,1,0,0,0,45102.4,0.796837,0.796533,15.0732,68,0.189762,10,0.0120063,-1.82179,0.120524,0.489528,0.789901,
2,1,0,1,0,45106.1,0.815814,0.815573,20.5638,68,0.257017,10,0.0167712,-1.6869,0.127206,0.463814,0.806524,
2,1,0,0,0,45109.9,0.834791,0.834557,27.1181,68,0.347312,10,0.0226316,-1.56674,0.146576,0.40252,0.822625,
2,1,0,0,0,45113.6,0.846726,0.846466,30.6736,68,0.458947,10,0.0259642,-1.51324,0.102803,0.573915,0.83297,
2,1,0,1,0,45117.4,0.827749,0.827454,22.7676,68,0.559466,10,0.0188391,-1.64268,0.121828,0.48429,0.817436,
2,1,0,1,0,45121.2,0.808772,0.808504,16.6124,68,0.633658,10,0.0134312,-1.77957,0.120168,0.490978,0.801194,
2,1,0,1,0,45125,0.789795,0.789494,11.8569,68,0.687259,10,0.00936098,-1.92603,0.1108,0.53249,0.784277,
2,1,0,1,0,45128.8,0.770818,0.770587,8.28301,68,0.725102,10,0.00638278,-2.08181,0.110265,0.535076,0.766943,
2,1,0,1,0,45132.6,0.751841,0.751591,5.63383,68,0.751229,10,0.00423434,-2.2492,0.102055,0.578121,0.749112,
2,1,0,1,0,45136.4,0.732865,0.732632,3.65794,68,0.76861,10,0.00267993,-2.43676,0.0926869,0.636552,0.731023,
2,1,0,0,0,45140.2,0.713887,0.713614,2.24391,68,0.779624,10,0.00160129,-2.64899,0.0795774,0.741416,0.712627,
2,1,0,1,0,45144,0.69491,0.694675,1.23808,68,0.786062,10,0.000860061,-2.90725,0.0660607,0.893118,0.69413,
2,1,0,0,0,45147.8,0.675933,0.675655,0.585749,68,0.789387,10,0.000395764,-3.23229,0.0517249,1.14065,0.675397,
2,1,0,1,0,45151.6,0.656956,0.656687,0.217437,68,0.790803,10,0.000142788,-3.66267,0.0371234,1.5893,0.656591,
2,1,0,0,0,45155.4,0.637979,0.637648,0.0359733,68,0.791204,10,2.29383e-05,-4.44402,0.0117671,5.01399,0.637632,
2,0,0,1,0,45159.2,0.619002,0.618697,-0.045296,68,0.791126,10,-2.80245e-05,-4.34394,-0.0405191,-1.4561,0.618716,
2,0,0,0,0,45163,0.600024,0.599689,-0.0813277,68,0.790838,10,-4.87713e-05,-4.08976,-0.138787,-0.425113,0.599724,
2,0,0,1,0,45166.8,0.581047,0.580719,-0.0992017,68,0.790455,10,-5.76083e-05,-4.00348,-0.358597,-0.16453,0.580762,
2,0,0,1,0,45170.6,0.56207,0.561775,-0.108508,68,0.790025,10,-6.0957e-05,-3.96454,-0.719445,-0.0820077,0.561823,
2,0,0,1,0,45174.4,0.543093,0.542793,-0.113647,68,0.789568,10,-6.16867e-05,-3.94444,-2.26799,-0.0260142,0.542843,
2,0,0,1,0,45178.2,0.524116,0.5238,-0.118205,68,0.789091,10,-6.19157e-05,-3.92736,-3.13058,-0.0188463,0.523852,
2,0,0,1,0,45182,0.505139,0.504843,-0.123451,68,0.788593,10,-6.23234e-05,-3.90851,-0.665464,-0.08866,0.504897,
2,0,0,1,0,45185.7,0.486162,0.485856,-0.128459,68,0.788077,10,-6.24125e-05,-3.89124,-2.77554,-0.0212571,0.485912,
2,0,0,1,0,45189.5,0.467185,0.466846,-0.133862,68,0.78754,10,-6.24928e-05,-3.87334,-0.876712,-0.0672969,0.466905,
2,0,0,1,0,45193.3,0.448208,0.447928,-0.141645,68,0.786977,10,-6.34465e-05,-3.8488,-0.925625,-0.0637407,0.44799,
2,0,0,0,0,45197.1,0.429231,0.428962,-0.148885,68,0.786385,10,-6.38662e-05,-3.82715,-0.960946,-0.0613979,0.429028,
2,0,0,1,0,45200.9,0.410254,0.409948,-0.157996,68,0.78576,10,-6.47701e-05,-3.80135,-1.4601,-0.0404083,0.410018,
2,0,0,0,0,45204.7,0.391277,0.390963,-0.167865,68,0.785099,10,-6.56288e-05,-3.77504,-0.535472,-0.110183,0.391036,
2,0,0,1,0,45208.5,0.3723,0.371936,-0.176938,68,0.7844,10,-6.58097e-05,-3.75218,-0.514627,-0.114646,0.372014,
2,0,0,1,0,45212.3,0.353322,0.352996,-0.186306,68,0.783661,10,-6.57653e-05,-3.72977,-0.931696,-0.0633254,0.353078,
2,0,0,1,0,45216.1,0.334345,0.334059,-0.198912,68,0.782881,10,-6.64483e-05,-3.70134,-0.664148,-0.0888356,0.334146,
2,0,0,1,0,45219.9,0.315368,0.315055,-0.208558,68,0.782057,10,-6.57073e-05,-3.68077,-2.1099,-0.0279634,0.315147,
2,0,0,1,0,45223.7,0.296391,0.296074,-0.221457,68,0.781189,10,-6.55677e-05,-3.65471,-0.666805,-0.0884816,0.296172,
2,0,0,1,0,45227.5,0.277414,0.277105,-0.23315,68,0.780273,10,-6.4607e-05,-3.63236,-0.632566,-0.0932709,0.277207,
2,0,0,1,0,45231.3,0.258437,0.258167,-0.245374,68,0.77931,10,-6.33474e-05,-3.61017,-1.12961,-0.0522304,0.258275,
2,0,0,1,0,45235.1,0.239461,0.239124,-0.257102,68,0.778304,10,-6.14795e-05,-3.58989,-0.887443,-0.0664831,0.239238,
2,0,0,0,0,45238.9,0.220483,0.220175,-0.268764,68,0.777252,10,-5.9175e-05,-3.57063,-0.935771,-0.0630496,0.220293,
2,0,0,1,0,45242.7,0.201506,0.201223,-0.282162,68,0.776152,10,-5.67775e-05,-3.5495,-0.549,-0.107468,0.201347,
2,0,0,0,0,45246.5,0.182529,0.182217,-0.300262,68,0.774993,10,-5.4713e-05,-3.5225,-0.392176,-0.150443,0.182349,
2,0,0,1,0,45250.3,0.163552,0.163224,-0.331459,68,0.773741,10,-5.41022e-05,-3.47957,-0.29389,-0.200755,0.16337,
2,0,0,0,0,45254.1,0.144575,0.144249,-0.425465,68,0.772278,10,-6.13731e-05,-3.37114,-0.105411,-0.559712,0.144437,
2,0,0,1,0,45257.9,0.125598,0.125268,-0.639177,68,0.770192,10,-8.00685e-05,-3.19438,-0.171314,-0.344397,0.125549,
2,0,0,1,0,45261.7,0.10662,0.106281,-0.692415,68,0.767542,10,-7.35907e-05,-3.15963,2.3892,0.0246944,0.106586,
2,0,0,1,0,45265.5,0.0876433,0.0873405,-0.661902,68,0.7649,10,-5.78109e-05,-3.17921,0.746517,0.0790337,0.0876317,
2,0,0,1,0,45269.2,0.0686664,0.0683773,-0.619696,68,0.762406,10,-4.23731e-05,-3.20782,0.743459,0.0793588,0.0686499,
2,0,0,1,0,45273,0.0496895,0.0493941,-0.575162,68,0.760068,10,-2.84096e-05,-3.24021,0.570598,0.1034,0.0496472,
2,0,0,1,0,45276.8,0.0307126,0.0303905,-0.527249,68,0.757907,10,-1.60234e-05,-3.27798,0.576598,0.102324,0.0306225,
2,0,0,1,0,45280.6,0.0117356,0.0114083,-0.498585,68,0.755905,10,-5.68803e-06,-3.30226,1.17938,0.0500264,0.0116277,
2,0,0,0,0,45282.9,0.000274105,-7.83813e-05,-0.499841,68,0.754725,10,3.91782e-08,-3.30117, , ,0.000141549,