File: Figure_codes/Fig_3-5/workspace_calculate_alpha_eff/20221101_1-115_003_TrumpetPlot_ParaChange_from10_every3_16_CV_C01_68.csv
mode,ox/red,error,control changes,counter inc.,time/s,control/V,Ewe/V,<I>/mA,cycle number,(Q-Qo)/C,I Range,P/W,log(|I|),Tafel slope mV/dec,alpha_eff,E-IR/V,
2,0,0,0,0,45313,2.44065e-05,-0.000306236,-0.10639,69,0.0000000E+000,10,3.25806e-08,-3.9731, , ,-0.000259424,
2,1,0,1,0,45316.7,0.0187763,0.0184423,0.20578,69,0.000676958,10,3.79505e-06,-3.6866,0.14196,0.415611,0.0183517,
2,1,0,1,0,45320.5,0.0377538,0.0373859,0.270143,69,0.00164345,10,1.00996e-05,-3.56841,0.192178,0.307008,0.037267,
2,1,0,0,0,45324.3,0.0567309,0.056416,0.332394,69,0.00285748,10,1.87523e-05,-3.47835,0.2882,0.204719,0.0562697,
2,1,0,1,0,45328.1,0.075708,0.0753972,0.379875,69,0.00427913,10,2.86415e-05,-3.42036,0.413925,0.142538,0.0752301,
2,1,0,0,0,45331.9,0.094685,0.0943764,0.434147,69,0.00587148,10,4.09732e-05,-3.36236,0.257946,0.22873,0.0941854,
2,1,0,1,0,45335.7,0.113662,0.113354,0.531112,69,0.00776441,10,6.0204e-05,-3.27481,0.33441,0.17643,0.113121,
2,1,0,0,0,45339.5,0.132639,0.132353,0.569338,69,0.00993746,10,7.53534e-05,-3.24463,-0.63032,-0.0936033,0.132102,
2,1,0,1,0,45343.3,0.151617,0.151334,0.369349,69,0.01185,10,5.58953e-05,-3.43256,-0.075878,-0.777564,0.151172,
2,1,0,1,0,45347.1,0.170594,0.170315,0.275064,69,0.0130753,10,4.68474e-05,-3.56057,-0.319829,-0.184474,0.170194,
2,1,0,1,0,45350.9,0.189571,0.189248,0.257188,69,0.0141355,10,4.86723e-05,-3.58975,-0.828572,-0.0712069,0.189135,
2,1,0,1,0,45354.7,0.208547,0.208226,0.249569,69,0.0151506,10,5.19667e-05,-3.60281,-1.79691,-0.0328342,0.208116,
2,1,0,1,0,45358.5,0.227524,0.227251,0.244627,69,0.0161397,10,5.55919e-05,-3.6115,-1.48965,-0.0396067,0.227144,
2,1,0,1,0,45362.3,0.246501,0.246204,0.240217,69,0.017111,10,5.91424e-05,-3.6194,-0.768438,-0.0767792,0.246098,
2,1,0,0,0,45366.1,0.265479,0.265173,0.236478,69,0.0180676,10,6.27075e-05,-3.62621,-4.91862,-0.0119952,0.265069,
2,1,0,1,0,45369.9,0.284456,0.284171,0.232267,69,0.0190082,10,6.60036e-05,-3.63401,-2.58957,-0.0227837,0.284069,
2,1,0,0,0,45373.7,0.303433,0.303118,0.228828,69,0.0199324,10,6.93619e-05,-3.64049,-1.79313,-0.0329033,0.303018,
2,1,0,1,0,45377.5,0.32241,0.322112,0.22535,69,0.0208424,10,7.25881e-05,-3.64714,-1.79778,-0.0328182,0.322013,
2,1,0,0,0,45381.3,0.341387,0.341118,0.223261,69,0.0217411,10,7.61584e-05,-3.65119,-2.71252,-0.021751,0.34102,
2,1,0,1,0,45385.1,0.360364,0.360072,0.221135,69,0.0226285,10,7.96245e-05,-3.65534,22.3105,0.0026445,0.359975,
2,1,0,1,0,45388.9,0.379342,0.379011,0.220138,69,0.0235092,10,8.34348e-05,-3.6573,-3.95447,-0.0149198,0.378914,
2,1,0,1,0,45392.6,0.398319,0.397993,0.218445,69,0.0243839,10,8.69396e-05,-3.66066,-5.7013,-0.0103485,0.397897,
2,1,0,1,0,45396.4,0.417295,0.41704,0.217603,69,0.0252544,10,9.07491e-05,-3.66234,7.14764,0.00825447,0.416945,
2,1,0,1,0,45400.2,0.436272,0.435975,0.217721,69,0.02612,10,9.49209e-05,-3.6621,-7.86794,-0.00749878,0.435879,
2,1,0,1,0,45404,0.455249,0.454939,0.21791,69,0.0269846,10,9.91358e-05,-3.66172,1.60119,0.0368477,0.454843,
2,1,0,1,0,45407.8,0.474226,0.473905,0.220007,69,0.0278525,10,0.000104263,-3.65756,1.28755,0.0458234,0.473808,
2,1,0,1,0,45411.6,0.493203,0.492939,0.222394,69,0.0287272,10,0.000109627,-3.65288,0.946713,0.0623209,0.492842,
2,1,0,0,0,45415.4,0.512181,0.511896,0.22639,69,0.0296139,10,0.000115888,-3.64514,2.02499,0.0291359,0.511796,
2,1,0,1,0,45419.2,0.531158,0.530876,0.231725,69,0.0305186,10,0.000123017,-3.63503,1.18542,0.0497713,0.530774,
2,1,0,0,0,45423,0.550135,0.549816,0.241061,69,0.0314506,10,0.000132539,-3.61787,0.722206,0.0816942,0.54971,
2,1,0,1,0,45426.8,0.569112,0.568831,0.254387,69,0.0324229,10,0.000144703,-3.59451,0.750053,0.0786612,0.568719,
2,1,0,0,0,45430.6,0.588089,0.587773,0.274878,69,0.0334572,10,0.000161566,-3.56086,0.515064,0.114549,0.587652,
2,1,0,1,0,45434.4,0.607066,0.606774,0.309692,69,0.0345954,10,0.000187913,-3.50907,0.291696,0.202265,0.606638,
2,1,0,1,0,45438.2,0.626044,0.625733,0.376579,69,0.0359182,10,0.000235638,-3.42414,0.170632,0.345773,0.625567,
2,1,0,1,0,45442,0.64502,0.644756,0.51128,69,0.0376055,10,0.000329651,-3.29134,0.114713,0.514328,0.644531,
2,1,0,1,0,45445.8,0.663997,0.663718,0.789603,69,0.040043,10,0.000524074,-3.10259,0.0879937,0.670502,0.663371,
2,1,0,1,0,45449.6,0.682974,0.682705,1.3302,69,0.0439964,10,0.000908137,-2.87608,0.0806503,0.731553,0.682119,
2,1,0,1,0,45453.4,0.701951,0.701661,2.25305,69,0.0506965,10,0.00158088,-2.64723,0.0839523,0.70278,0.70067,
2,1,0,1,0,45457.2,0.720928,0.720654,3.61554,69,0.0617241,10,0.00260555,-2.44183,0.0953753,0.618609,0.719063,
2,1,0,1,0,45461,0.739905,0.739633,5.44651,69,0.0788023,10,0.00402842,-2.26388,0.109236,0.540114,0.737237,
2,1,0,0,0,45464.8,0.758883,0.7586,7.8119,69,0.103811,10,0.0059261,-2.10724,0.118529,0.497767,0.755163,
2,1,0,1,0,45468.6,0.77786,0.777611,10.888,69,0.139063,10,0.00846662,-1.96305,0.124653,0.473315,0.77282,
2,1,0,0,0,45472.4,0.796837,0.796554,15.0316,69,0.187889,10,0.0119735,-1.823,0.12271,0.480809,0.78994,
2,1,0,1,0,45476.1,0.815814,0.815546,20.5099,69,0.254951,10,0.0167267,-1.68804,0.127506,0.462723,0.806522,
2,1,0,0,0,45479.9,0.834791,0.834523,27.0514,69,0.34502,10,0.022575,-1.56781,0.144802,0.407452,0.82262,
2,1,0,0,0,45483.6,0.846726,0.846525,30.683,69,0.456463,10,0.025974,-1.5131,0.104027,0.567161,0.833024,
2,1,0,1,0,45487.4,0.827749,0.827489,21.5766,69,0.55359,10,0.0178544,-1.66602,0.127902,0.461291,0.817995,
2,1,0,1,0,45491.2,0.808772,0.808495,15.8858,69,0.624292,10,0.0128436,-1.79899,0.120144,0.491076,0.801505,
2,1,0,1,0,45495,0.789795,0.789534,11.4434,69,0.675725,10,0.00903497,-1.94144,0.118588,0.497523,0.784499,
2,1,0,1,0,45498.8,0.770818,0.77057,8.04392,69,0.712363,10,0.0061984,-2.09453,0.112736,0.523346,0.767031,
2,1,0,1,0,45502.6,0.751841,0.751534,5.51225,69,0.737813,10,0.00414264,-2.25867,0.105846,0.557415,0.749109,
2,1,0,1,0,45506.4,0.732865,0.732573,3.61394,69,0.754925,10,0.00264748,-2.44202,0.0923079,0.639166,0.730983,
2,1,0,0,0,45510.2,0.713887,0.713621,2.21257,69,0.765809,10,0.00157894,-2.6551,0.0796215,0.741006,0.712647,
2,1,0,1,0,45514,0.69491,0.694649,1.21979,69,0.772171,10,0.000847324,-2.91372,0.064847,0.909834,0.694112,
2,1,0,0,0,45517.8,0.675933,0.675655,0.576001,69,0.775449,10,0.000389178,-3.23958,0.05126,1.151,0.675402,
2,1,0,1,0,45521.6,0.656956,0.656701,0.211658,69,0.776839,10,0.000138996,-3.67437,0.0358377,1.64631,0.656608,
2,1,0,0,0,45525.4,0.637979,0.63771,0.0291359,69,0.777218,10,1.85803e-05,-4.53557,0.0101076,5.83722,0.637697,
2,0,0,1,0,45529.2,0.619002,0.618706,-0.0520229,69,0.77712,10,-3.21869e-05,-4.28381,-0.0430904,-1.36921,0.618729,
2,0,0,0,0,45533,0.600024,0.599728,-0.0866075,69,0.776814,10,-5.19409e-05,-4.06244,-0.15558,-0.379226,0.599766,
2,0,0,1,0,45536.8,0.581047,0.580727,-0.104524,69,0.776412,10,-6.07001e-05,-3.98078,-0.495484,-0.119076,0.580773,
2,0,0,1,0,45540.6,0.56207,0.56176,-0.113051,69,0.775965,10,-6.35074e-05,-3.94673,-0.825937,-0.071434,0.56181,
2,0,0,1,0,45544.4,0.543093,0.542808,-0.119197,69,0.77549,10,-6.47011e-05,-3.92373,-0.787714,-0.0749002,0.542861,
2,0,0,1,0,45548.2,0.524116,0.523811,-0.124076,69,0.774996,10,-6.49922e-05,-3.90631,-6.13144,-0.00962254,0.523865,
2,0,0,1,0,45552,0.505139,0.504862,-0.12805,69,0.774483,10,-6.46476e-05,-3.89262,-1.57762,-0.037398,0.504918,
2,0,0,1,0,45555.8,0.486162,0.485827,-0.133842,69,0.773952,10,-6.50241e-05,-3.87341,-1.58772,-0.0371602,0.485886,
2,0,0,1,0,45559.5,0.467185,0.466879,-0.139714,69,0.773397,10,-6.52295e-05,-3.85476,-0.935596,-0.0630614,0.46694,
2,0,0,1,0,45563.3,0.448208,0.447891,-0.146091,69,0.772817,10,-6.54328e-05,-3.83538,-2.70897,-0.0217795,0.447956,
2,0,0,0,0,45567.1,0.429231,0.428919,-0.153912,69,0.772208,10,-6.60156e-05,-3.81273,-1.50669,-0.0391586,0.428986,
2,0,0,1,0,45570.9,0.410254,0.409951,-0.161964,69,0.771568,10,-6.63972e-05,-3.79058,-4.89671,-0.0120489,0.410022,
2,0,0,0,0,45574.7,0.391277,0.390973,-0.172273,69,0.770893,10,-6.7354e-05,-3.76378,-0.686355,-0.0859613,0.391049,
2,0,0,1,0,45578.5,0.3723,0.371965,-0.181003,69,0.77018,10,-6.73267e-05,-3.74231,-0.580047,-0.101716,0.372045,
2,0,0,1,0,45582.3,0.353322,0.352997,-0.191107,69,0.769429,10,-6.74602e-05,-3.71872,-0.640878,-0.0920612,0.353081,
2,0,0,1,0,45586.1,0.334345,0.334071,-0.202193,69,0.768637,10,-6.7547e-05,-3.69423,-0.66809,-0.0883114,0.33416,
2,0,0,1,0,45589.9,0.315368,0.31505,-0.21374,69,0.767801,10,-6.73388e-05,-3.67011,-0.70361,-0.0838532,0.315144,
2,0,0,1,0,45593.7,0.296391,0.296066,-0.225887,69,0.766922,10,-6.68774e-05,-3.64611,-0.907721,-0.064998,0.296165,
2,0,0,1,0,45597.5,0.277414,0.277129,-0.23735,69,0.765997,10,-6.57765e-05,-3.62461,-0.63154,-0.0934224,0.277234,
2,0,0,1,0,45601.3,0.258437,0.258102,-0.249543,69,0.765025,10,-6.44076e-05,-3.60285,-1.02072,-0.0578021,0.258212,
2,0,0,1,0,45605.1,0.239461,0.239156,-0.261584,69,0.764008,10,-6.25595e-05,-3.58239,-0.975376,-0.0604895,0.239271,
2,0,0,0,0,45608.9,0.220483,0.220143,-0.272256,69,0.762947,10,-5.99352e-05,-3.56502,-0.531035,-0.111104,0.220263,
2,0,0,1,0,45612.7,0.201506,0.201173,-0.286199,69,0.761837,10,-5.75755e-05,-3.54333,-0.49064,-0.120251,0.201299,
2,0,0,0,0,45616.5,0.182529,0.182246,-0.30416,69,0.760667,10,-5.54318e-05,-3.5169,-0.43449,-0.135791,0.18238,
2,0,0,1,0,45620.3,0.163552,0.163255,-0.33675,69,0.759404,10,-5.49762e-05,-3.47269,-0.288541,-0.204477,0.163403,
2,0,0,0,0,45624.1,0.144575,0.144255,-0.429252,69,0.757935,10,-6.19216e-05,-3.36729,-0.10932,-0.539699,0.144444,
2,0,0,1,0,45627.9,0.125598,0.12523,-0.640433,69,0.755849,10,-8.02014e-05,-3.19353,-0.170938,-0.345154,0.125512,
2,0,0,1,0,45631.7,0.10662,0.106276,-0.694041,69,0.753204,10,-7.37599e-05,-3.15861,2.65617,0.0222124,0.106581,
2,0,0,1,0,45635.5,0.0876433,0.0872894,-0.664765,69,0.750558,10,-5.80269e-05,-3.17733,0.666264,0.0885534,0.0875819,
2,0,0,1,0,45639.2,0.0686664,0.0683284,-0.621903,69,0.748059,10,-4.24936e-05,-3.20628,0.653017,0.0903498,0.068602,
2,0,0,1,0,45643,0.0496895,0.0493624,-0.578174,69,0.745718,10,-2.85401e-05,-3.23794,0.582078,0.101361,0.0496168,
2,0,0,1,0,45646.8,0.0307126,0.030378,-0.529791,69,0.743556,10,-1.6094e-05,-3.2759,0.533251,0.110642,0.0306111,
2,0,0,1,0,45650.6,0.0117356,0.0114316,-0.499369,69,0.741554,10,-5.7086e-06,-3.30158,2.74324,0.0215074,0.0116514,
2,0,0,0,0,45652.9,0.000274105,-5.33292e-05,-0.49992,69,0.740375,10,2.66604e-08,-3.3011, , ,0.000166636,