File: Figure_codes/Fig_3-5/workspace_calculate_alpha_eff/20221101_1-115_003_TrumpetPlot_ParaChange_from10_every3_16_CV_C01_10.csv
mode,ox/red,error,control changes,counter inc.,time/s,control/V,Ewe/V,<I>/mA,cycle number,(Q-Qo)/C,I Range,P/W,log(|I|),Tafel slope mV/dec,alpha_eff,E-IR/V,
2,0,0,0,0,7510.51,2.44065e-05,-0.000401673,-0.0968499,11,0.0000000E+000,10,3.8902e-08,-4.0139, , ,-0.000359059,
2,1,0,1,0,7514.26,0.0187763,0.0184234,0.227189,11,0.000783048,10,4.18558e-06,-3.64361,0.138244,0.426782,0.0183234,
2,1,0,1,0,7518.06,0.0377538,0.037423,0.294542,11,0.0018531,10,1.10227e-05,-3.53085,0.171536,0.34395,0.0372934,
2,1,0,0,0,7521.85,0.0567309,0.0563895,0.361174,11,0.00318551,10,2.03664e-05,-3.44228,0.248243,0.23767,0.0562305,
2,1,0,1,0,7525.65,0.075708,0.0754036,0.421334,11,0.00475894,10,3.17701e-05,-3.37537,0.376441,0.156731,0.0752182,
2,1,0,0,0,7529.44,0.0946851,0.0943404,0.486536,11,0.00654528,10,4.58999e-05,-3.31289,0.234287,0.251828,0.0941263,
2,1,0,1,0,7533.24,0.113662,0.113357,0.603711,11,0.00868971,10,6.84347e-05,-3.21917,0.286306,0.206073,0.113091,
2,1,0,0,0,7537.03,0.132639,0.13234,0.690735,11,0.0112333,10,9.14118e-05,-3.16069,2.16709,0.0272254,0.132036,
2,1,0,1,0,7540.83,0.151617,0.151289,0.48155,11,0.013653,10,7.2853e-05,-3.31736,-0.0699456,-0.843512,0.151077,
2,1,0,1,0,7544.62,0.170594,0.170294,0.318719,11,0.0151717,10,5.4276e-05,-3.49659,-0.176874,-0.33357,0.170154,
2,1,0,1,0,7548.42,0.189571,0.189256,0.27595,11,0.0163599,10,5.22252e-05,-3.55917,-0.511962,-0.115243,0.189135,
2,1,0,1,0,7552.21,0.208547,0.208264,0.259183,11,0.0174452,10,5.39785e-05,-3.58639,-1.06585,-0.0553548,0.20815,
2,1,0,1,0,7556.01,0.227524,0.227229,0.24913,11,0.0184795,10,5.66097e-05,-3.60357,-1.78053,-0.0331361,0.22712,
2,1,0,1,0,7559.81,0.246501,0.246174,0.24348,11,0.0194844,10,5.99385e-05,-3.61354,-0.601975,-0.0980107,0.246067,
2,1,0,0,0,7563.6,0.265479,0.265196,0.23736,11,0.0204693,10,6.29469e-05,-3.62459,-1.22171,-0.0482928,0.265092,
2,1,0,1,0,7567.4,0.284456,0.284174,0.234359,11,0.0214361,10,6.65989e-05,-3.63012,-1.77002,-0.033333,0.284071,
2,1,0,0,0,7571.19,0.303433,0.303196,0.229916,11,0.0223861,10,6.97096e-05,-3.63843,5.58641,0.0105613,0.303095,
2,1,0,1,0,7574.99,0.32241,0.322122,0.226331,11,0.0233224,10,7.29062e-05,-3.64526,-1.12387,-0.052497,0.322022,
2,1,0,0,0,7578.78,0.341387,0.341131,0.223379,11,0.0242452,10,7.62014e-05,-3.65096,-1.52962,-0.0385716,0.341033,
2,1,0,1,0,7582.58,0.360364,0.36009,0.220944,11,0.0251552,10,7.95596e-05,-3.65572,-11.2224,-0.00525733,0.359993,
2,1,0,1,0,7586.37,0.379342,0.379058,0.218756,11,0.026055,10,8.29213e-05,-3.66004,3.70516,0.0159237,0.378962,
2,1,0,1,0,7590.17,0.398319,0.398038,0.216631,11,0.0269475,10,8.62276e-05,-3.66428,3.16684,0.0186306,0.397943,
2,1,0,1,0,7593.96,0.417295,0.417017,0.215383,11,0.0278342,10,8.98182e-05,-3.66679,-13.432,-0.00439251,0.416922,
2,1,0,1,0,7597.76,0.436272,0.43598,0.216251,11,0.0287189,10,9.42811e-05,-3.66504,-2.71966,-0.0216939,0.435885,
2,1,0,1,0,7601.56,0.455249,0.454948,0.217467,11,0.0296042,10,9.89365e-05,-3.66261,3.32722,0.0177325,0.454853,
2,1,0,1,0,7605.35,0.474226,0.473958,0.218489,11,0.0304948,10,0.000103554,-3.66057,0.97846,0.0602988,0.473862,
2,1,0,1,0,7609.15,0.493203,0.492947,0.221918,11,0.0313954,10,0.000109394,-3.65381,1.49805,0.0393845,0.492849,
2,1,0,0,0,7612.94,0.512181,0.511914,0.227728,11,0.0323122,10,0.000116577,-3.64258,1.51715,0.0388888,0.511813,
2,1,0,1,0,7616.74,0.531158,0.530875,0.236164,11,0.0332523,10,0.000125374,-3.62679,1.18677,0.0497149,0.530771,
2,1,0,0,0,7620.53,0.550135,0.549821,0.24736,11,0.0342284,10,0.000136004,-3.60667,0.609951,0.0967291,0.549712,
2,1,0,1,0,7624.33,0.569112,0.568831,0.264808,11,0.0352603,10,0.000150631,-3.57707,0.371614,0.158767,0.568714,
2,1,0,0,0,7628.12,0.588089,0.587787,0.297668,11,0.0363846,10,0.000174965,-3.52627,0.322533,0.182927,0.587656,
2,1,0,1,0,7631.92,0.607066,0.606809,0.356185,11,0.0376727,10,0.000216137,-3.44832,0.211688,0.278712,0.606653,
2,1,0,1,0,7635.71,0.626044,0.625767,0.476449,11,0.0392865,10,0.000298146,-3.32198,0.119145,0.495197,0.625557,
2,1,0,1,0,7639.51,0.64502,0.644756,0.734663,11,0.0415868,10,0.000473679,-3.13391,0.0844478,0.698657,0.644433,
2,1,0,1,0,7643.3,0.663997,0.663749,1.31104,11,0.0454013,10,0.0008702,-2.88238,0.0688565,0.856855,0.663172,
2,1,0,1,0,7647.1,0.682974,0.682689,2.48301,11,0.0524285,10,0.00169512,-2.60502,0.0673856,0.875557,0.681596,
2,1,0,1,0,7650.9,0.701951,0.701664,4.52782,11,0.0654932,10,0.00317701,-2.34411,0.0744139,0.792862,0.699671,
2,1,0,1,0,7654.69,0.720928,0.72063,7.52593,11,0.0881478,10,0.00542341,-2.12344,0.087169,0.676846,0.717318,
2,1,0,1,0,7658.49,0.739905,0.739673,11.3507,11,0.123799,10,0.0083958,-1.94498,0.10497,0.562063,0.734678,
2,1,0,0,0,7662.28,0.758883,0.758566,16.0799,11,0.175559,10,0.0121977,-1.79372,0.11323,0.521064,0.751491,
2,1,0,1,0,7666.08,0.77786,0.77755,22.1426,11,0.24771,10,0.0172169,-1.65477,0.114222,0.516539,0.767807,
2,1,0,0,0,7669.87,0.796837,0.796627,29.5227,11,0.345446,10,0.0235186,-1.52984,0.129051,0.457185,0.783637,
2,1,0,1,0,7673.67,0.815814,0.815592,37.4264,11,0.472655,10,0.0305246,-1.42682,0.178252,0.330992,0.799124,
2,1,0,0,0,7677.46,0.834791,0.834554,45.4752,11,0.630121,10,0.0379515,-1.34223,0.218891,0.269541,0.814545,
2,1,0,0,0,7681.16,0.846727,0.846479,46.2039,11,0.808581,10,0.0391107,-1.33532,0.283698,0.207967,0.82615,
2,1,0,1,0,7684.96,0.827749,0.827489,37.8922,11,0.967734,10,0.0313553,-1.42145,0.174758,0.337609,0.810816,
2,1,0,1,0,7688.75,0.808772,0.808556,30.7126,11,1.09685,10,0.0248329,-1.51268,0.140065,0.421232,0.795042,
2,1,0,1,0,7692.55,0.789795,0.789541,23.1733,11,1.19874,10,0.0182963,-1.63501,0.117094,0.50387,0.779344,
2,1,0,1,0,7696.34,0.770818,0.77054,16.6479,11,1.27386,10,0.0128279,-1.77864,0.104164,0.566412,0.763215,
2,1,0,1,0,7700.14,0.751841,0.751585,11.3094,11,1.32642,10,0.00849999,-1.94656,0.0942053,0.626292,0.746609,
2,1,0,1,0,7703.93,0.732865,0.732595,7.21456,11,1.36114,10,0.00528535,-2.14179,0.082915,0.711572,0.729421,
2,1,0,0,0,7707.73,0.713887,0.713623,4.253,11,1.3825,10,0.00303504,-2.3713,0.0724211,0.814679,0.711752,
2,1,0,1,0,7711.52,0.69491,0.694641,2.26865,11,1.39453,10,0.0015759,-2.64423,0.0610234,0.966843,0.693643,
2,1,0,0,0,7715.32,0.675933,0.675681,1.06658,11,1.40059,10,0.000720671,-2.972,0.0511862,1.15265,0.675211,
2,1,0,1,0,7719.11,0.656956,0.656677,0.426325,11,1.40322,10,0.000279958,-3.37026,0.0410247,1.43816,0.65649,
2,1,0,0,0,7722.91,0.637979,0.63774,0.125125,11,1.40413,10,7.97974e-05,-3.90266,0.0266188,2.21648,0.637685,
2,0,0,1,0,7726.7,0.619002,0.618772,-0.00650688,11,1.40426,10,-4.02627e-06,-5.18663,-0.00391741,-15.061,0.618775,
2,0,0,0,0,7730.5,0.600025,0.599723,-0.0610766,11,1.40405,10,-3.66291e-05,-4.21412,-0.0732698,-0.805243,0.59975,
2,0,0,1,0,7734.3,0.581047,0.580756,-0.0876035,11,1.4037,10,-5.08763e-05,-4.05748,-0.283371,-0.208208,0.580795,
2,0,0,1,0,7738.09,0.56207,0.561746,-0.0999795,11,1.40328,10,-5.61631e-05,-4.00009,-0.45479,-0.12973,0.56179,
2,0,0,1,0,7741.89,0.543093,0.542825,-0.108904,11,1.40283,10,-5.91158e-05,-3.96296,-1.54796,-0.0381146,0.542873,
2,0,0,1,0,7745.68,0.524116,0.523811,-0.113556,11,1.40235,10,-5.94821e-05,-3.94479,-0.469231,-0.125738,0.523861,
2,0,0,1,0,7749.48,0.505139,0.504841,-0.118241,11,1.40185,10,-5.96929e-05,-3.92723,-1.0445,-0.0564864,0.504893,
2,0,0,1,0,7753.27,0.486162,0.48587,-0.122818,11,1.40133,10,-5.96737e-05,-3.91074,-1.91887,-0.0307472,0.485924,
2,0,0,1,0,7757.07,0.467185,0.466876,-0.130249,11,1.40079,10,-6.08103e-05,-3.88522,2.21454,0.0266422,0.466934,
2,0,0,1,0,7760.86,0.448208,0.447934,-0.134984,11,1.40022,10,-6.04639e-05,-3.86972,4.29912,0.0137237,0.447993,
2,0,0,0,0,7764.66,0.429231,0.428988,-0.144589,11,1.39963,10,-6.20269e-05,-3.83986,-1.75488,-0.0336205,0.429051,
2,0,0,1,0,7768.45,0.410254,0.409929,-0.152429,11,1.39901,10,-6.24851e-05,-3.81693,-0.953552,-0.0618739,0.409996,
2,0,0,0,0,7772.25,0.391277,0.390987,-0.164103,11,1.39834,10,-6.41621e-05,-3.78488,-1.06249,-0.0555299,0.391059,
2,0,0,1,0,7776.05,0.3723,0.371976,-0.172347,11,1.39764,10,-6.4109e-05,-3.7636,-1.12804,-0.0523031,0.372052,
2,0,0,1,0,7779.84,0.353322,0.352996,-0.182966,11,1.3969,10,-6.45865e-05,-3.73763,-0.467981,-0.126074,0.353077,
2,0,0,1,0,7783.64,0.334345,0.334087,-0.193294,11,1.39612,10,-6.45772e-05,-3.71378,-0.663746,-0.0888894,0.334172,
2,0,0,1,0,7787.43,0.315368,0.315101,-0.205881,11,1.39529,10,-6.48735e-05,-3.68638,-0.649223,-0.0908778,0.315192,
2,0,0,1,0,7791.23,0.296391,0.296111,-0.219246,11,1.39442,10,-6.49212e-05,-3.65907,-0.853636,-0.0691161,0.296208,
2,0,0,1,0,7795.02,0.277414,0.277127,-0.230034,11,1.3935,10,-6.37486e-05,-3.63821,-1.16334,-0.0507162,0.277228,
2,0,0,1,0,7798.82,0.258437,0.258183,-0.242989,11,1.39253,10,-6.27355e-05,-3.61441,-0.62444,-0.0944846,0.25829,
2,0,0,1,0,7802.61,0.239461,0.23919,-0.256042,11,1.39152,10,-6.12428e-05,-3.59169,-0.893915,-0.0660018,0.239303,
2,0,0,0,0,7806.41,0.220483,0.220181,-0.266709,11,1.39046,10,-5.87242e-05,-3.57396,-0.51454,-0.114666,0.220298,
2,0,0,1,0,7810.2,0.201506,0.201196,-0.281416,11,1.38935,10,-5.66198e-05,-3.55065,-0.453225,-0.130178,0.20132,
2,0,0,0,0,7814,0.182529,0.182236,-0.307653,11,1.38816,10,-5.60656e-05,-3.51194,-0.30672,-0.192358,0.182372,
2,0,0,1,0,7817.79,0.163552,0.163219,-0.362856,11,1.38683,10,-5.92249e-05,-3.44027,-0.174667,-0.337786,0.163379,
2,0,0,0,0,7821.59,0.144575,0.144287,-0.538371,11,1.38512,10,-7.76797e-05,-3.26892,-0.0781716,-0.75475,0.144523,
2,0,0,1,0,7825.39,0.125598,0.125265,-0.788115,11,1.38244,10,-9.87232e-05,-3.10341,-0.413939,-0.142533,0.125612,
2,0,0,1,0,7829.18,0.10662,0.106275,-0.766591,11,1.37937,10,-8.14693e-05,-3.11544,0.564448,0.104527,0.106612,
2,0,0,1,0,7832.98,0.0876433,0.0873255,-0.687868,11,1.37653,10,-6.00684e-05,-3.1625,0.42488,0.138863,0.0876281,
2,0,0,1,0,7836.77,0.0686664,0.068358,-0.637036,11,1.37395,10,-4.35466e-05,-3.19584,0.710646,0.083023,0.0686383,
2,0,0,1,0,7840.57,0.0496895,0.0493963,-0.587861,11,1.37155,10,-2.90382e-05,-3.23073,0.492078,0.1199,0.049655,
2,0,0,1,0,7844.36,0.0307126,0.0303928,-0.532403,11,1.36934,10,-1.61812e-05,-3.27376,0.50254,0.117404,0.030627,
2,0,0,1,0,7848.16,0.0117356,0.0114159,-0.497562,11,1.36732,10,-5.68011e-06,-3.30315,1.52404,0.0387128,0.0116348,
2,0,0,0,0,7850.45,0.000274105,-0.000116556,-0.498892,11,1.36613,10,5.81488e-08,-3.30199, , ,0.000102956,