File: Figure_codes/Fig_3-5/workspace_calculate_alpha_eff/20221101_1-115_003_TrumpetPlot_ParaChange_from10_every3_16_CV_C01_64.csv
mode,ox/red,error,control changes,counter inc.,time/s,control/V,Ewe/V,<I>/mA,cycle number,(Q-Qo)/C,I Range,P/W,log(|I|),Tafel slope mV/dec,alpha_eff,E-IR/V,
2,0,0,0,0,42972.9,2.44065e-05,-0.000306236,-0.098758,65,0.0000000E+000,10,3.02433e-08,-4.00543, , ,-0.000262783,
2,1,0,1,0,42976.6,0.0187763,0.0184053,0.217457,65,0.000722102,10,4.00235e-06,-3.66263,0.163086,0.361772,0.0183096,
2,1,0,1,0,42980.4,0.0377538,0.0374114,0.282225,65,0.00173628,10,1.05584e-05,-3.5494,0.170787,0.345459,0.0372872,
2,1,0,0,0,42984.2,0.0567309,0.0563842,0.34337,65,0.00299808,10,1.93606e-05,-3.46424,0.287064,0.205529,0.0562331,
2,1,0,1,0,42988,0.075708,0.0753442,0.3899,65,0.00446736,10,2.93767e-05,-3.40905,0.535294,0.11022,0.0751727,
2,1,0,0,0,42991.8,0.094685,0.0943584,0.444715,65,0.00610395,10,4.19626e-05,-3.35192,0.253911,0.232365,0.0941627,
2,1,0,1,0,42995.6,0.113662,0.113348,0.54252,65,0.00804476,10,6.14936e-05,-3.26558,0.312294,0.188925,0.113109,
2,1,0,0,0,42999.4,0.132639,0.132336,0.583964,65,0.0102693,10,7.72793e-05,-3.23361,-0.624753,-0.0944373,0.132079,
2,1,0,1,0,43003.2,0.151617,0.151298,0.378561,65,0.0122315,10,5.72757e-05,-3.42186,-0.0755111,-0.781342,0.151132,
2,1,0,1,0,43007,0.170594,0.170291,0.286083,65,0.0134987,10,4.87173e-05,-3.54351,-0.291673,-0.202281,0.170165,
2,1,0,1,0,43010.8,0.189571,0.189234,0.267524,65,0.0145988,10,5.06247e-05,-3.57264,-0.780683,-0.0755749,0.189116,
2,1,0,1,0,43014.6,0.208547,0.208249,0.258568,65,0.0156519,10,5.38465e-05,-3.58743,-1.34648,-0.0438179,0.208135,
2,1,0,1,0,43018.4,0.227524,0.227194,0.252938,65,0.0166779,10,5.74661e-05,-3.59699,-1.7951,-0.0328672,0.227083,
2,1,0,1,0,43022.2,0.246501,0.246185,0.247871,65,0.0176834,10,6.10221e-05,-3.60577,-1.19006,-0.0495771,0.246076,
2,1,0,0,0,43025.9,0.265479,0.265163,0.243925,65,0.0186713,10,6.46799e-05,-3.61274,-0.996803,-0.0591892,0.265056,
2,1,0,1,0,43029.7,0.284456,0.284175,0.239955,65,0.0196436,10,6.81894e-05,-3.61987,-1.90173,-0.0310243,0.28407,
2,1,0,0,0,43033.5,0.303433,0.303114,0.23639,65,0.0205997,10,7.1653e-05,-3.62637,155.272,0.000379979,0.30301,
2,1,0,1,0,43037.3,0.32241,0.322108,0.23251,65,0.0215405,10,7.48934e-05,-3.63356,5.09722,0.0115749,0.322006,
2,1,0,0,0,43041.1,0.341387,0.341061,0.229966,65,0.0224677,10,7.84324e-05,-3.63834,-3.75673,-0.0157052,0.34096,
2,1,0,1,0,43044.9,0.360364,0.360075,0.228563,65,0.0233842,10,8.22998e-05,-3.64099,-2.62603,-0.0224674,0.359974,
2,1,0,1,0,43048.7,0.379342,0.379044,0.225884,65,0.0242929,10,8.56199e-05,-3.64611,-2.99962,-0.0196692,0.378945,
2,1,0,1,0,43052.5,0.398319,0.398004,0.22405,65,0.0251932,10,8.91727e-05,-3.64966,-13.5236,-0.00436274,0.397905,
2,1,0,1,0,43056.3,0.417295,0.416984,0.223941,65,0.0260867,10,9.33798e-05,-3.64987,-38.5326,-0.00153117,0.416885,
2,1,0,1,0,43060.1,0.436272,0.43597,0.223934,65,0.0269765,10,9.76286e-05,-3.64988,5.25819,0.0112206,0.435872,
2,1,0,1,0,43063.9,0.455249,0.454982,0.224108,65,0.0278655,10,0.000101965,-3.64954,5.50029,0.0107267,0.454884,
2,1,0,1,0,43067.7,0.474226,0.473906,0.224809,65,0.028757,10,0.000106538,-3.64819,1.11312,0.0530041,0.473807,
2,1,0,1,0,43071.5,0.493203,0.492896,0.227309,65,0.0296538,10,0.00011204,-3.64338,2.22246,0.0265472,0.492796,
2,1,0,0,0,43075.3,0.512181,0.51186,0.231827,65,0.0305629,10,0.000118663,-3.63484,1.09826,0.0537214,0.511758,
2,1,0,1,0,43079.1,0.531158,0.530875,0.237902,65,0.031492,10,0.000126296,-3.6236,2.3182,0.0254508,0.53077,
2,1,0,0,0,43082.9,0.550135,0.54983,0.247073,65,0.0324489,10,0.000135848,-3.60718,0.805297,0.0732649,0.549722,
2,1,0,1,0,43086.7,0.569112,0.568817,0.25975,65,0.0334451,10,0.00014775,-3.58544,1.17959,0.0500175,0.568703,
2,1,0,0,0,43090.5,0.588089,0.587809,0.280857,65,0.0345039,10,0.00016509,-3.55151,0.487731,0.120968,0.587685,
2,1,0,1,0,43094.3,0.607066,0.606777,0.316319,65,0.0356663,10,0.000191935,-3.49987,0.309708,0.190502,0.606638,
2,1,0,1,0,43098.1,0.626044,0.625781,0.38241,65,0.0370146,10,0.000239305,-3.41747,0.184171,0.320355,0.625613,
2,1,0,1,0,43101.9,0.64502,0.644715,0.51872,65,0.038731,10,0.000334427,-3.28507,0.113685,0.518979,0.644487,
2,1,0,1,0,43105.7,0.663997,0.663727,0.800017,65,0.0412066,10,0.000530993,-3.0969,0.0870558,0.677726,0.663375,
2,1,0,1,0,43109.4,0.682974,0.682681,1.35089,65,0.0452188,10,0.000922226,-2.86938,0.0788974,0.747807,0.682087,
2,1,0,1,0,43113.2,0.701951,0.701667,2.29628,65,0.0520352,10,0.00161122,-2.63897,0.0821072,0.718573,0.700656,
2,1,0,1,0,43117,0.720928,0.720603,3.70509,65,0.0633069,10,0.0026699,-2.4312,0.0933839,0.6318,0.718973,
2,1,0,1,0,43120.8,0.739905,0.739579,5.60944,65,0.0808556,10,0.00414862,-2.25108,0.105911,0.557069,0.737111,
2,1,0,0,0,43124.6,0.758883,0.758635,8.07905,65,0.106674,10,0.00612905,-2.09264,0.118581,0.497549,0.75508,
2,1,0,1,0,43128.4,0.77786,0.777586,11.305,65,0.143206,10,0.00879061,-1.94673,0.121061,0.487358,0.772611,
2,1,0,0,0,43132.2,0.796837,0.796602,15.6518,65,0.193961,10,0.0124683,-1.80543,0.120492,0.48966,0.789715,
2,1,0,1,0,43136,0.815814,0.815516,21.4382,65,0.263979,10,0.0174832,-1.66881,0.125008,0.471968,0.806084,
2,1,0,0,0,43139.8,0.834791,0.834524,28.2785,65,0.358139,10,0.0235991,-1.54854,0.141308,0.417526,0.822082,
2,1,0,0,0,43143.5,0.846726,0.846462,32.0127,65,0.47464,10,0.0270976,-1.49468,0.102886,0.573449,0.832377,
2,1,0,1,0,43147.3,0.827749,0.827516,23.7182,65,0.579547,10,0.0196272,-1.62492,0.120917,0.487938,0.81708,
2,1,0,1,0,43151.1,0.808772,0.808482,17.2832,65,0.656906,10,0.0139732,-1.76238,0.114311,0.516138,0.800878,
2,1,0,1,0,43154.9,0.789795,0.789476,12.2712,65,0.712538,10,0.00968785,-1.91111,0.111622,0.528567,0.784077,
2,1,0,1,0,43158.7,0.770818,0.770535,8.50879,65,0.751562,10,0.00655632,-2.07013,0.107163,0.550564,0.766791,
2,1,0,1,0,43162.5,0.751841,0.751607,5.74695,65,0.77831,10,0.00431945,-2.24056,0.10084,0.585083,0.749078,
2,1,0,1,0,43166.3,0.732865,0.7326,3.73159,65,0.796064,10,0.00273377,-2.42811,0.0891158,0.66206,0.730959,
2,1,0,0,0,43170.1,0.713887,0.713602,2.265,65,0.807251,10,0.00161631,-2.64493,0.078117,0.755277,0.712605,
2,1,0,1,0,43173.9,0.69491,0.694645,1.23773,65,0.813733,10,0.000859782,-2.90737,0.0645728,0.913698,0.6941,
2,1,0,0,0,43177.7,0.675933,0.675631,0.582676,65,0.817048,10,0.000393674,-3.23457,0.05106,1.1555,0.675374,
2,1,0,1,0,43181.5,0.656956,0.656677,0.214779,65,0.818451,10,0.000141041,-3.66801,0.0350594,1.68286,0.656583,
2,1,0,0,0,43185.3,0.637979,0.637718,0.0325178,65,0.818839,10,2.07372e-05,-4.48788,0.0113438,5.20108,0.637704,
2,0,0,1,0,43189.1,0.619002,0.618695,-0.0472512,65,0.818754,10,-2.92341e-05,-4.32559,-0.0411489,-1.43382,0.618716,
2,0,0,0,0,43192.8,0.600024,0.599713,-0.0831005,65,0.81846,10,-4.98365e-05,-4.0804,-0.161447,-0.365444,0.59975,
2,0,0,1,0,43196.6,0.581047,0.580741,-0.099394,65,0.818072,10,-5.77222e-05,-4.00264,-0.306695,-0.192374,0.580785,
2,0,0,1,0,43200.4,0.56207,0.561769,-0.107897,65,0.817638,10,-6.06133e-05,-3.96699,-0.375353,-0.157185,0.561817,
2,0,0,1,0,43204.2,0.543093,0.542798,-0.113691,65,0.817178,10,-6.17114e-05,-3.94427,-1.37299,-0.0429719,0.542848,
2,0,0,1,0,43208,0.524116,0.523781,-0.11934,65,0.816698,10,-6.25082e-05,-3.92321,-3.33946,-0.0176675,0.523833,
2,0,0,1,0,43211.8,0.505139,0.504842,-0.124164,65,0.816199,10,-6.26833e-05,-3.906,-0.794292,-0.0742799,0.504897,
2,0,0,1,0,43215.6,0.486162,0.485843,-0.128839,65,0.81568,10,-6.25955e-05,-3.88995,-2.75482,-0.021417,0.485899,
2,0,0,1,0,43219.4,0.467185,0.466893,-0.134901,65,0.81514,10,-6.29846e-05,-3.86998,-0.977114,-0.0603819,0.466953,
2,0,0,1,0,43223.2,0.448208,0.447897,-0.141615,65,0.814575,10,-6.34289e-05,-3.84889,-0.679433,-0.0868372,0.447959,
2,0,0,0,0,43227,0.429231,0.428957,-0.149106,65,0.813982,10,-6.39601e-05,-3.8265,-0.83818,-0.0703906,0.429023,
2,0,0,1,0,43230.8,0.410254,0.409897,-0.158234,65,0.813357,10,-6.48598e-05,-3.8007,-1.29892,-0.0454222,0.409967,
2,0,0,0,0,43234.6,0.391277,0.390931,-0.166819,65,0.812696,10,-6.52148e-05,-3.77775,-0.665058,-0.0887141,0.391004,
2,0,0,1,0,43238.4,0.3723,0.371974,-0.177143,65,0.811997,10,-6.58927e-05,-3.75167,-0.59478,-0.0991963,0.372052,
2,0,0,1,0,43242.2,0.353322,0.353015,-0.186986,65,0.811258,10,-6.60089e-05,-3.72819,-0.679079,-0.0868824,0.353098,
2,0,0,1,0,43246,0.334345,0.334031,-0.19818,65,0.810478,10,-6.61983e-05,-3.70294,-1.09292,-0.0539839,0.334118,
2,0,0,1,0,43249.8,0.315368,0.315029,-0.20894,65,0.809655,10,-6.58221e-05,-3.67998,-0.838488,-0.0703647,0.315121,
2,0,0,1,0,43253.6,0.296391,0.296079,-0.220595,65,0.808788,10,-6.53134e-05,-3.6564,-0.869205,-0.0678781,0.296176,
2,0,0,1,0,43257.4,0.277414,0.277096,-0.233384,65,0.807873,10,-6.46697e-05,-3.63193,-1.07852,-0.0547048,0.277199,
2,0,0,1,0,43261.2,0.258437,0.258137,-0.245944,65,0.806911,10,-6.34873e-05,-3.60916,-1.09769,-0.0537494,0.258246,
2,0,0,1,0,43265,0.239461,0.239145,-0.257346,65,0.805904,10,-6.15429e-05,-3.58948,-0.81101,-0.0727488,0.239258,
2,0,0,0,0,43268.8,0.220483,0.220199,-0.268773,65,0.804854,10,-5.91835e-05,-3.57061,-0.871043,-0.0677349,0.220317,
2,0,0,1,0,43272.6,0.201506,0.201214,-0.281741,65,0.803755,10,-5.66903e-05,-3.55015,-0.69559,-0.0848201,0.201338,
2,0,0,0,0,43276.3,0.182529,0.182194,-0.299232,65,0.802595,10,-5.45182e-05,-3.52399,-0.478604,-0.123275,0.182326,
2,0,0,1,0,43280.1,0.163552,0.163235,-0.333298,65,0.801343,10,-5.44058e-05,-3.47717,-0.279515,-0.21108,0.163382,
2,0,0,0,0,43283.9,0.144575,0.144245,-0.428292,65,0.799878,10,-6.1779e-05,-3.36826,-0.104921,-0.562328,0.144434,
2,0,0,1,0,43287.7,0.125598,0.125306,-0.643353,65,0.797783,10,-8.06163e-05,-3.19155,-0.172882,-0.341273,0.125589,
2,0,0,1,0,43291.5,0.10662,0.106302,-0.694258,65,0.795125,10,-7.38013e-05,-3.15848,2.51405,0.0234681,0.106608,
2,0,0,1,0,43295.3,0.0876433,0.0872575,-0.662681,65,0.792477,10,-5.78239e-05,-3.1787,0.50954,0.115791,0.0875491,
2,0,0,1,0,43299.1,0.0686664,0.0683824,-0.620285,65,0.789981,10,-4.24166e-05,-3.20741,0.72394,0.0814985,0.0686553,
2,0,0,1,0,43302.9,0.0496895,0.0493602,-0.577429,65,0.787639,10,-2.8502e-05,-3.2385,0.555814,0.106151,0.0496143,
2,0,0,1,0,43306.7,0.0307126,0.0303449,-0.529698,65,0.785473,10,-1.60737e-05,-3.27597,0.556535,0.106013,0.030578,
2,0,0,1,0,43310.5,0.0117356,0.0114158,-0.497854,65,0.783468,10,-5.68338e-06,-3.3029,3.42225,0.0172401,0.0116348,
2,0,0,0,0,43312.8,0.000274105,-0.000120135,-0.50022,65,0.782287,10,6.00939e-08,-3.30084, , ,9.9962e-05,