File: Figure_codes/Fig_3-5/workspace_calculate_alpha_eff/20221101_1-115_003_TrumpetPlot_ParaChange_from10_every3_16_CV_C01_61.csv
mode,ox/red,error,control changes,counter inc.,time/s,control/V,Ewe/V,<I>/mA,cycle number,(Q-Qo)/C,I Range,P/W,log(|I|),Tafel slope mV/dec,alpha_eff,E-IR/V,
2,0,0,0,0,41002.7,2.44065e-05,-0.000401673,-0.099394,62,0.0000000E+000,10,3.99239e-08,-4.00264, , ,-0.000357939,
2,1,0,1,0,41006.5,0.0187763,0.018404,0.217625,62,0.000709247,10,4.00518e-06,-3.66229,0.141973,0.415572,0.0183083,
2,1,0,1,0,41010.3,0.0377538,0.0374188,0.282203,62,0.00171633,10,1.05597e-05,-3.54944,0.198441,0.297318,0.0372946,
2,1,0,0,0,41014.1,0.0567309,0.0564191,0.343658,62,0.00296896,10,1.93889e-05,-3.46387,0.271847,0.217034,0.0562679,
2,1,0,1,0,41017.9,0.075708,0.0754163,0.390791,62,0.00442898,10,2.9472e-05,-3.40806,0.460892,0.128013,0.0752444,
2,1,0,0,0,41021.7,0.094685,0.0943859,0.443963,62,0.00605615,10,4.19038e-05,-3.35265,0.228016,0.258754,0.0941906,
2,1,0,1,0,41025.5,0.113662,0.113324,0.540064,62,0.00798148,10,6.1202e-05,-3.26755,0.319084,0.184904,0.113086,
2,1,0,0,0,41029.2,0.132639,0.132312,0.583742,62,0.0101925,10,7.72363e-05,-3.23378,-0.852734,-0.0691892,0.132056,
2,1,0,1,0,41033,0.151617,0.151251,0.389708,62,0.0121704,10,5.89436e-05,-3.40926,-0.0767965,-0.768264,0.151079,
2,1,0,1,0,41036.8,0.170594,0.170293,0.288952,62,0.0134558,10,4.92065e-05,-3.53917,-0.280983,-0.209977,0.170166,
2,1,0,1,0,41040.6,0.189571,0.189279,0.26768,62,0.014558,10,5.06661e-05,-3.57238,-0.956478,-0.0616846,0.189161,
2,1,0,1,0,41044.4,0.208547,0.208223,0.259885,62,0.0156081,10,5.41141e-05,-3.58522,-1.25872,-0.046873,0.208109,
2,1,0,1,0,41048.2,0.227524,0.227219,0.253712,62,0.0166305,10,5.76481e-05,-3.59566,-1.02228,-0.0577143,0.227107,
2,1,0,1,0,41052,0.246501,0.246175,0.248185,62,0.0176323,10,6.10969e-05,-3.60523,-1.30327,-0.0452707,0.246066,
2,1,0,0,0,41055.8,0.265479,0.265178,0.244433,62,0.0186174,10,6.48182e-05,-3.61184,-1.15756,-0.0509692,0.265071,
2,1,0,1,0,41059.6,0.284456,0.284186,0.240932,62,0.0195862,10,6.84694e-05,-3.61811,-2.50138,-0.023587,0.28408,
2,1,0,0,0,41063.4,0.303433,0.303132,0.236753,62,0.0205384,10,7.17675e-05,-3.6257,-2.32703,-0.0253542,0.303028,
2,1,0,1,0,41067.2,0.32241,0.322119,0.233327,62,0.0214754,10,7.51591e-05,-3.63203,-2.22603,-0.0265046,0.322016,
2,1,0,0,0,41071,0.341387,0.341093,0.230904,62,0.0224001,10,7.87596e-05,-3.63657,-44.1619,-0.00133599,0.340991,
2,1,0,1,0,41074.8,0.360364,0.360007,0.229143,62,0.023314,10,8.24931e-05,-3.63989,-1.45106,-0.0406598,0.359906,
2,1,0,1,0,41078.6,0.379342,0.379058,0.226273,62,0.0242187,10,8.57706e-05,-3.64537,-4.44136,-0.0132842,0.378958,
2,1,0,1,0,41082.4,0.398319,0.398013,0.224792,62,0.0251154,10,8.94701e-05,-3.64822,2.35428,0.0250608,0.397915,
2,1,0,1,0,41086.2,0.417295,0.417017,0.223252,62,0.0260061,10,9.30999e-05,-3.6512,-3.33895,-0.0176703,0.416919,
2,1,0,1,0,41090,0.436272,0.435983,0.223135,62,0.0268917,10,9.72832e-05,-3.65143,2.56112,0.0230368,0.435885,
2,1,0,1,0,41093.8,0.455249,0.454961,0.223139,62,0.0277758,10,0.000101519,-3.65142,-695.016,-8.48902e-05,0.454863,
2,1,0,1,0,41097.6,0.474226,0.473903,0.22429,62,0.0286619,10,0.000106292,-3.64919,1.64072,0.0359598,0.473804,
2,1,0,1,0,41101.4,0.493203,0.492882,0.226568,62,0.0295538,10,0.000111671,-3.6448,0.907394,0.0650214,0.492782,
2,1,0,0,0,41105.2,0.512181,0.511842,0.231322,62,0.0304585,10,0.0001184,-3.63578,2.1608,0.0273047,0.511741,
2,1,0,1,0,41109,0.531158,0.530854,0.236943,62,0.031382,10,0.000125782,-3.62536,1.78079,0.0331313,0.530749,
2,1,0,0,0,41112.7,0.550135,0.549856,0.24569,62,0.0323307,10,0.000135094,-3.60961,0.766913,0.0769318,0.549748,
2,1,0,1,0,41116.5,0.569112,0.568834,0.258723,62,0.03332,10,0.00014717,-3.58717,0.734186,0.0803611,0.56872,
2,1,0,0,0,41120.3,0.588089,0.587779,0.279058,62,0.0343725,10,0.000164025,-3.55431,0.461663,0.127799,0.587657,
2,1,0,1,0,41124.1,0.607066,0.60675,0.314752,62,0.0355281,10,0.000190976,-3.50203,0.299923,0.196717,0.606612,
2,1,0,1,0,41127.9,0.626044,0.625715,0.380362,62,0.0368671,10,0.000237998,-3.4198,0.183367,0.32176,0.625547,
2,1,0,1,0,41131.7,0.64502,0.644731,0.514127,62,0.0385699,10,0.000331474,-3.28893,0.116828,0.505015,0.644505,
2,1,0,1,0,41135.5,0.663997,0.663709,0.791576,62,0.0410185,10,0.000525376,-3.10151,0.0875186,0.674142,0.66336,
2,1,0,1,0,41139.3,0.682974,0.68268,1.33091,62,0.0449759,10,0.000908586,-2.87585,0.079414,0.742942,0.682095,
2,1,0,1,0,41143.1,0.701951,0.701652,2.25961,62,0.0516843,10,0.00158546,-2.64597,0.0831735,0.70936,0.700657,
2,1,0,1,0,41146.9,0.720928,0.720646,3.63492,62,0.0627556,10,0.00261949,-2.43951,0.0945153,0.624238,0.719046,
2,1,0,1,0,41150.7,0.739905,0.73965,5.48432,62,0.0799427,10,0.00405648,-2.26088,0.108034,0.546125,0.737237,
2,1,0,0,0,41154.5,0.758883,0.758574,7.85789,62,0.105116,10,0.00596079,-2.10469,0.120796,0.488426,0.755116,
2,1,0,1,0,41158.3,0.77786,0.777562,10.8867,62,0.140472,10,0.00846505,-1.96311,0.126343,0.466981,0.772772,
2,1,0,0,0,41162.1,0.796837,0.796596,14.9229,62,0.189106,10,0.0118875,-1.82615,0.129101,0.457006,0.79003,
2,1,0,1,0,41165.9,0.815814,0.815546,20.1816,62,0.255252,10,0.016459,-1.69504,0.132789,0.444313,0.806666,
2,1,0,0,0,41169.7,0.834791,0.834536,26.3416,62,0.343443,10,0.021983,-1.57936,0.142782,0.413218,0.822946,
2,1,0,0,0,41173.4,0.846726,0.846493,30.0097,62,0.452216,10,0.025403,-1.52274,0.11423,0.516502,0.833289,
2,1,0,1,0,41177.2,0.827749,0.827487,22.5065,62,0.551303,10,0.0186238,-1.64769,0.123984,0.475867,0.817584,
2,1,0,1,0,41181,0.808772,0.808509,16.5716,62,0.624993,10,0.0133983,-1.78064,0.121611,0.485152,0.801218,
2,1,0,1,0,41184.8,0.789795,0.789524,11.8839,62,0.678598,10,0.00938262,-1.92504,0.112456,0.524649,0.784295,
2,1,0,1,0,41188.6,0.770818,0.770518,8.30442,62,0.716494,10,0.0063987,-2.08069,0.112547,0.524224,0.766864,
2,1,0,1,0,41192.4,0.751841,0.751518,5.60329,62,0.742584,10,0.00421098,-2.25156,0.103284,0.571242,0.749052,
2,1,0,1,0,41196.1,0.732865,0.732604,3.64669,62,0.759915,10,0.00267158,-2.4381,0.0924743,0.638015,0.730999,
2,1,0,0,0,41199.9,0.713887,0.713616,2.21631,62,0.770863,10,0.0015816,-2.65437,0.0772744,0.763513,0.71264,
2,1,0,1,0,41203.7,0.69491,0.694626,1.21384,62,0.777213,10,0.000843166,-2.91584,0.0646495,0.912614,0.694092,
2,1,0,0,0,41207.5,0.675933,0.675687,0.571209,62,0.780465,10,0.000385958,-3.24321,0.0517394,1.14033,0.675436,
2,1,0,1,0,41211.3,0.656956,0.656639,0.210524,62,0.781841,10,0.000138238,-3.6767,0.0361011,1.6343,0.656546,
2,1,0,0,0,41215.1,0.637979,0.637702,0.0312266,62,0.782221,10,1.99133e-05,-4.50548,0.0111585,5.28746,0.637688,
2,0,0,1,0,41218.9,0.619002,0.618717,-0.0475074,62,0.782134,10,-2.93936e-05,-4.32324,-0.0394945,-1.49388,0.618738,
2,0,0,0,0,41222.7,0.600024,0.599731,-0.0831289,62,0.781842,10,-4.9855e-05,-4.08025,-0.168543,-0.35006,0.599768,
2,0,0,1,0,41226.5,0.581047,0.580707,-0.0996277,62,0.781458,10,-5.78546e-05,-4.00162,-0.292052,-0.202019,0.580751,
2,0,0,1,0,41230.3,0.56207,0.56179,-0.108478,62,0.781027,10,-6.0942e-05,-3.96466,-1.10391,-0.0534466,0.561837,
2,0,0,1,0,41234.1,0.543093,0.54275,-0.113524,62,0.780571,10,-6.16151e-05,-3.94491,-2.20722,-0.0267305,0.5428,
2,0,0,1,0,41237.9,0.524116,0.52381,-0.118409,62,0.780095,10,-6.20241e-05,-3.92661,-1.80144,-0.0327517,0.523862,
2,0,0,1,0,41241.7,0.505139,0.504848,-0.122664,62,0.779599,10,-6.19266e-05,-3.91128,-1.95081,-0.0302438,0.504902,
2,0,0,1,0,41245.5,0.486162,0.485843,-0.128027,62,0.779084,10,-6.2201e-05,-3.8927,-2.44377,-0.024143,0.485899,
2,0,0,1,0,41249.3,0.467185,0.466899,-0.134541,62,0.778548,10,-6.28172e-05,-3.87114,-1.61469,-0.0365396,0.466958,
2,0,0,1,0,41253.1,0.448208,0.447868,-0.141159,62,0.777987,10,-6.32205e-05,-3.85029,-0.760274,-0.0776036,0.44793,
2,0,0,0,0,41256.9,0.429231,0.428887,-0.14915,62,0.777396,10,-6.39686e-05,-3.82638,-3.93564,-0.0149912,0.428953,
2,0,0,1,0,41260.7,0.410254,0.409955,-0.15775,62,0.776773,10,-6.46705e-05,-3.80203,-1.90204,-0.0310193,0.410025,
2,0,0,0,0,41264.5,0.391277,0.390966,-0.166785,62,0.776114,10,-6.52074e-05,-3.77784,-0.783396,-0.0753131,0.391039,
2,0,0,1,0,41268.3,0.3723,0.372001,-0.177648,62,0.775417,10,-6.60854e-05,-3.75044,-0.77087,-0.0765369,0.37208,
2,0,0,1,0,41272.1,0.353322,0.352977,-0.187451,62,0.77468,10,-6.6166e-05,-3.72711,-0.539316,-0.109398,0.35306,
2,0,0,1,0,41275.9,0.334345,0.334008,-0.199109,62,0.773899,10,-6.65041e-05,-3.70091,-0.752646,-0.0783901,0.334095,
2,0,0,1,0,41279.6,0.315368,0.315067,-0.210036,62,0.773076,10,-6.61754e-05,-3.67771,-0.767618,-0.0768612,0.31516,
2,0,0,1,0,41283.4,0.296391,0.296108,-0.222585,62,0.772209,10,-6.59093e-05,-3.6525,-1.08798,-0.0542289,0.296206,
2,0,0,1,0,41287.2,0.277414,0.277101,-0.233665,62,0.771294,10,-6.47487e-05,-3.63141,-1.0945,-0.0539058,0.277203,
2,0,0,1,0,41291,0.258437,0.258093,-0.245783,62,0.770331,10,-6.34347e-05,-3.60945,-0.856671,-0.0688712,0.258201,
2,0,0,1,0,41294.8,0.239461,0.239136,-0.25749,62,0.769324,10,-6.15752e-05,-3.58924,-0.770802,-0.0765437,0.239249,
2,0,0,0,0,41298.6,0.220483,0.220149,-0.269796,62,0.768273,10,-5.93954e-05,-3.56896,-0.593542,-0.0994032,0.220268,
2,0,0,1,0,41302.4,0.201506,0.201181,-0.282911,62,0.767172,10,-5.69162e-05,-3.54835,-0.512099,-0.115212,0.201305,
2,0,0,0,0,41306.2,0.182529,0.182205,-0.300286,62,0.766012,10,-5.47135e-05,-3.52247,-0.426439,-0.138355,0.182337,
2,0,0,1,0,41310,0.163552,0.163196,-0.335368,62,0.764758,10,-5.47306e-05,-3.47448,-0.297931,-0.198032,0.163343,
2,0,0,0,0,41313.8,0.144575,0.144252,-0.431239,62,0.763286,10,-6.22069e-05,-3.36528,-0.107661,-0.548019,0.144441,
2,0,0,1,0,41317.6,0.125598,0.125276,-0.646968,62,0.76118,10,-8.10493e-05,-3.18912,-0.178612,-0.330326,0.12556,
2,0,0,1,0,41321.4,0.10662,0.106264,-0.698859,62,0.758511,10,-7.42637e-05,-3.15561,2.41697,0.0244107,0.106572,
2,0,0,1,0,41325.2,0.0876433,0.0873009,-0.663318,62,0.755857,10,-5.79083e-05,-3.17828,0.708878,0.0832302,0.0875928,
2,0,0,1,0,41329,0.0686664,0.0683466,-0.622753,62,0.753359,10,-4.25631e-05,-3.20568,0.690317,0.085468,0.0686206,
2,0,0,1,0,41332.8,0.0496895,0.0493792,-0.579343,62,0.751017,10,-2.86075e-05,-3.23706,0.489112,0.120627,0.0496341,
2,0,0,1,0,41336.6,0.0307126,0.0303664,-0.532045,62,0.748847,10,-1.61563e-05,-3.27405,0.49146,0.120051,0.0306005,
2,0,0,1,0,41340.4,0.0117356,0.0114201,-0.500683,62,0.746839,10,-5.71785e-06,-3.30044,1.61351,0.0365662,0.0116404,
2,0,0,0,0,41342.7,0.000274105,-0.000140415,-0.502242,62,0.745658,10,7.05224e-08,-3.29909, , ,8.05715e-05,