File: Figure_codes/Fig_3-5/workspace_calculate_alpha_eff/20221101_1-115_003_TrumpetPlot_ParaChange_from10_every3_16_CV_C01_17.csv
mode,ox/red,error,control changes,counter inc.,time/s,control/V,Ewe/V,<I>/mA,cycle number,(Q-Qo)/C,I Range,P/W,log(|I|),Tafel slope mV/dec,alpha_eff,E-IR/V,
2,0,0,0,0,11820.8,2.44065e-05,-0.000306236,-0.118475,18,0.0000000E+000,10,3.62813e-08,-3.92637, , ,-0.000254107,
2,1,0,1,0,11824.5,0.0187763,0.0184688,0.21844,18,0.000728061,10,4.03432e-06,-3.66067,0.153722,0.383811,0.0183727,
2,1,0,1,0,11828.3,0.0377538,0.0373849,0.286324,18,0.00175799,10,1.07042e-05,-3.54314,0.17973,0.328271,0.0372589,
2,1,0,0,0,11832.1,0.0567309,0.0563884,0.352735,18,0.00304821,10,1.98902e-05,-3.45255,0.265452,0.222262,0.0562332,
2,1,0,1,0,11835.9,0.075708,0.0753845,0.405157,18,0.00456524,10,3.05426e-05,-3.39238,0.419542,0.140629,0.0752063,
2,1,0,0,0,11839.7,0.0946851,0.0944029,0.468431,18,0.00627891,10,4.42212e-05,-3.32935,0.230036,0.256481,0.0941968,
2,1,0,1,0,11843.5,0.113662,0.113346,0.578049,18,0.00833702,10,6.55195e-05,-3.23804,0.322344,0.183034,0.113092,
2,1,0,0,0,11847.3,0.132639,0.132392,0.65278,18,0.0107504,10,8.64229e-05,-3.18523,-20.4579,-0.00288397,0.132105,
2,1,0,1,0,11851.1,0.151617,0.151284,0.441334,18,0.0129921,10,6.67669e-05,-3.35523,-0.0716558,-0.823381,0.15109,
2,1,0,1,0,11854.9,0.170594,0.170289,0.301784,18,0.0143999,10,5.13905e-05,-3.5203,-0.198057,-0.297894,0.170156,
2,1,0,1,0,11858.7,0.189571,0.189215,0.266991,18,0.0155325,10,5.05188e-05,-3.5735,-0.538764,-0.10951,0.189098,
2,1,0,1,0,11862.5,0.208547,0.208228,0.251826,18,0.0165798,10,5.24371e-05,-3.5989,-0.992166,-0.0594658,0.208117,
2,1,0,1,0,11866.3,0.227524,0.227238,0.242291,18,0.017582,10,5.50576e-05,-3.61566,-0.93602,-0.0630328,0.227131,
2,1,0,1,0,11870.1,0.246501,0.24621,0.237142,18,0.0185564,10,5.83869e-05,-3.62499,-0.863779,-0.0683045,0.246106,
2,1,0,0,0,11873.9,0.265479,0.265142,0.232993,18,0.0195107,10,6.17763e-05,-3.63266,-1.32244,-0.0446145,0.26504,
2,1,0,1,0,11877.7,0.284456,0.284139,0.22908,18,0.0204491,10,6.50905e-05,-3.64001,-0.91306,-0.0646179,0.284039,
2,1,0,0,0,11881.5,0.303433,0.30311,0.22466,18,0.021371,10,6.80966e-05,-3.64847,-1.22303,-0.0482407,0.303011,
2,1,0,1,0,11885.2,0.32241,0.322057,0.221031,18,0.0222764,10,7.11845e-05,-3.65555,-5.05857,-0.0116634,0.32196,
2,1,0,0,0,11889,0.341387,0.341115,0.218423,18,0.0231695,10,7.45074e-05,-3.6607,-3.68581,-0.0160073,0.341019,
2,1,0,1,0,11892.8,0.360364,0.360071,0.215966,18,0.0240512,10,7.7763e-05,-3.66561,17.2161,0.00342702,0.359976,
2,1,0,1,0,11896.6,0.379342,0.379037,0.214006,18,0.0249244,10,8.11162e-05,-3.66957,-4.33452,-0.0136117,0.378942,
2,1,0,1,0,11900.4,0.398319,0.397994,0.212105,18,0.0257895,10,8.44164e-05,-3.67345,-32.4134,-0.00182023,0.397901,
2,1,0,1,0,11904.2,0.417295,0.416996,0.211577,18,0.0266497,10,8.82268e-05,-3.67453,-3.1861,-0.0185179,0.416902,
2,1,0,1,0,11908,0.436272,0.435981,0.211623,18,0.0275084,10,9.22637e-05,-3.67444,-17.0918,-0.00345195,0.435888,
2,1,0,1,0,11911.8,0.455249,0.454942,0.212922,18,0.0283677,10,9.6867e-05,-3.67178,1.48817,0.039646,0.454848,
2,1,0,1,0,11915.6,0.474226,0.47391,0.214146,18,0.0292318,10,0.000101486,-3.66929,1.28326,0.0459765,0.473816,
2,1,0,1,0,11919.4,0.493203,0.492937,0.218201,18,0.0301059,10,0.000107559,-3.66114,0.854962,0.0690089,0.492841,
2,1,0,0,0,11923.2,0.512181,0.511869,0.223171,18,0.0309958,10,0.000114234,-3.65136,1.48511,0.0397277,0.511771,
2,1,0,1,0,11927,0.531158,0.530875,0.230801,18,0.0319092,10,0.000122526,-3.63676,1.02597,0.0575067,0.530773,
2,1,0,0,0,11930.8,0.550135,0.549827,0.241276,18,0.0328552,10,0.00013266,-3.61749,0.718124,0.0821585,0.549721,
2,1,0,1,0,11934.6,0.569112,0.56884,0.257813,18,0.0338517,10,0.000146654,-3.5887,0.64029,0.0921458,0.568727,
2,1,0,0,0,11938.4,0.588089,0.587762,0.28507,18,0.0349315,10,0.000167553,-3.54505,0.318252,0.185388,0.587637,
2,1,0,1,0,11942.2,0.607066,0.606825,0.337798,18,0.0361561,10,0.000204984,-3.47134,0.213254,0.276666,0.606677,
2,1,0,1,0,11946,0.626044,0.625763,0.437871,18,0.0376572,10,0.000274004,-3.35865,0.133621,0.441547,0.625571,
2,1,0,1,0,11949.8,0.64502,0.644731,0.657191,18,0.0397366,10,0.000423711,-3.18231,0.0905718,0.651417,0.644442,
2,1,0,1,0,11953.6,0.663997,0.663762,1.13194,18,0.0430762,10,0.000751339,-2.94618,0.0733419,0.804451,0.663264,
2,1,0,1,0,11957.4,0.682974,0.682668,2.08953,18,0.0490531,10,0.00142645,-2.67995,0.0694328,0.849743,0.681749,
2,1,0,1,0,11961.2,0.701951,0.701697,3.75823,18,0.0599573,10,0.00263714,-2.42502,0.0746549,0.790303,0.700043,
2,1,0,1,0,11965,0.720928,0.720643,6.21956,18,0.0787026,10,0.00448208,-2.20624,0.08931,0.66062,0.717906,
2,1,0,1,0,11968.7,0.739905,0.739635,9.41372,18,0.108211,10,0.00696272,-2.02624,0.106472,0.554137,0.735493,
2,1,0,0,0,11972.5,0.758883,0.758619,13.3546,18,0.151195,10,0.010131,-1.87437,0.117036,0.504119,0.752743,
2,1,0,1,0,11976.3,0.77786,0.777571,18.4516,18,0.211146,10,0.0143475,-1.73397,0.116709,0.505533,0.769452,
2,1,0,0,0,11980.1,0.796837,0.796579,24.9229,18,0.293038,10,0.019853,-1.6034,0.124675,0.47323,0.785613,
2,1,0,1,0,11983.9,0.815814,0.815543,32.6924,18,0.402912,10,0.026662,-1.48555,0.163568,0.360706,0.801158,
2,1,0,0,0,11987.7,0.834791,0.834556,40.0729,18,0.540636,10,0.0334431,-1.39715,0.185127,0.3187,0.816924,
2,1,0,0,0,11991.4,0.846727,0.846436,43.8894,18,0.701137,10,0.0371496,-1.35764,0.145364,0.405879,0.827124,
2,1,0,1,0,11995.2,0.827749,0.827475,34.9631,18,0.850521,10,0.0289311,-1.45639,0.139708,0.422311,0.812091,
2,1,0,1,0,11999,0.808772,0.808511,27.0148,18,0.967869,10,0.0218417,-1.5684,0.125235,0.471113,0.796625,
2,1,0,1,0,12002.8,0.789795,0.789497,20.0715,18,1.05672,10,0.0158464,-1.69742,0.114275,0.516298,0.780666,
2,1,0,1,0,12006.6,0.770818,0.770581,14.2237,18,1.12131,10,0.0109605,-1.84699,0.104175,0.566353,0.764323,
2,1,0,1,0,12010.4,0.751841,0.751599,9.60726,18,1.16606,10,0.0072208,-2.0174,0.0951618,0.619996,0.747372,
2,1,0,1,0,12014.2,0.732865,0.732573,6.1186,18,1.1955,10,0.00448232,-2.21335,0.0829069,0.711642,0.729881,
2,1,0,0,0,12018,0.713887,0.713641,3.60683,18,1.21362,10,0.00257398,-2.44287,0.0726688,0.811903,0.712054,
2,1,0,1,0,12021.8,0.69491,0.694634,1.93041,18,1.22383,10,0.00134093,-2.71435,0.0610241,0.966831,0.693785,
2,1,0,0,0,12025.6,0.675933,0.675637,0.906707,18,1.22898,10,0.000612605,-3.04253,0.0506861,1.16403,0.675238,
2,1,0,1,0,12029.4,0.656956,0.656673,0.354284,18,1.2312,10,0.000232649,-3.45065,0.0403185,1.46335,0.656517,
2,1,0,0,0,12033.2,0.637979,0.637695,0.0915657,18,1.23192,10,5.8391e-05,-4.03827,0.0229931,2.56598,0.637655,
2,0,0,1,0,12037,0.619002,0.61871,-0.0245116,18,1.23197,10,-1.51656e-05,-4.61063,-0.0150083,-3.93115,0.618721,
2,0,0,0,0,12040.8,0.600025,0.599713,-0.0717783,18,1.23172,10,-4.30464e-05,-4.14401,-0.0897212,-0.657593,0.599745,
2,0,0,1,0,12044.6,0.581047,0.580751,-0.0961447,18,1.23134,10,-5.58361e-05,-4.01707,-0.224165,-0.263199,0.580793,
2,0,0,1,0,12048.4,0.56207,0.561782,-0.106158,18,1.2309,10,-5.96375e-05,-3.97405,-1.4079,-0.0419064,0.561829,
2,0,0,1,0,12052.1,0.543093,0.542771,-0.113888,18,1.23043,10,-6.18152e-05,-3.94352,-1.17967,-0.050014,0.542821,
2,0,0,1,0,12055.9,0.524116,0.523783,-0.11934,18,1.22994,10,-6.25085e-05,-3.92321,-1.25677,-0.0469459,0.523835,
2,0,0,1,0,12059.7,0.505139,0.504862,-0.123789,18,1.22942,10,-6.24964e-05,-3.90732,2.00018,0.0294974,0.504917,
2,0,0,1,0,12063.5,0.486162,0.485888,-0.12742,18,1.22889,10,-6.1912e-05,-3.89476,-0.811424,-0.0727116,0.485944,
2,0,0,1,0,12067.3,0.467185,0.466859,-0.134341,18,1.22834,10,-6.27183e-05,-3.87179,16.2773,0.00362469,0.466918,
2,0,0,1,0,12071.1,0.448208,0.44794,-0.141581,18,1.22776,10,-6.34199e-05,-3.84899,-2.21931,-0.0265848,0.448003,
2,0,0,0,0,12074.9,0.429231,0.428923,-0.150458,18,1.22715,10,-6.45348e-05,-3.82259,-2.06721,-0.0285409,0.428989,
2,0,0,1,0,12078.7,0.410254,0.409977,-0.158117,18,1.22651,10,-6.48241e-05,-3.80102,-2.27952,-0.0258826,0.410046,
2,0,0,0,0,12082.5,0.391277,0.390958,-0.167124,18,1.22584,10,-6.53385e-05,-3.77696,-1.74704,-0.0337715,0.391032,
2,0,0,1,0,12086.3,0.3723,0.372034,-0.176893,18,1.22513,10,-6.58104e-05,-3.75229,-0.656266,-0.0899025,0.372112,
2,0,0,1,0,12090.1,0.353322,0.353027,-0.187647,18,1.22438,10,-6.62444e-05,-3.72666,-0.631698,-0.0933991,0.35311,
2,0,0,1,0,12093.9,0.334345,0.334066,-0.198314,18,1.22358,10,-6.62501e-05,-3.70265,-0.500511,-0.11788,0.334153,
2,0,0,1,0,12097.7,0.315368,0.315059,-0.210547,18,1.22274,10,-6.63348e-05,-3.67665,-1.17652,-0.0501477,0.315151,
2,0,0,1,0,12101.5,0.296391,0.296082,-0.223716,18,1.22186,10,-6.62383e-05,-3.6503,-0.647046,-0.0911836,0.29618,
2,0,0,1,0,12105.3,0.277414,0.277102,-0.233213,18,1.22093,10,-6.46238e-05,-3.63225,-0.85872,-0.0687069,0.277204,
2,0,0,1,0,12109.1,0.258437,0.258168,-0.24693,18,1.21996,10,-6.37494e-05,-3.60743,-1.04244,-0.0565977,0.258277,
2,0,0,1,0,12112.9,0.239461,0.239157,-0.258036,18,1.21893,10,-6.17111e-05,-3.58832,-0.884543,-0.0667011,0.239271,
2,0,0,0,0,12116.7,0.220483,0.220231,-0.269677,18,1.21787,10,-5.93911e-05,-3.56916,-0.628238,-0.0939134,0.220349,
2,0,0,1,0,12120.5,0.201506,0.201199,-0.285662,18,1.21675,10,-5.74747e-05,-3.54415,-0.5197,-0.113527,0.201324,
2,0,0,0,0,12124.3,0.182529,0.182219,-0.307653,18,1.21556,10,-5.60604e-05,-3.51194,-0.358702,-0.164482,0.182355,
2,0,0,1,0,12128.1,0.163552,0.163253,-0.357055,18,1.21425,10,-5.82902e-05,-3.44727,-0.208507,-0.282964,0.16341,
2,0,0,0,0,12131.9,0.144575,0.144254,-0.508516,18,1.2126,10,-7.33553e-05,-3.2937,-0.0845184,-0.698073,0.144477,
2,0,0,1,0,12135.6,0.125598,0.125249,-0.761297,18,1.21006,10,-9.53518e-05,-3.11845,-0.30217,-0.195254,0.125584,
2,0,0,1,0,12139.4,0.10662,0.1063,-0.756737,18,1.20706,10,-8.04413e-05,-3.12106,0.722664,0.0816424,0.106633,
2,0,0,1,0,12143.2,0.0876433,0.087333,-0.68657,18,1.20425,10,-5.99602e-05,-3.16332,0.471468,0.125141,0.0876351,
2,0,0,1,0,12147,0.0686664,0.0683657,-0.635881,18,1.20168,10,-4.34724e-05,-3.19662,0.639928,0.0921979,0.0686454,
2,0,0,1,0,12150.8,0.0496895,0.0493633,-0.588565,18,1.19928,10,-2.90535e-05,-3.23021,0.510486,0.115576,0.0496222,
2,0,0,1,0,12154.6,0.0307126,0.0304023,-0.534423,18,1.19707,10,-1.62477e-05,-3.27211,0.432086,0.136547,0.0306374,
2,0,0,1,0,12158.4,0.0117356,0.0114042,-0.499222,18,1.19504,10,-5.69324e-06,-3.30171,1.09128,0.0540648,0.0116239,
2,0,0,0,0,12160.7,0.000274105,-7.95743e-05,-0.50004,18,1.19386,10,3.97903e-08,-3.301, , ,0.000140443,