File: Figure_codes/Fig_3-5/workspace_calculate_alpha_eff/20221101_1-115_003_TrumpetPlot_ParaChange_from10_every3_16_CV_C01_14.csv
mode,ox/red,error,control changes,counter inc.,time/s,control/V,Ewe/V,<I>/mA,cycle number,(Q-Qo)/C,I Range,P/W,log(|I|),Tafel slope mV/dec,alpha_eff,E-IR/V,
2,0,0,0,0,9850.64,2.44065e-05,-0.000363498,-0.0885815,15,0.0000000E+000,10,3.21992e-08,-4.05266, , ,-0.000324522,
2,1,0,1,0,9854.39,0.0187763,0.0184168,0.219946,15,0.000734624,10,4.05069e-06,-3.65768,0.145215,0.406295,0.01832,
2,1,0,1,0,9858.19,0.0377538,0.0374262,0.287578,15,0.00176632,10,1.0763e-05,-3.54124,0.173418,0.340219,0.0372997,
2,1,0,0,0,9861.98,0.0567309,0.0564096,0.35343,15,0.0030592,10,1.99368e-05,-3.4517,0.269931,0.218574,0.0562541,
2,1,0,1,0,9865.78,0.075708,0.0753877,0.410702,15,0.004585,10,3.09619e-05,-3.38647,0.345774,0.170632,0.075207,
2,1,0,0,0,9869.57,0.0946851,0.0943669,0.47327,15,0.00631628,10,4.4661e-05,-3.32489,0.241371,0.244437,0.0941586,
2,1,0,1,0,9873.37,0.113662,0.11334,0.586351,15,0.00839687,10,6.64569e-05,-3.23184,0.280258,0.21052,0.113082,
2,1,0,0,0,9877.16,0.132639,0.132249,0.664548,15,0.0108488,10,8.78857e-05,-3.17747,-18.4674,-0.00319483,0.131956,
2,1,0,1,0,9880.96,0.151617,0.151322,0.455357,15,0.0131511,10,6.89054e-05,-3.34165,-0.0697431,-0.845962,0.151121,
2,1,0,1,0,9884.76,0.170594,0.170285,0.306124,15,0.0145921,10,5.21282e-05,-3.5141,-0.172329,-0.342369,0.17015,
2,1,0,1,0,9888.55,0.189571,0.189264,0.267224,15,0.0157334,10,5.05758e-05,-3.57312,-0.667851,-0.0883431,0.189146,
2,1,0,1,0,9892.35,0.208547,0.208224,0.251968,15,0.0167808,10,5.24656e-05,-3.59866,-0.768985,-0.0767245,0.208113,
2,1,0,1,0,9896.14,0.227524,0.22719,0.242081,15,0.017781,10,5.49985e-05,-3.61604,-0.746889,-0.0789944,0.227083,
2,1,0,1,0,9899.94,0.246501,0.246209,0.236703,15,0.0187546,10,5.82784e-05,-3.6258,-1.3443,-0.0438891,0.246105,
2,1,0,0,0,9903.73,0.265479,0.265174,0.232416,15,0.0197094,10,6.16306e-05,-3.63373,-2.22632,-0.0265011,0.265072,
2,1,0,1,0,9907.53,0.284456,0.284192,0.229328,15,0.0206473,10,6.51734e-05,-3.63954,-5.74237,-0.0102745,0.284091,
2,1,0,0,0,9911.32,0.303433,0.30314,0.22543,15,0.0215688,10,6.83367e-05,-3.64699,-2.0396,-0.0289272,0.303041,
2,1,0,1,0,9915.12,0.32241,0.322083,0.221801,15,0.0224759,10,7.14382e-05,-3.65404,-22.708,-0.0025982,0.321985,
2,1,0,0,0,9918.91,0.341387,0.341056,0.218498,15,0.0233709,10,7.452e-05,-3.66055,-1.0896,-0.0541485,0.340959,
2,1,0,1,0,9922.71,0.360364,0.360064,0.217447,15,0.0242546,10,7.82949e-05,-3.66265,-2.3319,-0.0253012,0.359969,
2,1,0,1,0,9926.5,0.379342,0.37905,0.214617,15,0.0251283,10,8.13506e-05,-3.66834,80.7087,0.000731024,0.378956,
2,1,0,1,0,9930.3,0.398319,0.397981,0.212374,15,0.0259954,10,8.45208e-05,-3.6729,-2.84672,-0.0207256,0.397887,
2,1,0,1,0,9934.1,0.417295,0.417008,0.212419,15,0.0268582,10,8.85804e-05,-3.67281,2.51828,0.0234287,0.416915,
2,1,0,1,0,9937.89,0.436272,0.435989,0.210338,15,0.0277174,10,9.17053e-05,-3.67708,1.88361,0.0313228,0.435897,
2,1,0,1,0,9941.69,0.455249,0.454979,0.211954,15,0.0285767,10,9.64346e-05,-3.67376,6.55873,0.00899565,0.454886,
2,1,0,1,0,9945.48,0.474226,0.473919,0.215048,15,0.0294408,10,0.000101915,-3.66747,1.02686,0.0574569,0.473824,
2,1,0,1,0,9949.28,0.493203,0.492901,0.217953,15,0.0303148,10,0.000107429,-3.66164,1.28535,0.0459019,0.492805,
2,1,0,0,0,9953.07,0.512181,0.511874,0.22321,15,0.0312045,10,0.000114255,-3.65129,1.23422,0.0478036,0.511776,
2,1,0,1,0,9956.87,0.531158,0.530836,0.229972,15,0.0321167,10,0.000122077,-3.63833,1.04234,0.0566032,0.530734,
2,1,0,0,0,9960.66,0.550135,0.549844,0.24022,15,0.0330628,10,0.000132084,-3.61939,0.682177,0.0864878,0.549739,
2,1,0,1,0,9964.46,0.569112,0.568795,0.259278,15,0.0340627,10,0.000147476,-3.58623,0.447824,0.131748,0.568681,
2,1,0,0,0,9968.25,0.588089,0.587788,0.288429,15,0.0351489,10,0.000169535,-3.53996,0.356525,0.165486,0.587661,
2,1,0,1,0,9972.05,0.607066,0.60678,0.341915,15,0.0363869,10,0.000207467,-3.46608,0.19697,0.299538,0.606629,
2,1,0,1,0,9975.85,0.626044,0.625806,0.451335,15,0.03792,10,0.000282448,-3.3455,0.128253,0.460027,0.625607,
2,1,0,1,0,9979.64,0.64502,0.644781,0.683418,15,0.0400699,10,0.000440655,-3.16531,0.0890691,0.662407,0.64448,
2,1,0,1,0,9983.44,0.663997,0.663745,1.19262,15,0.0435673,10,0.000791593,-2.9235,0.0693641,0.850584,0.66322,
2,1,0,1,0,9987.23,0.682974,0.682686,2.2205,15,0.0498958,10,0.0015159,-2.65355,0.0673726,0.875727,0.681709,
2,1,0,1,0,9991.03,0.701951,0.701666,4.00627,15,0.061505,10,0.00281106,-2.39726,0.0745441,0.791478,0.699903,
2,1,0,1,0,9994.82,0.720928,0.720679,6.61919,15,0.0814725,10,0.00477031,-2.1792,0.0900921,0.654885,0.717766,
2,1,0,1,0,9998.62,0.739905,0.739641,9.9447,15,0.112759,10,0.0073555,-2.00241,0.107432,0.549185,0.735265,
2,1,0,0,0,10002.4,0.758883,0.758622,14.0607,15,0.15807,10,0.0106667,-1.85199,0.117522,0.502032,0.752436,
2,1,0,1,0,10006.2,0.77786,0.777624,19.3101,15,0.221032,10,0.015016,-1.71422,0.122474,0.481734,0.769127,
2,1,0,0,0,10010,0.796837,0.796527,25.8842,15,0.306518,10,0.0206174,-1.58697,0.130877,0.450804,0.785138,
2,1,0,1,0,10013.8,0.815814,0.815572,33.4096,15,0.419039,10,0.027248,-1.47613,0.163896,0.359985,0.800871,
2,1,0,0,0,10017.6,0.834791,0.834545,41.0393,15,0.560232,10,0.0342491,-1.3868,0.138887,0.424805,0.816488,
2,1,0,0,0,10021.3,0.846727,0.846497,44.6119,15,0.725301,10,0.0377638,-1.35055,0.125689,0.469413,0.826868,
2,1,0,1,0,10025.1,0.827749,0.827495,35.9979,15,0.877978,10,0.029788,-1.44372,0.154798,0.381143,0.811655,
2,1,0,1,0,10028.9,0.808772,0.80849,28.1113,15,0.999377,10,0.0227277,-1.55112,0.131467,0.448781,0.796121,
2,1,0,1,0,10032.7,0.789795,0.789513,21.1201,15,1.09237,10,0.0166746,-1.6753,0.119564,0.49346,0.78022,
2,1,0,1,0,10036.5,0.770818,0.77056,15.0888,15,1.16061,10,0.0116268,-1.82135,0.103756,0.568644,0.763921,
2,1,0,1,0,10040.3,0.751841,0.751582,10.1568,15,1.20801,10,0.00763369,-1.99324,0.0963082,0.612617,0.747113,
2,1,0,1,0,10044.1,0.732865,0.732559,6.48061,15,1.23915,10,0.00474743,-2.18838,0.0857806,0.687801,0.729708,
2,1,0,0,0,10047.9,0.713887,0.713624,3.82966,15,1.25836,10,0.00273294,-2.41684,0.0723712,0.815242,0.711939,
2,1,0,1,0,10051.7,0.69491,0.69463,2.09226,15,1.26926,10,0.00145334,-2.67939,0.0622938,0.947125,0.69371,
2,1,0,0,0,10055.4,0.675933,0.675646,0.989023,15,1.27486,10,0.000668229,-3.00479,0.0520011,1.13459,0.67521,
2,1,0,1,0,10059.2,0.656956,0.656692,0.391727,15,1.27729,10,0.000257244,-3.40702,0.0401031,1.47121,0.65652,
2,1,0,0,0,10063,0.637979,0.637692,0.108013,15,1.27811,10,6.88788e-05,-3.96653,0.0255409,2.31002,0.637644,
2,0,0,1,0,10066.8,0.619002,0.618718,-0.0166171,15,1.2782,10,-1.02813e-05,-4.77944,-0.00842382,-7.00395,0.618725,
2,0,0,0,0,10070.6,0.600025,0.599728,-0.0686011,15,1.27796,10,-4.1142e-05,-4.16367,-0.0951876,-0.619829,0.599758,
2,0,0,1,0,10074.4,0.581047,0.580781,-0.0934439,15,1.27759,10,-5.42705e-05,-4.02945,-0.325716,-0.181139,0.580823,
2,0,0,1,0,10078.2,0.56207,0.561771,-0.10527,15,1.27716,10,-5.91379e-05,-3.97769,-1.09683,-0.0537915,0.561818,
2,0,0,1,0,10082,0.543093,0.542801,-0.112645,15,1.27669,10,-6.11438e-05,-3.94829,-0.647353,-0.0911404,0.542851,
2,0,0,1,0,10085.8,0.524116,0.523836,-0.117161,15,1.27619,10,-6.13733e-05,-3.93122,-0.97878,-0.0602791,0.523888,
2,0,0,1,0,10089.6,0.505139,0.504815,-0.122429,15,1.27568,10,-6.18042e-05,-3.91211,-0.51854,-0.113781,0.504869,
2,0,0,1,0,10093.4,0.486162,0.485863,-0.127656,15,1.27515,10,-6.20233e-05,-3.89396,-0.862884,-0.0683754,0.485919,
2,0,0,1,0,10097.2,0.467185,0.466815,-0.134182,15,1.27459,10,-6.26383e-05,-3.8723,-0.751725,-0.0784862,0.466874,
2,0,0,1,0,10101,0.448208,0.447905,-0.140521,15,1.27402,10,-6.29402e-05,-3.85226,-1.17698,-0.0501284,0.447967,
2,0,0,0,0,10104.8,0.429231,0.428952,-0.147416,15,1.27341,10,-6.32343e-05,-3.83146,-8.39262,-0.00702999,0.429016,
2,0,0,1,0,10108.6,0.410254,0.409907,-0.157143,15,1.27277,10,-6.44141e-05,-3.8037,-0.672876,-0.0876833,0.409976,
2,0,0,0,0,10112.4,0.391277,0.390988,-0.167398,15,1.27209,10,-6.54506e-05,-3.77625,-0.982261,-0.0600655,0.391062,
2,0,0,1,0,10116.2,0.3723,0.372,-0.176582,15,1.27138,10,-6.56886e-05,-3.75305,-1.24847,-0.0472578,0.372078,
2,0,0,1,0,10120,0.353322,0.353005,-0.188779,15,1.27063,10,-6.66398e-05,-3.72405,-1.04171,-0.0566375,0.353088,
2,0,0,1,0,10123.8,0.334345,0.334062,-0.198437,15,1.26983,10,-6.62903e-05,-3.70238,-0.689897,-0.08552,0.334149,
2,0,0,1,0,10127.6,0.315368,0.315088,-0.21157,15,1.26899,10,-6.66631e-05,-3.67455,-0.56649,-0.10415,0.315181,
2,0,0,1,0,10131.4,0.296391,0.296084,-0.223142,15,1.2681,10,-6.60689e-05,-3.65142,-1.37365,-0.0429513,0.296182,
2,0,0,1,0,10135.2,0.277414,0.277077,-0.234925,15,1.26717,10,-6.50923e-05,-3.62907,-1.09486,-0.0538881,0.277181,
2,0,0,1,0,10138.9,0.258437,0.258127,-0.247015,15,1.26619,10,-6.37612e-05,-3.60728,-0.727058,-0.081149,0.258235,
2,0,0,1,0,10142.7,0.239461,0.239194,-0.2587,15,1.26517,10,-6.18796e-05,-3.5872,-0.614658,-0.0959883,0.239308,
2,0,0,0,0,10146.5,0.220483,0.220162,-0.271444,15,1.2641,10,-5.97615e-05,-3.56632,-0.63899,-0.0923333,0.220281,
2,0,0,1,0,10150.3,0.201506,0.201194,-0.286464,15,1.26297,10,-5.76349e-05,-3.54293,-0.433405,-0.136131,0.20132,
2,0,0,0,0,10154.1,0.182529,0.182218,-0.309131,15,1.26178,10,-5.63294e-05,-3.50986,-0.296148,-0.199224,0.182354,
2,0,0,1,0,10157.9,0.163552,0.163264,-0.362359,15,1.26045,10,-5.91601e-05,-3.44086,-0.203589,-0.2898,0.163423,
2,0,0,0,0,10161.7,0.144575,0.144217,-0.525647,15,1.25876,10,-7.58071e-05,-3.27931,-0.0812153,-0.726464,0.144448,
2,0,0,1,0,10165.5,0.125598,0.125252,-0.780259,15,1.25614,10,-9.77292e-05,-3.10776,-0.359184,-0.164261,0.125596,
2,0,0,1,0,10169.3,0.10662,0.106353,-0.7653,15,1.25308,10,-8.13922e-05,-3.11617,0.57291,0.102983,0.10669,
2,0,0,1,0,10173.1,0.0876433,0.0873137,-0.690462,15,1.25025,10,-6.02867e-05,-3.16086,0.496411,0.118853,0.0876175,
2,0,0,1,0,10176.9,0.0686664,0.0683232,-0.636837,15,1.24766,10,-4.35107e-05,-3.19597,0.607409,0.097134,0.0686034,
2,0,0,1,0,10180.7,0.0496895,0.0493865,-0.587568,15,1.24526,10,-2.90179e-05,-3.23094,0.524733,0.112438,0.049645,
2,0,0,1,0,10184.5,0.0307126,0.0304371,-0.533628,15,1.24305,10,-1.62421e-05,-3.27276,0.544262,0.108404,0.0306719,
2,0,0,1,0,10188.3,0.0117356,0.0114043,-0.499879,15,1.24103,10,-5.70077e-06,-3.30113,1.32489,0.0445319,0.0116242,
2,0,0,0,0,10190.6,0.000274105,-0.00011417,-0.499514,15,1.23984,10,5.70296e-08,-3.30145, , ,0.000105616,