File: Figure_codes/Fig_3-5/workspace_calculate_alpha_eff/20221101_1-115_003_TrumpetPlot_ParaChange_from10_every3_16_CV_C01_28.csv
mode,ox/red,error,control changes,counter inc.,time/s,control/V,Ewe/V,<I>/mA,cycle number,(Q-Qo)/C,I Range,P/W,log(|I|),Tafel slope mV/dec,alpha_eff,E-IR/V,
2,0,0,0,0,19331.3,2.44065e-05,-0.000401673,-0.0962139,29,0.0000000E+000,10,3.86465e-08,-4.01676, , ,-0.000359339,
2,1,0,1,0,19335,0.0187763,0.0184284,0.229511,29,0.000759405,10,4.22953e-06,-3.6392,0.163662,0.360499,0.0183274,
2,1,0,1,0,19338.8,0.0377538,0.037388,0.297138,29,0.00182452,10,1.11094e-05,-3.52704,0.178252,0.330992,0.0372573,
2,1,0,0,0,19342.6,0.0567309,0.0564404,0.360676,29,0.00314529,10,2.03567e-05,-3.44288,0.284691,0.207242,0.0562817,
2,1,0,1,0,19346.4,0.075708,0.0753729,0.410522,29,0.00468491,10,3.09422e-05,-3.38666,0.46938,0.125698,0.0751922,
2,1,0,0,0,19350.2,0.0946851,0.0943319,0.468655,29,0.00640563,10,4.42091e-05,-3.32915,0.227324,0.259542,0.0941257,
2,1,0,1,0,19354,0.113662,0.11333,0.575085,29,0.00845601,10,6.51745e-05,-3.24027,0.312735,0.188658,0.113077,
2,1,0,0,0,19357.8,0.132639,0.132332,0.640129,29,0.0108409,10,8.47092e-05,-3.19373,-1.71337,-0.034435,0.13205,
2,1,0,1,0,19361.6,0.151617,0.151287,0.426853,29,0.0130234,10,6.45772e-05,-3.36972,-0.0741206,-0.796,0.151099,
2,1,0,1,0,19365.4,0.170594,0.170268,0.302892,29,0.0144049,10,5.15727e-05,-3.51871,-0.21997,-0.268219,0.170135,
2,1,0,1,0,19369.2,0.189571,0.189262,0.273622,29,0.0155483,10,5.17862e-05,-3.56285,-0.671077,-0.0879184,0.189141,
2,1,0,1,0,19373,0.208547,0.208231,0.260977,29,0.0166172,10,5.43435e-05,-3.5834,-0.703104,-0.0839137,0.208116,
2,1,0,1,0,19376.8,0.227524,0.227195,0.252199,29,0.017645,10,5.72984e-05,-3.59826,-0.880412,-0.0670141,0.227084,
2,1,0,1,0,19380.6,0.246501,0.246203,0.245654,29,0.0186471,10,6.04808e-05,-3.60968,-1.47718,-0.0399408,0.246095,
2,1,0,0,0,19384.4,0.265479,0.265211,0.243094,29,0.0196314,10,6.44713e-05,-3.61423,-1.5038,-0.0392338,0.265104,
2,1,0,1,0,19388.2,0.284456,0.28418,0.237756,29,0.0205997,10,6.75654e-05,-3.62387,-2.57603,-0.0229035,0.284075,
2,1,0,0,0,19392,0.303433,0.303135,0.233607,29,0.0215512,10,7.08146e-05,-3.63151,-2.34728,-0.0251355,0.303033,
2,1,0,1,0,19395.8,0.32241,0.322142,0.230179,29,0.0224867,10,7.41505e-05,-3.63793,2.67759,0.0220347,0.322041,
2,1,0,0,0,19399.6,0.341387,0.341069,0.227391,29,0.0234101,10,7.75561e-05,-3.64323,-2.07857,-0.0283849,0.340969,
2,1,0,1,0,19403.4,0.360364,0.360074,0.225867,29,0.024323,10,8.13288e-05,-3.64615,2.80963,0.0209992,0.359975,
2,1,0,1,0,19407.2,0.379342,0.379006,0.223826,29,0.025227,10,8.48312e-05,-3.65009,9.26533,0.00636782,0.378907,
2,1,0,1,0,19411,0.398319,0.39801,0.221486,29,0.0261232,10,8.81537e-05,-3.65465,53.7406,0.00109787,0.397913,
2,1,0,1,0,19414.7,0.417295,0.417043,0.220913,29,0.0270139,10,9.21303e-05,-3.65578,-2.48382,-0.0237538,0.416946,
2,1,0,1,0,19418.5,0.436272,0.43597,0.222017,29,0.027901,10,9.67928e-05,-3.65361,10.5045,0.00561662,0.435873,
2,1,0,1,0,19422.3,0.455249,0.454979,0.2208,29,0.0287879,10,0.00010046,-3.656,1.7787,0.0331703,0.454882,
2,1,0,1,0,19426.1,0.474226,0.473882,0.222653,29,0.0296775,10,0.000105511,-3.65237,0.763808,0.0772446,0.473784,
2,1,0,1,0,19429.9,0.493203,0.49295,0.225854,29,0.0305753,10,0.000111335,-3.64617,1.54369,0.03822,0.49285,
2,1,0,0,0,19433.7,0.512181,0.511917,0.230153,29,0.0314872,10,0.000117819,-3.63798,0.954558,0.0618087,0.511815,
2,1,0,1,0,19437.5,0.531158,0.530856,0.236881,29,0.0324209,10,0.00012575,-3.62547,2.01275,0.0293131,0.530751,
2,1,0,0,0,19441.3,0.550135,0.549831,0.246815,29,0.0333845,10,0.000135706,-3.60763,0.802274,0.073541,0.549722,
2,1,0,1,0,19445.1,0.569112,0.568833,0.262817,29,0.0343946,10,0.000149499,-3.58035,0.479092,0.12315,0.568717,
2,1,0,0,0,19448.9,0.588089,0.587816,0.288936,29,0.0354815,10,0.000169841,-3.5392,0.389489,0.15148,0.587689,
2,1,0,1,0,19452.7,0.607066,0.606805,0.333619,29,0.0366975,10,0.000202442,-3.47675,0.264382,0.223162,0.606658,
2,1,0,1,0,19456.5,0.626044,0.625772,0.421755,29,0.0381549,10,0.000263922,-3.37494,0.149915,0.393558,0.625586,
2,1,0,1,0,19460.3,0.64502,0.644704,0.606571,29,0.0401082,10,0.000391059,-3.21712,0.0952964,0.619121,0.644437,
2,1,0,1,0,19464.1,0.663997,0.663675,1.00449,29,0.043123,10,0.000666657,-2.99805,0.0769875,0.766358,0.663233,
2,1,0,1,0,19467.9,0.682974,0.682703,1.79565,29,0.0483273,10,0.0012259,-2.74578,0.0724767,0.814055,0.681912,
2,1,0,1,0,19471.7,0.701951,0.701656,3.16347,29,0.0575853,10,0.00221967,-2.49984,0.0785055,0.75154,0.700264,
2,1,0,1,0,19475.5,0.720928,0.720684,5.19414,29,0.0732857,10,0.00374333,-2.28449,0.0899148,0.656176,0.718399,
2,1,0,1,0,19479.3,0.739905,0.739647,7.86059,29,0.0979091,10,0.00581406,-2.10455,0.105995,0.556629,0.736188,
2,1,0,0,0,19483.1,0.758883,0.758625,11.1301,29,0.133767,10,0.00844358,-1.9535,0.121342,0.486228,0.753727,
2,1,0,1,0,19486.9,0.77786,0.777549,15.3088,29,0.183624,10,0.0119033,-1.81506,0.124144,0.475253,0.770813,
2,1,0,0,0,19490.7,0.796837,0.796563,20.7372,29,0.251647,10,0.0165184,-1.68325,0.1268,0.465301,0.787438,
2,1,0,1,0,19494.5,0.815814,0.815561,27.323,29,0.342664,10,0.0222836,-1.56347,0.143362,0.411544,0.803539,
2,1,0,0,0,19498.2,0.834791,0.834576,34.8074,29,0.460525,10,0.0290494,-1.45833,0.162587,0.362882,0.819261,
2,1,0,0,0,19501.9,0.846727,0.846504,38.8464,29,0.601613,10,0.0328836,-1.41065,0.142277,0.414685,0.829411,
2,1,0,1,0,19505.7,0.827749,0.827494,30.0176,29,0.732274,10,0.0248394,-1.52262,0.149357,0.395027,0.814287,
2,1,0,1,0,19509.5,0.808772,0.808547,22.9115,29,0.832308,10,0.018525,-1.63995,0.131916,0.447255,0.798466,
2,1,0,1,0,19513.3,0.789795,0.789516,16.9391,29,0.907875,10,0.0133737,-1.77111,0.114609,0.514795,0.782063,
2,1,0,1,0,19517.1,0.770818,0.770582,11.9069,29,0.962135,10,0.00917528,-1.9242,0.107388,0.549412,0.765343,
2,1,0,1,0,19520.9,0.751841,0.751526,8.02106,29,0.999537,10,0.00602804,-2.09577,0.0979923,0.602088,0.747997,
2,1,0,1,0,19524.7,0.732865,0.732573,5.16152,29,1.02424,10,0.00378119,-2.28722,0.0853904,0.690944,0.730302,
2,1,0,0,0,19528.5,0.713887,0.713611,3.0787,29,1.03959,10,0.002197,-2.51163,0.0754055,0.782437,0.712257,
2,1,0,1,0,19532.3,0.69491,0.694604,1.66287,29,1.04836,10,0.00115503,-2.77914,0.0624615,0.944581,0.693872,
2,1,0,0,0,19536.1,0.675933,0.675606,0.783018,29,1.0528,10,0.000529012,-3.10623,0.0511102,1.15437,0.675262,
2,1,0,1,0,19539.9,0.656956,0.656681,0.303699,29,1.05472,10,0.000199433,-3.51756,0.0386542,1.52635,0.656548,
2,1,0,0,0,19543.7,0.637979,0.637699,0.0712436,29,1.05532,10,4.5432e-05,-4.14725,0.020164,2.926,0.637668,
2,0,0,1,0,19547.5,0.619002,0.618687,-0.0312282,29,1.05532,10,-1.93205e-05,-4.50545,-0.0204368,-2.88695,0.618701,
2,0,0,0,0,19551.3,0.600025,0.599691,-0.073918,29,1.05507,10,-4.43279e-05,-4.13125,-0.11313,-0.521523,0.599723,
2,0,0,1,0,19555.1,0.581047,0.580761,-0.0945584,29,1.05469,10,-5.49158e-05,-4.0243,-0.372898,-0.15822,0.580803,
2,0,0,1,0,19558.9,0.56207,0.561765,-0.104698,29,1.05427,10,-5.88159e-05,-3.98006,-0.762767,-0.07735,0.561811,
2,0,0,1,0,19562.7,0.543093,0.542801,-0.111322,29,1.05381,10,-6.04258e-05,-3.95342,-2.7363,-0.021562,0.54285,
2,0,0,1,0,19566.5,0.524116,0.523824,-0.115958,29,1.05333,10,-6.07417e-05,-3.9357,-1.79079,-0.0329463,0.523875,
2,0,0,1,0,19570.3,0.505139,0.504862,-0.120381,29,1.05284,10,-6.07759e-05,-3.91944,-0.877941,-0.0672027,0.504915,
2,0,0,1,0,19574.1,0.486162,0.485869,-0.126149,29,1.05232,10,-6.12918e-05,-3.89912,-1.4448,-0.0408361,0.485925,
2,0,0,1,0,19577.9,0.467185,0.466865,-0.132393,29,1.05178,10,-6.18098e-05,-3.87813,-1.10876,-0.0532128,0.466923,
2,0,0,1,0,19581.6,0.448208,0.447959,-0.139273,29,1.05122,10,-6.23885e-05,-3.85613,-0.788704,-0.0748063,0.448021,
2,0,0,0,0,19585.4,0.429231,0.428916,-0.147743,29,1.05063,10,-6.33692e-05,-3.83049,-2.15239,-0.0274114,0.428981,
2,0,0,1,0,19589.2,0.410254,0.409953,-0.156054,29,1.05,10,-6.39748e-05,-3.80673,-1.00088,-0.058948,0.410022,
2,0,0,0,0,19593,0.391277,0.391001,-0.165061,29,1.04934,10,-6.45391e-05,-3.78235,-0.790731,-0.0746145,0.391073,
2,0,0,1,0,19596.8,0.3723,0.371963,-0.176195,29,1.04864,10,-6.55379e-05,-3.75401,-0.479941,-0.122932,0.372041,
2,0,0,1,0,19600.6,0.353322,0.353029,-0.186309,29,1.0479,10,-6.57726e-05,-3.72977,-0.921749,-0.0640088,0.353111,
2,0,0,1,0,19604.4,0.334345,0.334069,-0.196951,29,1.04712,10,-6.57955e-05,-3.70564,-0.577301,-0.1022,0.334156,
2,0,0,1,0,19608.2,0.315368,0.315035,-0.209645,29,1.04629,10,-6.60456e-05,-3.67852,-0.55962,-0.105429,0.315127,
2,0,0,1,0,19612,0.296391,0.296078,-0.220644,29,1.04542,10,-6.53279e-05,-3.65631,-0.731634,-0.0806414,0.296175,
2,0,0,1,0,19615.8,0.277414,0.277113,-0.233363,29,1.0445,10,-6.46678e-05,-3.63197,-0.91718,-0.0643276,0.277216,
2,0,0,1,0,19619.6,0.258437,0.25813,-0.245537,29,1.04354,10,-6.33805e-05,-3.60988,-0.75728,-0.0779104,0.258238,
2,0,0,1,0,19623.4,0.239461,0.239114,-0.256842,29,1.04253,10,-6.14145e-05,-3.59033,-0.759798,-0.0776522,0.239227,
2,0,0,0,0,19627.2,0.220483,0.22016,-0.26864,29,1.04148,10,-5.91438e-05,-3.57083,-0.565664,-0.104302,0.220278,
2,0,0,1,0,19631,0.201506,0.201193,-0.282978,29,1.04037,10,-5.69332e-05,-3.54825,-0.489904,-0.120432,0.201318,
2,0,0,0,0,19634.8,0.182529,0.182222,-0.304242,29,1.0392,10,-5.54394e-05,-3.51678,-0.357453,-0.165057,0.182355,
2,0,0,1,0,19638.6,0.163552,0.163243,-0.346202,29,1.03791,10,-5.65153e-05,-3.46067,-0.235199,-0.250852,0.163396,
2,0,0,0,0,19642.4,0.144575,0.14426,-0.475495,29,1.03634,10,-6.85949e-05,-3.32285,-0.0876634,-0.673029,0.144469,
2,0,0,1,0,19646.2,0.125598,0.125266,-0.722994,29,1.03397,10,-9.05667e-05,-3.14087,-0.223164,-0.264379,0.125584,
2,0,0,1,0,19650,0.10662,0.106283,-0.740352,29,1.03108,10,-7.8687e-05,-3.13056,0.929081,0.0635036,0.106609,
2,0,0,1,0,19653.8,0.0876433,0.0872915,-0.682252,29,1.02831,10,-5.95548e-05,-3.16606,0.506211,0.116552,0.0875917,
2,0,0,1,0,19657.6,0.0686664,0.0683444,-0.633844,29,1.02576,10,-4.33197e-05,-3.19802,0.739786,0.0797528,0.0686233,
2,0,0,1,0,19661.3,0.0496895,0.04936,-0.588148,29,1.02337,10,-2.9031e-05,-3.23051,0.50622,0.11655,0.0496188,
2,0,0,1,0,19665.1,0.0307126,0.0304321,-0.53738,29,1.02116,10,-1.63536e-05,-3.26972,0.479597,0.12302,0.0306686,
2,0,0,1,0,19668.9,0.0117356,0.0114295,-0.502756,29,1.01913,10,-5.74626e-06,-3.29864,1.67734,0.0351748,0.0116507,
2,0,0,0,0,19671.2,0.000274105,-9.26968e-05,-0.502857,29,1.01794,10,4.66132e-08,-3.29856, , ,0.00012856,