File: Figure_codes/Fig_3-5/workspace_calculate_alpha_eff/20221101_1-115_003_TrumpetPlot_ParaChange_from10_every3_16_CV_C01_71.csv
mode,ox/red,error,control changes,counter inc.,time/s,control/V,Ewe/V,<I>/mA,cycle number,(Q-Qo)/C,I Range,P/W,log(|I|),Tafel slope mV/dec,alpha_eff,E-IR/V,
2,0,0,0,0,47283.1,2.44065e-05,-0.000458935,-0.117839,72,0.0000000E+000,10,5.40804e-08,-3.92871, , ,-0.000407086,
2,1,0,1,0,47286.9,0.0187763,0.0184721,0.204083,72,0.000663806,10,3.76985e-06,-3.69019,0.13051,0.452071,0.0183823,
2,1,0,1,0,47290.7,0.0377538,0.03744,0.26733,72,0.00161827,10,1.00088e-05,-3.57295,0.16308,0.361785,0.0373224,
2,1,0,0,0,47294.5,0.0567309,0.0563661,0.330621,72,0.00282101,10,1.86358e-05,-3.48067,0.3026,0.194977,0.0562207,
2,1,0,1,0,47298.3,0.075708,0.075357,0.378248,72,0.00423032,10,2.85036e-05,-3.42222,0.432408,0.136445,0.0751905,
2,1,0,0,0,47302.1,0.094685,0.0943541,0.431342,72,0.00581005,10,4.06989e-05,-3.36518,0.239303,0.246549,0.0941643,
2,1,0,1,0,47305.8,0.113662,0.113338,0.526971,72,0.00768327,10,5.97255e-05,-3.27821,0.303028,0.194702,0.113106,
2,1,0,0,0,47309.6,0.132639,0.132334,0.565838,72,0.00983485,10,7.48794e-05,-3.24731,-0.631225,-0.0934691,0.132085,
2,1,0,1,0,47313.4,0.151617,0.151274,0.370611,72,0.0117362,10,5.60637e-05,-3.43108,-0.0764661,-0.771584,0.151111,
2,1,0,1,0,47317.2,0.170594,0.170289,0.276921,72,0.012966,10,4.71567e-05,-3.55764,-0.268482,-0.219754,0.170167,
2,1,0,1,0,47321,0.189571,0.189245,0.258645,72,0.0140285,10,4.89471e-05,-3.5873,-0.752391,-0.0784167,0.189131,
2,1,0,1,0,47324.8,0.208547,0.208299,0.250611,72,0.0150435,10,5.2202e-05,-3.601,-0.998273,-0.0591021,0.208189,
2,1,0,1,0,47328.6,0.227524,0.227184,0.245204,72,0.0160319,10,5.57063e-05,-3.61047,-1.29555,-0.0455405,0.227076,
2,1,0,1,0,47332.4,0.246501,0.246223,0.240796,72,0.0170023,10,5.92895e-05,-3.61835,-0.672732,-0.0877021,0.246117,
2,1,0,0,0,47336.2,0.265479,0.265186,0.238455,72,0.017958,10,6.32349e-05,-3.62259,-1.62074,-0.0364031,0.265081,
2,1,0,1,0,47340,0.284456,0.284154,0.233125,72,0.018898,10,6.62436e-05,-3.63241,-1.17165,-0.0503563,0.284052,
2,1,0,0,0,47343.8,0.303433,0.303134,0.228214,72,0.0198204,10,6.91795e-05,-3.64166,-2.2023,-0.0267902,0.303034,
2,1,0,1,0,47347.6,0.32241,0.322102,0.226403,72,0.0207289,10,7.29248e-05,-3.64512,-2.0768,-0.0284091,0.322002,
2,1,0,0,0,47351.4,0.341387,0.341071,0.223999,72,0.0216255,10,7.63996e-05,-3.64975,-18.1041,-0.00325894,0.340973,
2,1,0,1,0,47355.2,0.360364,0.360012,0.221911,72,0.0225124,10,7.98907e-05,-3.65382,-18.264,-0.00323039,0.359915,
2,1,0,1,0,47359,0.379342,0.379013,0.219245,72,0.0233903,10,8.30967e-05,-3.65907,-2.31149,-0.0255246,0.378917,
2,1,0,1,0,47362.8,0.398319,0.398035,0.218644,72,0.0242616,10,8.7028e-05,-3.66026,19.6413,0.00300387,0.397938,
2,1,0,1,0,47366.6,0.417295,0.417026,0.217624,72,0.0251283,10,9.07551e-05,-3.66229,6.25823,0.00942758,0.416931,
2,1,0,1,0,47370.4,0.436272,0.436,0.21758,72,0.0259921,10,9.4865e-05,-3.66238,3.13376,0.0188272,0.435905,
2,1,0,1,0,47374.2,0.455249,0.45495,0.217067,72,0.0268548,10,9.87543e-05,-3.66341,1.41375,0.0417329,0.454854,
2,1,0,1,0,47378,0.474226,0.473951,0.219566,72,0.0277209,10,0.000104064,-3.65843,1.86394,0.0316533,0.473854,
2,1,0,1,0,47381.8,0.493203,0.492875,0.222175,72,0.0285951,10,0.000109505,-3.6533,2.73713,0.0215554,0.492777,
2,1,0,0,0,47385.6,0.512181,0.511854,0.227216,72,0.0294818,10,0.000116301,-3.64356,1.17503,0.0502115,0.511754,
2,1,0,1,0,47389.3,0.531158,0.530869,0.233193,72,0.0303868,10,0.000123795,-3.63228,1.89184,0.0311866,0.530767,
2,1,0,0,0,47393.1,0.550135,0.549822,0.241281,72,0.0313191,10,0.000132661,-3.61748,0.963593,0.0612292,0.549716,
2,1,0,1,0,47396.9,0.569112,0.56884,0.254406,72,0.0322924,10,0.000144716,-3.59447,0.847133,0.0696467,0.568728,
2,1,0,0,0,47400.7,0.588089,0.587766,0.275725,72,0.0333269,10,0.000162062,-3.55952,0.485965,0.121408,0.587644,
2,1,0,1,0,47404.5,0.607066,0.606806,0.311313,72,0.0344636,10,0.000188907,-3.5068,0.308465,0.19127,0.606669,
2,1,0,1,0,47408.3,0.626044,0.625742,0.375014,72,0.0357826,10,0.000234662,-3.42595,0.189003,0.312165,0.625577,
2,1,0,1,0,47412.1,0.64502,0.644717,0.508542,72,0.0374621,10,0.000327866,-3.29367,0.11624,0.507572,0.644494,
2,1,0,1,0,47415.9,0.663997,0.663715,0.780038,72,0.0398776,10,0.000517723,-3.10788,0.0892456,0.661097,0.663372,
2,1,0,1,0,47419.7,0.682974,0.682725,1.3068,72,0.0437693,10,0.000892186,-2.88379,0.0812344,0.726294,0.68215,
2,1,0,1,0,47423.5,0.701951,0.70168,2.19572,72,0.0503196,10,0.0015407,-2.65842,0.0866472,0.680922,0.700713,
2,1,0,1,0,47427.3,0.720928,0.720665,3.50318,72,0.0610326,10,0.00252462,-2.45554,0.0961407,0.613684,0.719124,
2,1,0,1,0,47431.1,0.739905,0.739666,5.24765,72,0.0775276,10,0.00388151,-2.28004,0.11082,0.532396,0.737357,
2,1,0,0,0,47434.9,0.758883,0.758585,7.48828,72,0.101555,10,0.0056805,-2.12562,0.123494,0.477756,0.75529,
2,1,0,1,0,47438.7,0.77786,0.777567,10.3846,72,0.13526,10,0.00807474,-1.98361,0.124028,0.475697,0.772997,
2,1,0,0,0,47442.5,0.796837,0.796582,14.2758,72,0.181725,10,0.0113718,-1.8454,0.125498,0.470125,0.7903,
2,1,0,1,0,47446.3,0.815814,0.815504,19.3709,72,0.245257,10,0.0157971,-1.71285,0.132211,0.446257,0.80698,
2,1,0,0,0,47450.1,0.834791,0.83452,25.4164,72,0.330021,10,0.0212105,-1.59489,0.144679,0.4078,0.823337,
2,1,0,0,0,47453.8,0.846726,0.8465,28.7193,72,0.434595,10,0.0243109,-1.54183,0.104288,0.565743,0.833864,
2,1,0,1,0,47457.6,0.827749,0.827506,21.1919,72,0.528525,10,0.0175364,-1.67383,0.12131,0.486359,0.818182,
2,1,0,1,0,47461.4,0.808772,0.808542,15.4953,72,0.597645,10,0.0125286,-1.8098,0.120116,0.491193,0.801724,
2,1,0,1,0,47465.2,0.789795,0.78953,11.0772,72,0.647644,10,0.00874581,-1.95557,0.116049,0.508406,0.784656,
2,1,0,1,0,47468.9,0.770818,0.770543,7.67589,72,0.682923,10,0.0059146,-2.11487,0.110839,0.532305,0.767165,
2,1,0,1,0,47472.7,0.751841,0.751581,5.25557,72,0.707209,10,0.00394998,-2.27938,0.103512,0.56998,0.749268,
2,1,0,1,0,47476.5,0.732865,0.732637,3.44072,72,0.72351,10,0.0025208,-2.46335,0.0929645,0.634651,0.731123,
2,1,0,0,0,47480.3,0.713887,0.713601,2.10083,72,0.733864,10,0.00149915,-2.67761,0.0789784,0.74704,0.712676,
2,1,0,1,0,47484.1,0.69491,0.694622,1.15696,72,0.739903,10,0.000803651,-2.93668,0.0644824,0.914979,0.694112,
2,1,0,0,0,47487.9,0.675933,0.675619,0.545109,72,0.743005,10,0.000368286,-3.26352,0.0504035,1.17055,0.675379,
2,1,0,1,0,47491.7,0.656956,0.656676,0.195709,72,0.744309,10,0.000128517,-3.70839,0.0342549,1.72238,0.65659,
2,1,0,0,0,47495.5,0.637979,0.637671,0.0224061,72,0.74465,10,1.42877e-05,-4.64963,0.00785247,7.51356,0.637661,
2,0,0,1,0,47499.3,0.619002,0.618721,-0.0541622,72,0.744536,10,-3.35113e-05,-4.2663,-0.0520737,-1.13301,0.618745,
2,0,0,0,0,47503.1,0.600024,0.599716,-0.0898857,72,0.744221,10,-5.39059e-05,-4.04631,-0.155358,-0.379767,0.599756,
2,0,0,1,0,47506.9,0.581047,0.580753,-0.105446,72,0.743815,10,-6.1238e-05,-3.97697,-0.465032,-0.126873,0.580799,
2,0,0,1,0,47510.7,0.56207,0.56181,-0.113657,72,0.743365,10,-6.38534e-05,-3.94441,-1.95091,-0.0302423,0.56186,
2,0,0,1,0,47514.5,0.543093,0.542779,-0.119453,72,0.742891,10,-6.48367e-05,-3.9228,-1.16383,-0.0506949,0.542831,
2,0,0,1,0,47518.3,0.524116,0.523825,-0.124403,72,0.742396,10,-6.51654e-05,-3.90517,-1.70828,-0.0345377,0.52388,
2,0,0,1,0,47522.1,0.505139,0.504845,-0.129267,72,0.741883,10,-6.52599e-05,-3.88851,-4.70912,-0.0125289,0.504902,
2,0,0,1,0,47525.9,0.486162,0.485859,-0.132923,72,0.741352,10,-6.45819e-05,-3.8764,-1.36318,-0.0432811,0.485917,
2,0,0,1,0,47529.7,0.467185,0.466859,-0.139307,72,0.740799,10,-6.50369e-05,-3.85603,-1.56138,-0.0377872,0.46692,
2,0,0,1,0,47533.5,0.448208,0.447867,-0.146839,72,0.740221,10,-6.57643e-05,-3.83316,-1.37737,-0.0428353,0.447932,
2,0,0,0,0,47537.3,0.429231,0.428946,-0.153847,72,0.739614,10,-6.59921e-05,-3.81291,-1.53739,-0.0383768,0.429014,
2,0,0,1,0,47541.1,0.410254,0.409932,-0.163015,72,0.738976,10,-6.6825e-05,-3.78777,-1.27275,-0.0463564,0.410004,
2,0,0,0,0,47544.9,0.391277,0.390983,-0.172979,72,0.7383,10,-6.76319e-05,-3.76201,-0.645073,-0.0914625,0.391059,
2,0,0,1,0,47548.7,0.3723,0.37201,-0.183073,72,0.737587,10,-6.81048e-05,-3.73738,-0.96417,-0.0611926,0.37209,
2,0,0,1,0,47552.4,0.353322,0.353014,-0.19303,72,0.736835,10,-6.81425e-05,-3.71437,-0.695265,-0.0848597,0.353099,
2,0,0,1,0,47556.2,0.334345,0.33406,-0.203475,72,0.736042,10,-6.79729e-05,-3.69149,-0.676239,-0.0872472,0.334149,
2,0,0,1,0,47560,0.315368,0.315075,-0.215109,72,0.735205,10,-6.77754e-05,-3.66734,-1.16407,-0.0506842,0.315169,
2,0,0,1,0,47563.8,0.296391,0.296093,-0.227423,72,0.734324,10,-6.73386e-05,-3.64316,-1.18912,-0.0496166,0.296193,
2,0,0,1,0,47567.6,0.277414,0.277097,-0.239428,72,0.733397,10,-6.63449e-05,-3.62083,-0.873156,-0.067571,0.277203,
2,0,0,1,0,47571.4,0.258437,0.258155,-0.251239,72,0.732423,10,-6.48586e-05,-3.59991,-0.766024,-0.0770211,0.258266,
2,0,0,1,0,47575.2,0.239461,0.23916,-0.262546,72,0.731405,10,-6.27905e-05,-3.5808,-0.724603,-0.0814239,0.239276,
2,0,0,0,0,47579,0.220483,0.220154,-0.274083,72,0.730343,10,-6.03407e-05,-3.56212,-0.727539,-0.0810953,0.220275,
2,0,0,1,0,47582.8,0.201506,0.201192,-0.287316,72,0.729233,10,-5.78058e-05,-3.54164,-0.500093,-0.117978,0.201319,
2,0,0,0,0,47586.6,0.182529,0.182208,-0.304274,72,0.728064,10,-5.54411e-05,-3.51673,-0.456477,-0.129251,0.182342,
2,0,0,1,0,47590.4,0.163552,0.163198,-0.336718,72,0.726802,10,-5.49516e-05,-3.47273,-0.299184,-0.197203,0.163346,
2,0,0,0,0,47594.2,0.144575,0.144259,-0.429172,72,0.725335,10,-6.19119e-05,-3.36737,-0.111851,-0.527485,0.144448,
2,0,0,1,0,47598,0.125598,0.125218,-0.635631,72,0.723262,10,-7.95926e-05,-3.1968,-0.171022,-0.344984,0.125498,
2,0,0,1,0,47601.8,0.10662,0.106297,-0.692214,72,0.72063,10,-7.35804e-05,-3.15976,5.58227,0.0105692,0.106602,
2,0,0,1,0,47605.6,0.0876433,0.0873245,-0.66305,72,0.717991,10,-5.79005e-05,-3.17845,0.644093,0.0916017,0.0876162,
2,0,0,1,0,47609.4,0.0686664,0.0683229,-0.622177,72,0.715499,10,-4.2509e-05,-3.20609,0.764583,0.0771662,0.0685967,
2,0,0,1,0,47613.2,0.0496895,0.0493611,-0.578007,72,0.713163,10,-2.85311e-05,-3.23807,0.563245,0.10475,0.0496155,
2,0,0,1,0,47617,0.0307126,0.0304118,-0.528598,72,0.711007,10,-1.60756e-05,-3.27687,0.526194,0.112126,0.0306443,
2,0,0,1,0,47620.8,0.0117356,0.0114201,-0.49824,72,0.70901,10,-5.68994e-06,-3.30256,1.41587,0.0416706,0.0116393,
2,0,0,0,0,47623.1,0.000274105,-7.00306e-05,-0.501321,72,0.707833,10,3.51079e-08,-3.29988, , ,0.000150551,