File: Figure_codes/Fig_3-5/workspace_calculate_alpha_eff/20221101_1-115_003_TrumpetPlot_ParaChange_from10_every3_16_CV_C01_53.csv
mode,ox/red,error,control changes,counter inc.,time/s,control/V,Ewe/V,<I>/mA,cycle number,(Q-Qo)/C,I Range,P/W,log(|I|),Tafel slope mV/dec,alpha_eff,E-IR/V,
2,0,0,0,0,35462.3,2.44065e-05,-0.000248974,-0.101302,54,0.0000000E+000,10,2.52216e-08,-3.99438, , ,-0.000204401,
2,1,0,1,0,35466.1,0.0187763,0.0184552,0.208887,54,0.000679287,10,3.85504e-06,-3.68009,0.151703,0.388917,0.0183632,
2,1,0,1,0,35469.9,0.0377538,0.0374018,0.274653,54,0.00165813,10,1.02725e-05,-3.56122,0.182117,0.323968,0.037281,
2,1,0,0,0,35473.7,0.0567309,0.0563948,0.337792,54,0.00288841,10,1.90497e-05,-3.47135,0.276595,0.213308,0.0562461,
2,1,0,1,0,35477.5,0.075708,0.0753697,0.384609,54,0.0043284,10,2.89878e-05,-3.41498,0.42534,0.138713,0.0752004,
2,1,0,0,0,35481.3,0.094685,0.0943934,0.440865,54,0.00594015,10,4.16147e-05,-3.35569,0.248464,0.237459,0.0941994,
2,1,0,1,0,35485.1,0.113662,0.113356,0.537739,54,0.00785733,10,6.09557e-05,-3.26943,0.324197,0.181988,0.113119,
2,1,0,0,0,35488.9,0.132639,0.132312,0.583969,54,0.010065,10,7.72664e-05,-3.23361,-0.774455,-0.0761826,0.132055,
2,1,0,1,0,35492.7,0.151617,0.1513,0.38455,54,0.0120387,10,5.81826e-05,-3.41505,-0.0733619,-0.804232,0.151131,
2,1,0,1,0,35496.5,0.170594,0.170296,0.283472,54,0.0133034,10,4.82743e-05,-3.54749,-0.29104,-0.202721,0.170172,
2,1,0,1,0,35500.2,0.189571,0.189229,0.259666,54,0.0143819,10,4.91364e-05,-3.58558,-0.887504,-0.0664786,0.189115,
2,1,0,1,0,35504,0.208547,0.208231,0.251085,54,0.0154039,10,5.22837e-05,-3.60018,-1.11708,-0.0528163,0.208121,
2,1,0,1,0,35507.8,0.227524,0.227227,0.24382,54,0.0163942,10,5.54025e-05,-3.61293,-0.984145,-0.0599505,0.22712,
2,1,0,1,0,35511.6,0.246501,0.246163,0.238505,54,0.017363,10,5.8711e-05,-3.6225,-0.881945,-0.0668976,0.246058,
2,1,0,0,0,35515.4,0.265479,0.265146,0.235622,54,0.0183155,10,6.24744e-05,-3.62778,-1.18692,-0.0497084,0.265043,
2,1,0,1,0,35519.2,0.284456,0.284131,0.231637,54,0.0192529,10,6.58152e-05,-3.63519,-3.94121,-0.01497,0.284029,
2,1,0,0,0,35523,0.303433,0.303134,0.227934,54,0.0201738,10,6.90947e-05,-3.64219,-1.54641,-0.038153,0.303034,
2,1,0,1,0,35526.8,0.32241,0.322098,0.224748,54,0.02108,10,7.23908e-05,-3.6483,13.1298,0.0044936,0.321999,
2,1,0,0,0,35530.6,0.341387,0.341124,0.221603,54,0.0219742,10,7.55943e-05,-3.65442,-5.60047,-0.0105348,0.341027,
2,1,0,1,0,35534.4,0.360364,0.360036,0.219775,54,0.0228582,10,7.91267e-05,-3.65802,14.2301,0.00414613,0.359939,
2,1,0,1,0,35538.2,0.379342,0.379058,0.217388,54,0.0237333,10,8.24025e-05,-3.66277,11.4178,0.00516738,0.378962,
2,1,0,1,0,35542,0.398319,0.398009,0.215825,54,0.0246008,10,8.59001e-05,-3.6659,3.68254,0.0160215,0.397914,
2,1,0,1,0,35545.8,0.417295,0.417,0.215537,54,0.0254639,10,8.9879e-05,-3.66648,7.13101,0.00827372,0.416905,
2,1,0,1,0,35549.6,0.436272,0.435941,0.216443,54,0.0263239,10,9.43562e-05,-3.66466,2.76489,0.021339,0.435845,
2,1,0,1,0,35553.4,0.455249,0.454923,0.215892,54,0.0271834,10,9.82143e-05,-3.66576,3.12038,0.0189079,0.454828,
2,1,0,1,0,35557.2,0.474226,0.473943,0.217896,54,0.0280448,10,0.00010327,-3.66175,1.97177,0.0299223,0.473847,
2,1,0,1,0,35561,0.493203,0.492904,0.22024,54,0.0289144,10,0.000108557,-3.6571,1.56246,0.0377609,0.492807,
2,1,0,0,0,35564.8,0.512181,0.51189,0.225606,54,0.0298015,10,0.000115486,-3.64665,24.5556,0.00240271,0.511791,
2,1,0,1,0,35568.6,0.531158,0.530842,0.231047,54,0.030707,10,0.000122649,-3.6363,0.947419,0.0622745,0.53074,
2,1,0,0,0,35572.4,0.550135,0.549892,0.240268,54,0.0316385,10,0.000132121,-3.6193,0.738636,0.079877,0.549786,
2,1,0,1,0,35576.2,0.569112,0.568833,0.253579,54,0.0326116,10,0.000144244,-3.59589,0.537916,0.109683,0.568721,
2,1,0,0,0,35579.9,0.588089,0.587822,0.275383,54,0.0336512,10,0.000161876,-3.56006,0.424573,0.138963,0.587701,
2,1,0,1,0,35583.7,0.607066,0.606733,0.312512,54,0.0347978,10,0.000189612,-3.50513,0.254109,0.232184,0.606595,
2,1,0,1,0,35587.5,0.626044,0.625738,0.382324,54,0.0361369,10,0.000239234,-3.41757,0.163783,0.360233,0.62557,
2,1,0,1,0,35591.3,0.64502,0.644737,0.526543,54,0.0378651,10,0.000339482,-3.27857,0.111142,0.530854,0.644506,
2,1,0,1,0,35595.1,0.663997,0.663736,0.826452,54,0.0403997,10,0.000548547,-3.08278,0.0868823,0.67908,0.663373,
2,1,0,1,0,35598.9,0.682974,0.682677,1.41599,54,0.0445766,10,0.000966662,-2.84894,0.0763716,0.772539,0.682054,
2,1,0,1,0,35602.7,0.701951,0.701662,2.43069,54,0.0517619,10,0.00170553,-2.61427,0.0822727,0.717127,0.700593,
2,1,0,1,0,35606.5,0.720928,0.720641,3.93991,54,0.0637281,10,0.00283926,-2.40451,0.0952064,0.619707,0.718908,
2,1,0,1,0,35610.3,0.739905,0.739652,5.96536,54,0.0823977,10,0.00441229,-2.22436,0.107346,0.549627,0.737028,
2,1,0,0,0,35614.1,0.758883,0.758612,8.5598,54,0.109809,10,0.00649357,-2.06754,0.118469,0.498022,0.754846,
2,1,0,1,0,35617.9,0.77786,0.777616,11.8964,54,0.148389,10,0.00925085,-1.92458,0.123129,0.479171,0.772382,
2,1,0,0,0,35621.7,0.796837,0.796563,16.3799,54,0.201694,10,0.0130476,-1.78569,0.136941,0.430841,0.789355,
2,1,0,1,0,35625.5,0.815814,0.815565,22.0885,54,0.274216,10,0.0180146,-1.65583,0.140517,0.419878,0.805846,
2,1,0,0,0,35629.3,0.834791,0.834562,28.6737,54,0.370431,10,0.02393,-1.54252,0.15305,0.385495,0.821946,
2,1,0,0,0,35633,0.846726,0.846476,32.4163,54,0.488068,10,0.0274396,-1.48924,0.114633,0.514687,0.832213,
2,1,0,1,0,35636.8,0.827749,0.827509,24.4119,54,0.595205,10,0.020201,-1.6124,0.124636,0.473379,0.816768,
2,1,0,1,0,35640.6,0.808772,0.808479,17.8813,54,0.675085,10,0.0144567,-1.7476,0.114694,0.514413,0.800612,
2,1,0,1,0,35644.4,0.789795,0.789555,12.7787,54,0.732844,10,0.0100895,-1.89351,0.112789,0.523101,0.783932,
2,1,0,1,0,35648.2,0.770818,0.770529,8.92649,54,0.773651,10,0.00687812,-2.04932,0.106321,0.554925,0.766601,
2,1,0,1,0,35652,0.751841,0.751577,6.03093,54,0.801712,10,0.00453271,-2.21962,0.101836,0.579363,0.748924,
2,1,0,1,0,35655.8,0.732865,0.732527,3.90988,54,0.820336,10,0.00286409,-2.40784,0.0904361,0.652394,0.730807,
2,1,0,0,0,35659.6,0.713887,0.713604,2.35984,54,0.832029,10,0.00168399,-2.62712,0.0780278,0.756141,0.712566,
2,1,0,1,0,35663.3,0.69491,0.694633,1.28225,54,0.838763,10,0.000890692,-2.89203,0.0631981,0.933572,0.694069,
2,1,0,0,0,35667.1,0.675933,0.675666,0.59761,54,0.842184,10,0.000403785,-3.22358,0.0496253,1.18891,0.675403,
2,1,0,1,0,35670.9,0.656956,0.656665,0.218168,54,0.843617,10,0.000143264,-3.66121,0.0362137,1.62922,0.656569,
2,1,0,0,0,35674.7,0.637979,0.637664,0.0303962,54,0.844005,10,1.93826e-05,-4.51718,0.010587,5.57288,0.637651,
2,0,0,1,0,35678.5,0.619002,0.618646,-0.0505624,54,0.843907,10,-3.12802e-05,-4.29617,-0.0447373,-1.31881,0.618668,
2,0,0,0,0,35682.3,0.600024,0.599666,-0.0872877,54,0.843597,10,-5.23435e-05,-4.05905,-0.164295,-0.35911,0.599705,
2,0,0,1,0,35686.1,0.581047,0.580714,-0.103945,54,0.843194,10,-6.03622e-05,-3.9832,-0.380506,-0.155057,0.58076,
2,0,0,1,0,35689.9,0.56207,0.561772,-0.11209,54,0.842746,10,-6.29692e-05,-3.95043,-0.757253,-0.0779132,0.561821,
2,0,0,1,0,35693.7,0.543093,0.542849,-0.117986,54,0.842271,10,-6.40483e-05,-3.92817,-0.576296,-0.102378,0.542901,
2,0,0,1,0,35697.5,0.524116,0.523831,-0.122835,54,0.841778,10,-6.43449e-05,-3.91068,-2.1265,-0.0277451,0.523885,
2,0,0,1,0,35701.3,0.505139,0.504846,-0.126579,54,0.841267,10,-6.39031e-05,-3.89764,-2.93992,-0.0200686,0.504902,
2,0,0,1,0,35705.1,0.486162,0.485838,-0.131875,54,0.840737,10,-6.40698e-05,-3.87984,-1.58804,-0.0371527,0.485896,
2,0,0,1,0,35708.9,0.467185,0.466844,-0.137677,54,0.840185,10,-6.42737e-05,-3.86114,-3.08545,-0.019122,0.466905,
2,0,0,1,0,35712.7,0.448208,0.447908,-0.144153,54,0.839608,10,-6.45675e-05,-3.84118,-1.20761,-0.0488566,0.447972,
2,0,0,0,0,35716.5,0.429231,0.428951,-0.151752,54,0.839001,10,-6.5094e-05,-3.81887,-1.02844,-0.0573685,0.429017,
2,0,0,1,0,35720.3,0.410254,0.409952,-0.161111,54,0.838364,10,-6.60479e-05,-3.79287,-1.31091,-0.045007,0.410023,
2,0,0,0,0,35724.1,0.391277,0.390991,-0.170711,54,0.837692,10,-6.67463e-05,-3.76774,-0.619546,-0.0952311,0.391066,
2,0,0,1,0,35727.9,0.3723,0.371984,-0.180992,54,0.836983,10,-6.73261e-05,-3.74234,-0.480695,-0.122739,0.372064,
2,0,0,1,0,35731.7,0.353322,0.353015,-0.190013,54,0.836234,10,-6.70774e-05,-3.72122,-0.866443,-0.0680945,0.353099,
2,0,0,1,0,35735.5,0.334345,0.334055,-0.201181,54,0.835443,10,-6.72056e-05,-3.69641,-0.643053,-0.0917498,0.334143,
2,0,0,1,0,35739.3,0.315368,0.315059,-0.212622,54,0.834609,10,-6.69883e-05,-3.67239,-0.65679,-0.0898308,0.315152,
2,0,0,1,0,35743.1,0.296391,0.296057,-0.225396,54,0.833731,10,-6.67302e-05,-3.64705,-0.81172,-0.0726852,0.296156,
2,0,0,1,0,35746.8,0.277414,0.277122,-0.236251,54,0.832806,10,-6.54702e-05,-3.62663,-1.02285,-0.0576817,0.277226,
2,0,0,1,0,35750.6,0.258437,0.258103,-0.248823,54,0.831835,10,-6.4222e-05,-3.60411,-0.741992,-0.0795157,0.258213,
2,0,0,1,0,35754.4,0.239461,0.239182,-0.260158,54,0.83082,10,-6.22252e-05,-3.58476,-0.519155,-0.113646,0.239296,
2,0,0,0,0,35758.2,0.220483,0.220186,-0.271946,54,0.829762,10,-5.98787e-05,-3.56552,-0.533975,-0.110492,0.220306,
2,0,0,1,0,35762,0.201506,0.201198,-0.285006,54,0.828653,10,-5.73426e-05,-3.54515,-0.403413,-0.146252,0.201323,
2,0,0,0,0,35765.8,0.182529,0.182174,-0.303488,54,0.827484,10,-5.52876e-05,-3.51786,-0.428391,-0.137725,0.182307,
2,0,0,1,0,35769.6,0.163552,0.163204,-0.338906,54,0.826218,10,-5.53108e-05,-3.46992,-0.293279,-0.201173,0.163353,
2,0,0,0,0,35773.4,0.144575,0.144229,-0.440896,54,0.824723,10,-6.35901e-05,-3.35566,-0.103304,-0.571131,0.144423,
2,0,0,1,0,35777.2,0.125598,0.125254,-0.661582,54,0.822563,10,-8.28661e-05,-3.17942,-0.181894,-0.324365,0.125545,
2,0,0,1,0,35781,0.10662,0.10627,-0.708016,54,0.819845,10,-7.52412e-05,-3.14996,2.77272,0.0212787,0.106582,
2,0,0,1,0,35784.8,0.0876433,0.0873054,-0.670663,54,0.817163,10,-5.85525e-05,-3.1735,0.634412,0.0929995,0.0876005,
2,0,0,1,0,35788.6,0.0686664,0.0683274,-0.625507,54,0.81465,10,-4.27393e-05,-3.20377,0.623922,0.0945631,0.0686026,
2,0,0,1,0,35792.4,0.0496895,0.0493611,-0.581189,54,0.812296,10,-2.86881e-05,-3.23568,0.565741,0.104288,0.0496168,
2,0,0,1,0,35796.2,0.0307126,0.0304088,-0.532018,54,0.810123,10,-1.6178e-05,-3.27407,0.540453,0.109168,0.0306429,
2,0,0,1,0,35800,0.0117356,0.0114255,-0.49957,54,0.808116,10,-5.70786e-06,-3.3014,1.68202,0.0350769,0.0116453,
2,0,0,0,0,35802.3,0.000274105,-0.000105819,-0.500712,54,0.806936,10,5.2985e-08,-3.30041, , ,0.000114494,