File: Figure_codes/Fig_3-5/workspace_calculate_alpha_eff/20221101_1-115_003_TrumpetPlot_ParaChange_from10_every3_16_CV_C01_9.csv
mode,ox/red,error,control changes,counter inc.,time/s,control/V,Ewe/V,<I>/mA,cycle number,(Q-Qo)/C,I Range,P/W,log(|I|),Tafel slope mV/dec,alpha_eff,E-IR/V,
2,0,0,1,0,7140.51,2.44065e-05,-0.000287149,-0.0491475,10,0.0000000E+000,10,1.41127e-08,-4.3085, , ,-0.000265524,
2,1,0,1,0,7144.26,0.0187763,0.0184255,0.276942,10,0.000962192,10,5.1028e-06,-3.55761,0.189755,0.310927,0.0183036,
2,1,0,0,0,7148.06,0.0377538,0.0374135,0.340292,10,0.00220955,10,1.27315e-05,-3.46815,0.221234,0.266686,0.0372638,
2,1,0,1,0,7151.85,0.0567309,0.0564202,0.408589,10,0.00371645,10,2.30527e-05,-3.38871,0.302293,0.195175,0.0562404,
2,1,0,0,0,7155.65,0.075708,0.0753962,0.464011,10,0.00545803,10,3.49847e-05,-3.33347,0.471516,0.125128,0.075192,
2,1,0,1,0,7159.44,0.0946851,0.0943944,0.528595,10,0.00740076,10,4.98964e-05,-3.27688,0.245486,0.24034,0.0941619,
2,1,0,0,0,7163.24,0.113662,0.113379,0.644067,10,0.00969278,10,7.30236e-05,-3.19107,0.286686,0.2058,0.113095,
2,1,0,1,0,7167.03,0.132639,0.132334,0.724031,10,0.0123764,10,9.58137e-05,-3.14024,1.62904,0.0362177,0.132015,
2,1,0,1,0,7170.83,0.151617,0.151274,0.520711,10,0.0149355,10,7.87701e-05,-3.2834,-0.0752466,-0.784089,0.151045,
2,1,0,1,0,7174.62,0.170594,0.170294,0.354409,10,0.0165891,10,6.03538e-05,-3.4505,-0.207121,-0.284858,0.170138,
2,1,0,1,0,7178.42,0.189571,0.189296,0.31263,10,0.0179062,10,5.91796e-05,-3.50497,-0.538688,-0.109525,0.189158,
2,1,0,1,0,7182.21,0.208547,0.208273,0.296358,10,0.0191239,10,6.17235e-05,-3.52818,-0.966727,-0.0610307,0.208143,
2,1,0,1,0,7186.01,0.227524,0.227207,0.285542,10,0.0202934,10,6.48772e-05,-3.54433,-1.18404,-0.0498294,0.227081,
2,1,0,1,0,7189.8,0.246501,0.246227,0.280462,10,0.0214329,10,6.90574e-05,-3.55213,-0.738384,-0.0799043,0.246104,
2,1,0,1,0,7193.6,0.265479,0.265154,0.274943,10,0.0225519,10,7.29022e-05,-3.56076,-0.910357,-0.0648097,0.265033,
2,1,0,0,0,7197.4,0.284456,0.284149,0.270526,10,0.0236542,10,7.68697e-05,-3.56779,-10.6414,-0.00554436,0.28403,
2,1,0,1,0,7201.19,0.303433,0.303169,0.266075,10,0.0247389,10,8.06659e-05,-3.575,-6.93981,-0.00850168,0.303052,
2,1,0,0,0,7204.99,0.32241,0.322128,0.262242,10,0.0258083,10,8.44755e-05,-3.5813,-3.20573,-0.0184046,0.322013,
2,1,0,1,0,7208.78,0.341387,0.341104,0.259508,10,0.0268638,10,8.85192e-05,-3.58585,-1.90818,-0.0309196,0.34099,
2,1,0,0,0,7212.58,0.360364,0.360111,0.258135,10,0.0279084,10,9.29574e-05,-3.58815,3.96786,0.0148695,0.359997,
2,1,0,1,0,7216.37,0.379342,0.379015,0.253906,10,0.0289424,10,9.62344e-05,-3.59533,-5.65032,-0.0104419,0.378904,
2,1,0,1,0,7220.17,0.398319,0.39801,0.251431,10,0.0299652,10,0.000100072,-3.59958,-28.8678,-0.0020438,0.3979,
2,1,0,1,0,7223.96,0.417295,0.417042,0.250051,10,0.0309797,10,0.000104282,-3.60197,2.5862,0.0228134,0.416932,
2,1,0,1,0,7227.76,0.436272,0.435969,0.249861,10,0.0319904,10,0.000108932,-3.6023,-1.26377,-0.0466857,0.435859,
2,1,0,1,0,7231.55,0.455249,0.454922,0.249543,10,0.0329998,10,0.000113523,-3.60285,1.19997,0.0491678,0.454812,
2,1,0,1,0,7235.35,0.474226,0.473922,0.25137,10,0.0340108,10,0.00011913,-3.59969,1.89658,0.0311086,0.473812,
2,1,0,1,0,7239.15,0.493203,0.492894,0.253882,10,0.0350297,10,0.000125137,-3.59537,1.88529,0.031295,0.492782,
2,1,0,1,0,7242.94,0.512181,0.511872,0.259231,10,0.0360631,10,0.000132693,-3.58631,1.3161,0.0448295,0.511758,
2,1,0,0,0,7246.74,0.531158,0.530868,0.266848,10,0.0371192,10,0.000141661,-3.57374,1.60927,0.0366626,0.530751,
2,1,0,1,0,7250.53,0.550135,0.549818,0.277315,10,0.0382104,10,0.000152473,-3.55703,0.641484,0.0919743,0.549696,
2,1,0,0,0,7254.33,0.569112,0.568865,0.297284,10,0.0393579,10,0.000169114,-3.52683,0.527516,0.111845,0.568734,
2,1,0,1,0,7258.12,0.588089,0.587814,0.330993,10,0.0405999,10,0.000194563,-3.48018,0.353839,0.166742,0.587669,
2,1,0,0,0,7261.92,0.607066,0.606759,0.391455,10,0.0420115,10,0.000237519,-3.40732,0.194296,0.303661,0.606587,
2,1,0,1,0,7265.71,0.626044,0.625809,0.516151,10,0.0437629,10,0.000323012,-3.28722,0.130575,0.451847,0.625582,
2,1,0,1,0,7269.51,0.64502,0.644737,0.788503,10,0.0462305,10,0.000508377,-3.1032,0.0864815,0.682227,0.64439,
2,1,0,1,0,7273.3,0.663997,0.663734,1.38509,10,0.0502743,10,0.00091933,-2.85852,0.0695594,0.848196,0.663125,
2,1,0,1,0,7277.1,0.682974,0.682705,2.58587,10,0.0576313,10,0.00176539,-2.58739,0.0682457,0.864523,0.681567,
2,1,0,1,0,7280.89,0.701951,0.701676,4.66581,10,0.0711535,10,0.00327389,-2.33107,0.0741451,0.795737,0.699623,
2,1,0,1,0,7284.69,0.720928,0.720646,7.68433,10,0.0943746,10,0.00553768,-2.11439,0.0897828,0.657142,0.717265,
2,1,0,1,0,7288.49,0.739905,0.739653,11.4892,10,0.130603,10,0.00849805,-1.93971,0.110242,0.535188,0.734598,
2,1,0,1,0,7292.28,0.758883,0.758657,16.1376,10,0.182741,10,0.0122429,-1.79216,0.117982,0.500076,0.751557,
2,1,0,0,0,7296.08,0.77786,0.777601,22.0379,10,0.254872,10,0.0171367,-1.65683,0.127793,0.461683,0.767904,
2,1,0,1,0,7299.87,0.796837,0.796573,29.0257,10,0.351546,10,0.0231211,-1.53722,0.144274,0.408943,0.783802,
2,1,0,0,0,7303.67,0.815814,0.815573,36.6062,10,0.476012,10,0.029855,-1.43645,0.183371,0.321752,0.799466,
2,1,0,1,0,7307.46,0.834791,0.834534,44.2923,10,0.629563,10,0.0369634,-1.35367,0.220119,0.268037,0.815045,
2,1,0,1,0,7311.16,0.846727,0.846548,48.1325,10,0.8057,10,0.0407464,-1.31756,0.166682,0.353968,0.82537,
2,1,0,1,0,7314.95,0.827749,0.827512,40.0515,10,0.972602,10,0.0331431,-1.39738,0.179661,0.328397,0.80989,
2,1,0,1,0,7318.75,0.808772,0.808526,31.5469,10,1.10824,10,0.0255065,-1.50104,0.138397,0.426309,0.794645,
2,1,0,1,0,7322.55,0.789795,0.789535,23.8361,10,1.21299,10,0.0188194,-1.62277,0.11959,0.49335,0.779047,
2,1,0,1,0,7326.34,0.770818,0.770541,17.1262,10,1.29025,10,0.0131965,-1.76634,0.10779,0.547358,0.763006,
2,1,0,1,0,7330.14,0.751841,0.751557,11.6511,10,1.34438,10,0.00875647,-1.93363,0.0920149,0.6412,0.746431,
2,1,0,1,0,7333.93,0.732865,0.732582,7.41312,10,1.38008,10,0.00543071,-2.13,0.0827956,0.712598,0.72932,
2,1,0,1,0,7337.73,0.713887,0.713623,4.3747,10,1.40204,10,0.00312189,-2.35905,0.0720431,0.818954,0.711698,
2,1,0,0,0,7341.52,0.69491,0.694643,2.34836,10,1.41445,10,0.00163127,-2.62924,0.0622037,0.948497,0.69361,
2,1,0,1,0,7345.32,0.675933,0.675689,1.11358,10,1.42073,10,0.000752435,-2.95328,0.0535267,1.10225,0.675199,
2,1,0,0,0,7349.11,0.656956,0.656678,0.476328,10,1.42357,10,0.000312794,-3.32209,0.0449525,1.3125,0.656469,
2,1,0,1,0,7352.91,0.637979,0.63771,0.158664,10,1.42463,10,0.000101182,-3.79952,0.033549,1.75862,0.63764,
2,1,0,0,0,7356.7,0.619002,0.618712,0.0191567,10,1.42487,10,1.18525e-05,-4.71768,0.00876396,6.73212,0.618704,
2,0,0,1,0,7360.5,0.600025,0.599786,-0.0396657,10,1.42475,10,-2.3791e-05,-4.40158,-0.0414671,-1.42281,0.599804,
2,0,0,1,0,7364.29,0.581047,0.580792,-0.0670403,10,1.42448,10,-3.89365e-05,-4.17366,-0.14201,-0.415464,0.580822,
2,0,0,1,0,7368.09,0.56207,0.561788,-0.0810799,10,1.42413,10,-4.55498e-05,-4.09109,-0.254102,-0.23219,0.561824,
2,0,0,1,0,7371.89,0.543093,0.542857,-0.088269,10,1.42375,10,-4.79175e-05,-4.05419,-0.371339,-0.158885,0.542896,
2,0,0,1,0,7375.68,0.524116,0.523812,-0.0952294,10,1.42334,10,-4.98823e-05,-4.02123,-1.01508,-0.0581237,0.523854,
2,0,0,1,0,7379.48,0.505139,0.50486,-0.100848,10,1.4229,10,-5.09142e-05,-3.99633,-0.572525,-0.103052,0.504904,
2,0,0,1,0,7383.27,0.486162,0.485879,-0.106274,10,1.42244,10,-5.16363e-05,-3.97357,-0.611839,-0.0964306,0.485926,
2,0,0,1,0,7387.07,0.467185,0.466876,-0.112837,10,1.42196,10,-5.26809e-05,-3.94755,-0.47674,-0.123757,0.466925,
2,0,0,0,0,7390.86,0.448208,0.447917,-0.120299,10,1.42145,10,-5.3884e-05,-3.91974,-0.657219,-0.0897722,0.44797,
2,0,0,1,0,7394.66,0.429231,0.42894,-0.128466,10,1.42092,10,-5.51042e-05,-3.89121,-14.0245,-0.00420692,0.428996,
2,0,0,0,0,7398.45,0.410254,0.409952,-0.137796,10,1.42035,10,-5.64898e-05,-3.86076,-2.23435,-0.0264059,0.410013,
2,0,0,1,0,7402.25,0.391277,0.390964,-0.147836,10,1.41974,10,-5.77983e-05,-3.83022,-0.780871,-0.0755566,0.391029,
2,0,0,0,0,7406.04,0.3723,0.371992,-0.15757,10,1.41909,10,-5.86149e-05,-3.80253,-0.733689,-0.0804156,0.372061,
2,0,0,1,0,7409.84,0.353322,0.353017,-0.1683,10,1.4184,10,-5.9413e-05,-3.77391,-0.542454,-0.108765,0.353092,
2,0,0,1,0,7413.64,0.334345,0.334061,-0.179935,10,1.41767,10,-6.01092e-05,-3.74488,-0.57411,-0.102768,0.33414,
2,0,0,1,0,7417.43,0.315368,0.315062,-0.192673,10,1.41689,10,-6.07039e-05,-3.71518,-0.726775,-0.0811806,0.315146,
2,0,0,1,0,7421.23,0.296391,0.29605,-0.206527,10,1.41607,10,-6.11422e-05,-3.68502,-0.811378,-0.0727158,0.296141,
2,0,0,1,0,7425.02,0.277414,0.27713,-0.216575,10,1.4152,10,-6.00195e-05,-3.66439,-0.63622,-0.0927352,0.277225,
2,0,0,1,0,7428.82,0.258437,0.258151,-0.229862,10,1.41428,10,-5.93391e-05,-3.63853,-0.682132,-0.0864935,0.258252,
2,0,0,1,0,7432.61,0.239461,0.239176,-0.243699,10,1.41331,10,-5.82871e-05,-3.61315,-0.832329,-0.0708855,0.239284,
2,0,0,1,0,7436.41,0.220483,0.220165,-0.255326,10,1.41229,10,-5.62139e-05,-3.5929,-0.551087,-0.107061,0.220277,
2,0,0,0,0,7440.2,0.201506,0.201202,-0.270634,10,1.41122,10,-5.4452e-05,-3.56762,-0.432387,-0.136452,0.201321,
2,0,0,1,0,7444,0.182529,0.182214,-0.29701,10,1.41007,10,-5.41194e-05,-3.52723,-0.326354,-0.180785,0.182345,
2,0,0,0,0,7447.79,0.163552,0.163254,-0.355588,10,1.40877,10,-5.80512e-05,-3.44905,-0.159909,-0.368959,0.163411,
2,0,0,1,0,7451.59,0.144575,0.144297,-0.542133,10,1.40706,10,-7.82282e-05,-3.26589,-0.0754779,-0.781686,0.144536,
2,0,0,0,0,7455.38,0.125598,0.125255,-0.792861,10,1.40436,10,-9.93102e-05,-3.1008,-0.458488,-0.128684,0.125604,
2,0,0,1,0,7459.18,0.10662,0.106323,-0.763369,10,1.40128,10,-8.11634e-05,-3.11727,0.49171,0.119989,0.106659,
2,0,0,1,0,7462.98,0.0876433,0.0873562,-0.683448,10,1.39846,10,-5.97034e-05,-3.16529,0.447861,0.131737,0.0876569,
2,0,0,1,0,7466.77,0.0686664,0.0683772,-0.630285,10,1.39591,10,-4.30971e-05,-3.20046,0.619389,0.0952552,0.0686546,
2,0,0,1,0,7470.57,0.0496895,0.0493794,-0.578556,10,1.39353,10,-2.85687e-05,-3.23765,0.547785,0.107706,0.0496339,
2,0,0,1,0,7474.36,0.0307126,0.030413,-0.524969,10,1.39135,10,-1.59658e-05,-3.27987,0.432393,0.13645,0.0306439,
2,0,0,1,0,7478.16,0.0117356,0.0114063,-0.489633,10,1.38936,10,-5.58488e-06,-3.31013,1.29821,0.0454473,0.0116217,
2,0,0,1,0,7480.45,0.000274105,-0.000118942,-0.492008,10,1.38818,10,5.85204e-08,-3.30803, , ,9.75416e-05,