File: Figure_codes/Fig_3-5/workspace_calculate_alpha_eff/20221101_1-115_003_TrumpetPlot_ParaChange_from10_every3_16_CV_C01_42.csv
mode,ox/red,error,control changes,counter inc.,time/s,control/V,Ewe/V,<I>/mA,cycle number,(Q-Qo)/C,I Range,P/W,log(|I|),Tafel slope mV/dec,alpha_eff,E-IR/V,
2,0,0,1,0,28811.9,2.44065e-05,-0.000344411,-0.0453313,43,0.0000000E+000,10,1.56126e-08,-4.3436, , ,-0.000324465,
2,1,0,1,0,28815.7,0.0187763,0.0184137,0.268487,43,0.000896265,10,4.94386e-06,-3.57108,0.176353,0.334557,0.0182956,
2,1,0,0,0,28819.5,0.0377538,0.0373965,0.334121,43,0.00210009,10,1.24949e-05,-3.4761,0.225723,0.261383,0.0372495,
2,1,0,1,0,28823.3,0.0567309,0.0564128,0.394399,43,0.00354975,10,2.22492e-05,-3.40406,0.33492,0.176161,0.0562393,
2,1,0,0,0,28827.1,0.075708,0.0753665,0.439122,43,0.00520006,10,3.30951e-05,-3.35742,0.684672,0.0861726,0.0751733,
2,1,0,1,0,28830.9,0.0946851,0.0943414,0.491493,43,0.0070096,10,4.63681e-05,-3.30848,0.268874,0.219433,0.0941252,
2,1,0,0,0,28834.7,0.113662,0.113316,0.589942,43,0.00912264,10,6.68501e-05,-3.22919,0.353969,0.166681,0.113057,
2,1,0,1,0,28838.5,0.132639,0.132284,0.636597,43,0.0115216,10,8.42114e-05,-3.19614,-0.953678,-0.0618657,0.132004,
2,1,0,1,0,28842.3,0.151617,0.151264,0.432217,43,0.0136832,10,6.5379e-05,-3.3643,-0.0832828,-0.70843,0.151074,
2,1,0,1,0,28846.1,0.170594,0.170262,0.32963,43,0.015127,10,5.61237e-05,-3.48197,-0.331797,-0.17782,0.170117,
2,1,0,1,0,28849.9,0.189571,0.189214,0.305949,43,0.0163791,10,5.78898e-05,-3.51435,-0.845255,-0.0698014,0.189079,
2,1,0,1,0,28853.6,0.208547,0.208246,0.296793,43,0.0175733,10,6.18061e-05,-3.52755,-1.27138,-0.0464061,0.208115,
2,1,0,1,0,28857.4,0.227524,0.227247,0.289656,43,0.0187341,10,6.58236e-05,-3.53812,-0.998949,-0.0590621,0.22712,
2,1,0,1,0,28861.2,0.246501,0.246173,0.28344,43,0.0198719,10,6.97754e-05,-3.54754,-0.876332,-0.0673261,0.246049,
2,1,0,1,0,28865,0.265479,0.265178,0.279197,43,0.0209907,10,7.40368e-05,-3.55409,-3.54515,-0.0166424,0.265055,
2,1,0,0,0,28868.8,0.284456,0.284131,0.275065,43,0.0220921,10,7.81545e-05,-3.56056,-5.49934,-0.0107286,0.28401,
2,1,0,1,0,28872.6,0.303433,0.303087,0.269693,43,0.0231761,10,8.17403e-05,-3.56913,-2.53681,-0.0232575,0.302968,
2,1,0,0,0,28876.4,0.32241,0.322109,0.267376,43,0.0242441,10,8.61241e-05,-3.57288,8.47672,0.00696024,0.321992,
2,1,0,1,0,28880.2,0.341387,0.34111,0.263484,43,0.0252991,10,8.9877e-05,-3.57925,-5.92496,-0.00995788,0.340994,
2,1,0,0,0,28884,0.360364,0.360042,0.261644,43,0.02634,10,9.42028e-05,-3.58229,-1.38332,-0.0426509,0.359927,
2,1,0,1,0,28887.8,0.379342,0.379051,0.25781,43,0.0273706,10,9.77234e-05,-3.5887,-4.61183,-0.0127932,0.378938,
2,1,0,1,0,28891.6,0.398319,0.398036,0.256072,43,0.0283919,10,0.000101926,-3.59164,-4.33594,-0.0136072,0.397923,
2,1,0,1,0,28895.4,0.417295,0.416997,0.254743,43,0.0294055,10,0.000106227,-3.5939,-4.37999,-0.0134703,0.416884,
2,1,0,1,0,28899.2,0.436272,0.435991,0.254639,43,0.0304131,10,0.00011102,-3.59407,45.6752,0.00129173,0.435879,
2,1,0,1,0,28903,0.455249,0.454943,0.253403,43,0.031419,10,0.000115284,-3.59619,16.7192,0.00352889,0.454831,
2,1,0,1,0,28906.8,0.474226,0.473925,0.254803,43,0.0324262,10,0.000120758,-3.59379,1.31454,0.0448827,0.473813,
2,1,0,1,0,28910.6,0.493203,0.492937,0.257214,43,0.0334397,10,0.00012679,-3.58971,2.51902,0.0234218,0.492824,
2,1,0,1,0,28914.4,0.512181,0.511876,0.26041,43,0.0344622,10,0.000133298,-3.58434,1.42995,0.0412602,0.511762,
2,1,0,0,0,28918.2,0.531158,0.530863,0.266494,43,0.0355015,10,0.000141472,-3.57431,1.09989,0.0536417,0.530746,
2,1,0,1,0,28922,0.550135,0.549827,0.275531,43,0.0365686,10,0.000151494,-3.55983,0.801837,0.0735811,0.549706,
2,1,0,0,0,28925.8,0.569112,0.568798,0.289382,43,0.0376771,10,0.0001646,-3.53853,0.625672,0.0942987,0.568671,
2,1,0,1,0,28929.6,0.588089,0.587784,0.311415,43,0.0388511,10,0.000183044,-3.50666,0.517668,0.113973,0.587646,
2,1,0,0,0,28933.4,0.607066,0.606747,0.350149,43,0.0401368,10,0.000212452,-3.45575,0.268736,0.219547,0.606593,
2,1,0,1,0,28937.1,0.626044,0.625766,0.426203,43,0.0416318,10,0.000266703,-3.37038,0.177263,0.332839,0.625578,
2,1,0,1,0,28940.9,0.64502,0.644755,0.57989,43,0.0435449,10,0.000373887,-3.23665,0.119698,0.492908,0.6445,
2,1,0,1,0,28944.7,0.663997,0.663712,0.907872,43,0.0463341,10,0.000602566,-3.04198,0.0847973,0.695777,0.663313,
2,1,0,1,0,28948.5,0.682974,0.682682,1.55003,43,0.0509113,10,0.00105818,-2.80966,0.0789268,0.747528,0.682,
2,1,0,1,0,28952.3,0.701951,0.701672,2.6551,43,0.0587679,10,0.00186301,-2.57592,0.0807112,0.731002,0.700504,
2,1,0,1,0,28956.1,0.720928,0.720647,4.29293,43,0.0718213,10,0.00309368,-2.36725,0.0947261,0.622848,0.718758,
2,1,0,1,0,28959.9,0.739905,0.739642,6.46046,43,0.0920994,10,0.00477843,-2.18974,0.109804,0.537322,0.736799,
2,1,0,1,0,28963.7,0.758883,0.758602,9.1657,43,0.121616,10,0.00695312,-2.03783,0.123743,0.476793,0.754569,
2,1,0,0,0,28967.5,0.77786,0.777524,12.5564,43,0.162605,10,0.00976294,-1.90113,0.127345,0.46331,0.771999,
2,1,0,1,0,28971.3,0.796837,0.796542,17.0795,43,0.218503,10,0.0136045,-1.76752,0.128381,0.459569,0.789027,
2,1,0,0,0,28975.1,0.815814,0.815558,22.7475,43,0.293819,10,0.0185519,-1.64307,0.135176,0.436468,0.805549,
2,1,0,1,0,28978.9,0.834791,0.834591,29.2068,43,0.392285,10,0.0243757,-1.53452,0.150567,0.391853,0.82174,
2,1,0,1,0,28982.6,0.846727,0.846514,32.7235,43,0.511563,10,0.0277009,-1.48514,0.122159,0.482976,0.832116,
2,1,0,1,0,28986.4,0.827749,0.827497,24.9681,43,0.620296,10,0.020661,-1.60261,0.12534,0.47072,0.816512,
2,1,0,1,0,28990.2,0.808772,0.808543,18.7207,43,0.702643,10,0.0151365,-1.72768,0.122362,0.482175,0.800306,
2,1,0,1,0,28994,0.789795,0.789574,13.5742,43,0.763489,10,0.0107179,-1.86728,0.117016,0.504203,0.783602,
2,1,0,1,0,28997.8,0.770818,0.770605,9.56801,43,0.807053,10,0.00737316,-2.01918,0.10832,0.544681,0.766395,
2,1,0,1,0,29001.6,0.751841,0.751587,6.49259,43,0.837207,10,0.00487975,-2.18758,0.0998097,0.591125,0.74873,
2,1,0,1,0,29005.4,0.732865,0.732624,4.20512,43,0.857257,10,0.00308077,-2.37622,0.0890201,0.662772,0.730774,
2,1,0,1,0,29009.2,0.713887,0.71363,2.52702,43,0.869814,10,0.00180336,-2.59739,0.0760279,0.776031,0.712519,
2,1,0,0,0,29013,0.69491,0.694637,1.38872,43,0.87703,10,0.000964657,-2.85738,0.0695261,0.848602,0.694025,
2,1,0,1,0,29016.8,0.675933,0.675663,0.664772,43,0.880772,10,0.000449161,-3.17733,0.0520384,1.13378,0.67537,
2,1,0,0,0,29020.5,0.656956,0.656662,0.260572,43,0.882404,10,0.000171108,-3.58407,0.0402838,1.46461,0.656548,
2,1,0,1,0,29024.3,0.637979,0.637718,0.0649142,43,0.882935,10,4.1397e-05,-4.18766,0.0215237,2.74117,0.63769,
2,0,0,0,0,29028.1,0.619002,0.618702,-0.0227331,43,0.882951,10,-1.4065e-05,-4.64334,-0.0185427,-3.18185,0.618712,
2,0,0,1,0,29031.9,0.600025,0.599721,-0.0605681,43,0.882744,10,-3.63239e-05,-4.21776,-0.119856,-0.492255,0.599747,
2,0,0,1,0,29035.7,0.581047,0.580759,-0.0784792,43,0.882436,10,-4.55775e-05,-4.10525,-0.338016,-0.174548,0.580794,
2,0,0,1,0,29039.5,0.56207,0.56177,-0.0880259,43,0.882078,10,-4.94504e-05,-4.05539,-2.8589,-0.0206373,0.561809,
2,0,0,1,0,29043.3,0.543093,0.542764,-0.0946086,43,0.881691,10,-5.13501e-05,-4.02407,-1.03818,-0.05683,0.542806,
2,0,0,1,0,29047.1,0.524116,0.523817,-0.0995351,43,0.881285,10,-5.21381e-05,-4.00202,-1.68948,-0.0349219,0.52386,
2,0,0,1,0,29050.9,0.505139,0.504827,-0.103893,43,0.880858,10,-5.24478e-05,-3.98342,-1.70918,-0.0345195,0.504873,
2,0,0,1,0,29054.7,0.486162,0.485872,-0.109636,43,0.880408,10,-5.3269e-05,-3.96005,-0.661421,-0.0892019,0.485921,
2,0,0,1,0,29058.5,0.467185,0.466885,-0.117166,43,0.879934,10,-5.47029e-05,-3.9312,-0.585004,-0.100854,0.466937,
2,0,0,0,0,29062.3,0.448208,0.447901,-0.124874,43,0.879433,10,-5.5931e-05,-3.90353,-1.17722,-0.0501183,0.447956,
2,0,0,1,0,29066.1,0.429231,0.42893,-0.132248,43,0.878902,10,-5.67253e-05,-3.87861,-1.59063,-0.0370922,0.428989,
2,0,0,0,0,29069.9,0.410254,0.40995,-0.141695,43,0.878337,10,-5.80877e-05,-3.84865,-7.13823,-0.00826535,0.410013,
2,0,0,1,0,29073.7,0.391277,0.390963,-0.151727,43,0.877734,10,-5.93195e-05,-3.81894,-0.61793,-0.0954801,0.391029,
2,0,0,0,0,29077.5,0.3723,0.371981,-0.161772,43,0.877092,10,-6.01761e-05,-3.7911,-0.744013,-0.0792997,0.372052,
2,0,0,1,0,29081.3,0.353322,0.353025,-0.172328,43,0.87641,10,-6.08362e-05,-3.76364,-0.468408,-0.125958,0.353101,
2,0,0,1,0,29085.1,0.334345,0.334021,-0.184832,43,0.875684,10,-6.17376e-05,-3.73322,-0.495002,-0.119192,0.334102,
2,0,0,1,0,29088.9,0.315368,0.315036,-0.195131,43,0.874914,10,-6.14733e-05,-3.70967,-0.745573,-0.0791338,0.315122,
2,0,0,1,0,29092.7,0.296391,0.296109,-0.208878,43,0.874099,10,-6.18506e-05,-3.68011,-0.852046,-0.0692451,0.296201,
2,0,0,1,0,29096.5,0.277414,0.277137,-0.219958,43,0.873235,10,-6.09584e-05,-3.65766,-0.51947,-0.113577,0.277233,
2,0,0,1,0,29100.3,0.258437,0.258103,-0.233105,43,0.872322,10,-6.0165e-05,-3.63245,-1.01567,-0.0580895,0.258206,
2,0,0,1,0,29104,0.239461,0.239131,-0.245263,43,0.871363,10,-5.865e-05,-3.61037,-0.713872,-0.0826479,0.239239,
2,0,0,1,0,29107.8,0.220483,0.220205,-0.256872,43,0.870358,10,-5.65646e-05,-3.59028,-0.628988,-0.0938015,0.220318,
2,0,0,0,0,29111.6,0.201506,0.201155,-0.271517,43,0.869303,10,-5.46171e-05,-3.5662,-0.42854,-0.137677,0.201275,
2,0,0,1,0,29115.4,0.182529,0.182199,-0.290645,43,0.868183,10,-5.29554e-05,-3.53664,-0.422076,-0.139785,0.182327,
2,0,0,0,0,29119.2,0.163552,0.163253,-0.328642,43,0.866959,10,-5.36518e-05,-3.48328,-0.237603,-0.248314,0.163398,
2,0,0,1,0,29123,0.144575,0.144272,-0.440166,43,0.865485,10,-6.35035e-05,-3.35638,-0.0963697,-0.612226,0.144465,
2,0,0,0,0,29126.8,0.125598,0.12527,-0.670579,43,0.863303,10,-8.40036e-05,-3.17355,-0.18904,-0.312103,0.125565,
2,0,0,1,0,29130.6,0.10662,0.106263,-0.706044,43,0.860571,10,-7.50265e-05,-3.15117,1.58737,0.0371684,0.106574,
2,0,0,1,0,29134.4,0.0876433,0.0873097,-0.663288,43,0.857906,10,-5.79114e-05,-3.1783,0.648055,0.0910416,0.0876015,
2,0,0,1,0,29138.2,0.0686664,0.0682999,-0.62013,43,0.855416,10,-4.23548e-05,-3.20752,0.740688,0.0796556,0.0685728,
2,0,0,1,0,29142,0.0496895,0.0493855,-0.575285,43,0.853083,10,-2.84107e-05,-3.24012,0.605822,0.0973883,0.0496386,
2,0,0,1,0,29145.8,0.0307126,0.0303907,-0.527677,43,0.850926,10,-1.60365e-05,-3.27763,0.506024,0.116595,0.0306229,
2,0,0,1,0,29149.6,0.0117356,0.0113966,-0.494696,43,0.84893,10,-5.63783e-06,-3.30566,1.16514,0.0506376,0.0116142,
2,0,0,1,0,29151.9,0.000274105,-9.74687e-05,-0.494292,43,0.847762,10,4.8178e-08,-3.30602, , ,0.00012002,