File: Figure_codes/Fig_3-5/workspace_calculate_alpha_eff/20221101_1-115_003_TrumpetPlot_ParaChange_from10_every3_16_CV_C01_5.csv
mode,ox/red,error,control changes,counter inc.,time/s,control/V,Ewe/V,<I>/mA,cycle number,(Q-Qo)/C,I Range,P/W,log(|I|),Tafel slope mV/dec,alpha_eff,E-IR/V,
2,0,0,0,0,3940.25,2.44065e-05,-0.000382585,-0.0917617,6,0.0000000E+000,10,3.51067e-08,-4.03734, , ,-0.00034221,
2,1,0,1,0,3944,0.0187763,0.0184563,0.212106,6,0.000733018,10,3.9147e-06,-3.67345,0.154224,0.382559,0.018363,
2,1,0,1,0,3947.8,0.0377538,0.0374379,0.273165,6,0.00172927,10,1.02267e-05,-3.56358,0.167547,0.352139,0.0373177,
2,1,0,0,0,3951.59,0.0567309,0.0564117,0.346937,6,0.0029904,10,1.95713e-05,-3.45975,0.202467,0.291406,0.0562591,
2,1,0,1,0,3955.39,0.075708,0.0754153,0.413162,6,0.00451943,10,3.11587e-05,-3.38388,0.322926,0.182704,0.0752335,
2,1,0,0,0,3959.18,0.094685,0.0943817,0.479881,6,0.00628129,10,4.5292e-05,-3.31887,0.223644,0.263812,0.0941705,
2,1,0,1,0,3962.98,0.113662,0.113379,0.604531,6,0.00840805,10,6.85411e-05,-3.21858,0.224262,0.263085,0.113113,
2,1,0,0,0,3966.77,0.132639,0.132326,0.706174,6,0.0109885,10,9.34453e-05,-3.15109,0.845414,0.0697883,0.132016,
2,1,0,1,0,3970.57,0.151617,0.151325,0.522489,6,0.0135419,10,7.90656e-05,-3.28192,-0.0699147,-0.843885,0.151095,
2,1,0,1,0,3974.36,0.170594,0.170292,0.324354,6,0.0151402,10,5.5235e-05,-3.48898,-0.143378,-0.411499,0.170149,
2,1,0,1,0,3978.16,0.189571,0.189247,0.273658,6,0.0163293,10,5.17889e-05,-3.56279,-0.436663,-0.135116,0.189127,
2,1,0,1,0,3981.95,0.208547,0.208261,0.252063,6,0.0173942,10,5.24948e-05,-3.59849,-0.96,-0.0614583,0.20815,
2,1,0,1,0,3985.75,0.227524,0.227223,0.240804,6,0.0184002,10,5.47161e-05,-3.61834,-1.10703,-0.053296,0.227117,
2,1,0,1,0,3989.55,0.246501,0.246218,0.233777,6,0.019374,10,5.75602e-05,-3.6312,-0.727726,-0.0810745,0.246115,
2,1,0,0,0,3993.34,0.265479,0.265177,0.229174,6,0.0203264,10,6.07717e-05,-3.63983,-2.28276,-0.025846,0.265076,
2,1,0,1,0,3997.14,0.284456,0.284152,0.22672,6,0.0212626,10,6.44228e-05,-3.64451,-2.02679,-0.0291101,0.284052,
2,1,0,0,0,4000.93,0.303433,0.303162,0.22182,6,0.0221831,10,6.72473e-05,-3.654,-1.61062,-0.0366319,0.303064,
2,1,0,1,0,4004.73,0.32241,0.322171,0.217995,6,0.0230895,10,7.02315e-05,-3.66155,3.40449,0.01733,0.322075,
2,1,0,0,0,4008.52,0.341387,0.341096,0.21655,6,0.0239836,10,7.38644e-05,-3.66444,-2.1766,-0.0271065,0.341001,
2,1,0,1,0,4012.32,0.360364,0.360072,0.213251,6,0.0248659,10,7.67857e-05,-3.67111,5.90771,0.00998695,0.359978,
2,1,0,1,0,4016.11,0.379342,0.37904,0.210521,6,0.025738,10,7.97957e-05,-3.67671,-109.932,-0.000536694,0.378947,
2,1,0,1,0,4019.91,0.398318,0.398008,0.209472,6,0.026603,10,8.33718e-05,-3.67887,2.67288,0.0220736,0.397916,
2,1,0,1,0,4023.7,0.417295,0.416999,0.209173,6,0.0274635,10,8.7225e-05,-3.67949,2.55222,0.0231171,0.416907,
2,1,0,1,0,4027.5,0.436272,0.436007,0.209216,6,0.0283208,10,9.12198e-05,-3.6794,-7.52999,-0.00783534,0.435915,
2,1,0,1,0,4031.3,0.455249,0.454949,0.209918,6,0.0291791,10,9.55021e-05,-3.67795,2.41853,0.024395,0.454857,
2,1,0,1,0,4035.09,0.474226,0.473911,0.211929,6,0.0300436,10,0.000100436,-3.67381,0.797226,0.0740066,0.473818,
2,1,0,1,0,4038.89,0.493203,0.492869,0.215332,6,0.0309193,10,0.00010613,-3.66689,1.40353,0.0420368,0.492774,
2,1,0,0,0,4042.68,0.512181,0.511865,0.221035,6,0.0318113,10,0.00011314,-3.65554,0.770555,0.0765682,0.511767,
2,1,0,1,0,4046.48,0.531158,0.530876,0.22803,6,0.0327275,10,0.000121056,-3.64201,0.754009,0.0782484,0.530775,
2,1,0,0,0,4050.27,0.550135,0.549872,0.241385,6,0.0336821,10,0.000132731,-3.61729,0.62258,0.094767,0.549766,
2,1,0,1,0,4054.07,0.569112,0.568844,0.261102,6,0.034697,10,0.000148526,-3.58319,0.420409,0.140339,0.568729,
2,1,0,0,0,4057.86,0.588089,0.587821,0.296359,6,0.0358118,10,0.000174206,-3.52818,0.299392,0.197066,0.58769,
2,1,0,1,0,4061.66,0.607066,0.606805,0.361991,6,0.0371084,10,0.000219658,-3.4413,0.176636,0.334021,0.606646,
2,1,0,1,0,4065.45,0.626043,0.625758,0.498677,6,0.0387729,10,0.000312051,-3.30218,0.110244,0.535177,0.625539,
2,1,0,1,0,4069.25,0.64502,0.6447,0.799865,6,0.0412238,10,0.000515673,-3.09698,0.0795655,0.741528,0.644348,
2,1,0,1,0,4073.04,0.663997,0.663706,1.47076,6,0.0454362,10,0.000976151,-2.83246,0.0666761,0.884875,0.663059,
2,1,0,1,0,4076.84,0.682974,0.682674,2.84174,6,0.0534101,10,0.00193998,-2.54642,0.0640109,0.921718,0.681424,
2,1,0,1,0,4080.64,0.701951,0.701673,5.21617,6,0.0684283,10,0.00366005,-2.28265,0.074104,0.796178,0.699378,
2,1,0,1,0,4084.43,0.720928,0.720667,8.62049,6,0.0944596,10,0.00621251,-2.06447,0.088674,0.665358,0.716874,
2,1,0,1,0,4088.23,0.739905,0.739671,12.8583,6,0.135041,10,0.00951094,-1.89082,0.10753,0.548685,0.734014,
2,1,0,0,0,4092.02,0.758883,0.758637,18.0943,6,0.193488,10,0.013727,-1.74246,0.114404,0.515717,0.750676,
2,1,0,1,0,4095.82,0.77786,0.777616,24.9761,6,0.274723,10,0.0194218,-1.60248,0.120823,0.488317,0.766627,
2,1,0,0,0,4099.61,0.796837,0.796627,32.5995,6,0.383377,10,0.0259696,-1.48679,0.138264,0.42672,0.782284,
2,1,0,1,0,4103.41,0.815814,0.815578,40.4617,6,0.522132,10,0.0329997,-1.39296,0.184287,0.320153,0.797775,
2,1,0,0,0,4107.2,0.834791,0.834593,48.1163,6,0.690798,10,0.0401576,-1.31771,0.266018,0.22179,0.813422,
2,1,0,0,0,4110.9,0.846727,0.846493,51.6505,6,0.880348,10,0.0437218,-1.28693,0.164849,0.357902,0.823767,
2,1,0,1,0,4114.7,0.827749,0.827498,43.3173,6,1.0602,10,0.035845,-1.36334,0.180936,0.326082,0.808438,
2,1,0,1,0,4118.49,0.808772,0.808538,33.1996,6,1.20549,10,0.0268431,-1.47887,0.142501,0.414034,0.79393,
2,1,0,1,0,4122.29,0.789795,0.789543,25.4913,6,1.31668,10,0.0201265,-1.59361,0.117955,0.500191,0.778327,
2,1,0,1,0,4126.08,0.770818,0.770588,18.5405,6,1.39984,10,0.0142871,-1.73188,0.105774,0.557791,0.76243,
2,1,0,1,0,4129.88,0.751841,0.751638,12.7045,6,1.45863,10,0.00954916,-1.89604,0.0935338,0.630788,0.746048,
2,1,0,1,0,4133.67,0.732865,0.732615,8.26143,6,1.49785,10,0.00605245,-2.08294,0.0856239,0.68906,0.72898,
2,1,0,0,0,4137.47,0.713887,0.713616,4.92683,6,1.52238,10,0.00351586,-2.30743,0.07231,0.815932,0.711448,
2,1,0,1,0,4141.26,0.69491,0.694643,2.63552,6,1.53635,10,0.00183075,-2.57913,0.0611351,0.965076,0.693483,
2,1,0,0,0,4145.06,0.675933,0.675673,1.24172,6,1.54339,10,0.000838995,-2.90598,0.0520006,1.1346,0.675127,
2,1,0,1,0,4148.85,0.656956,0.656689,0.50159,6,1.54647,10,0.000329388,-3.29965,0.0435697,1.35415,0.656468,
2,1,0,0,0,4152.65,0.637979,0.637716,0.154936,6,1.54757,10,9.88053e-05,-3.80985,0.0288061,2.04818,0.637648,
2,1,0,1,0,4156.44,0.619002,0.618699,0.00384778,6,1.54776,10,2.38061e-06,-5.41479,0.00991387,5.95126,0.618697,
2,0,0,0,0,4160.24,0.600025,0.599715,-0.0593276,6,1.54758,10,-3.55796e-05,-4.22674,-0.0638037,-0.924711,0.599741,
2,0,0,1,0,4164.04,0.581047,0.580756,-0.087225,6,1.54723,10,-5.06564e-05,-4.05936,-0.267181,-0.220824,0.580794,
2,0,0,1,0,4167.83,0.56207,0.561764,-0.102544,6,1.5468,10,-5.76056e-05,-3.98909,-0.731637,-0.0806411,0.561809,
2,0,0,1,0,4171.63,0.543093,0.542777,-0.110871,6,1.54633,10,-6.01782e-05,-3.95518,-0.438764,-0.134469,0.542826,
2,0,0,1,0,4175.42,0.524116,0.523817,-0.116346,6,1.54584,10,-6.0944e-05,-3.93425,-0.479427,-0.123064,0.523868,
2,0,0,1,0,4179.22,0.505139,0.504882,-0.12004,6,1.54533,10,-6.06062e-05,-3.92067,-0.66627,-0.0885527,0.504935,
2,0,0,1,0,4183.01,0.486162,0.485896,-0.125695,6,1.5448,10,-6.10745e-05,-3.90068,-1.26842,-0.0465145,0.485951,
2,0,0,1,0,4186.81,0.467185,0.466847,-0.132895,6,1.54425,10,-6.20415e-05,-3.87649,-2.08223,-0.028335,0.466905,
2,0,0,1,0,4190.6,0.448208,0.447937,-0.138944,6,1.54367,10,-6.22383e-05,-3.85716,-1.15408,-0.0511228,0.447998,
2,0,0,0,0,4194.4,0.429231,0.428909,-0.146151,6,1.54307,10,-6.26856e-05,-3.8352,2.13746,0.0276029,0.428973,
2,0,0,1,0,4198.19,0.410254,0.409943,-0.154365,6,1.54243,10,-6.32809e-05,-3.81145,-0.867803,-0.0679878,0.410011,
2,0,0,0,0,4201.99,0.391277,0.391008,-0.165566,6,1.54176,10,-6.47378e-05,-3.78103,-0.677888,-0.087035,0.391081,
2,0,0,1,0,4205.79,0.3723,0.372001,-0.174202,6,1.54104,10,-6.48034e-05,-3.75895,-0.59637,-0.0989318,0.372078,
2,0,0,1,0,4209.58,0.353322,0.353047,-0.185739,6,1.54029,10,-6.55747e-05,-3.7311,-1.04647,-0.0563798,0.353129,
2,0,0,1,0,4213.38,0.334345,0.334019,-0.196042,6,1.5395,10,-6.54817e-05,-3.70765,-0.884668,-0.0666917,0.334106,
2,0,0,1,0,4217.17,0.315368,0.315046,-0.209113,6,1.53866,10,-6.58802e-05,-3.67962,-0.554001,-0.106498,0.315138,
2,0,0,1,0,4220.97,0.296391,0.296083,-0.221531,6,1.53777,10,-6.55915e-05,-3.65457,-0.831015,-0.0709976,0.29618,
2,0,0,1,0,4224.76,0.277414,0.277092,-0.234112,6,1.53684,10,-6.48706e-05,-3.63058,-0.561019,-0.105166,0.277195,
2,0,0,1,0,4228.56,0.258437,0.258148,-0.245745,6,1.53586,10,-6.34384e-05,-3.60952,-0.86001,-0.0686038,0.258256,
2,0,0,1,0,4232.35,0.239461,0.23912,-0.256981,6,1.53483,10,-6.14493e-05,-3.5901,-1.00959,-0.0584393,0.239233,
2,0,0,0,0,4236.15,0.220483,0.220166,-0.270523,6,1.53376,10,-5.95601e-05,-3.5678,-0.55065,-0.107146,0.220285,
2,0,0,1,0,4239.94,0.201506,0.201153,-0.286834,6,1.53264,10,-5.76974e-05,-3.54237,-0.454033,-0.129946,0.201279,
2,0,0,0,0,4243.74,0.182529,0.182224,-0.315527,6,1.53143,10,-5.74965e-05,-3.50096,-0.293531,-0.201001,0.182363,
2,0,0,1,0,4247.53,0.163552,0.163257,-0.381926,6,1.53005,10,-6.23522e-05,-3.41802,-0.164302,-0.359094,0.163425,
2,0,0,0,0,4251.33,0.144575,0.144283,-0.593745,6,1.52821,10,-8.56676e-05,-3.2264,-0.0743349,-0.793705,0.144545,
2,0,0,1,0,4255.13,0.125598,0.125302,-0.830176,6,1.52532,10,-0.000104023,-3.08083,-0.970593,-0.0607876,0.125667,
2,0,0,1,0,4258.92,0.10662,0.106327,-0.783661,6,1.52214,10,-8.3324e-05,-3.10587,0.373255,0.158069,0.106671,
2,0,0,1,0,4262.72,0.0876433,0.0873382,-0.6921,6,1.51927,10,-6.04468e-05,-3.15983,0.392941,0.15015,0.0876427,
2,0,0,1,0,4266.51,0.0686664,0.0683443,-0.636225,6,1.51668,10,-4.34823e-05,-3.19639,0.584749,0.100898,0.0686242,
2,0,0,1,0,4270.31,0.0496895,0.0493771,-0.581095,6,1.51429,10,-2.86928e-05,-3.23575,0.393999,0.149747,0.0496328,
2,0,0,1,0,4274.1,0.0307126,0.0304097,-0.521691,6,1.51212,10,-1.58645e-05,-3.28259,0.452219,0.130468,0.0306393,
2,0,0,1,0,4277.9,0.0117356,0.0113977,-0.491195,6,1.51013,10,-5.5985e-06,-3.30875,1.89842,0.0310784,0.0116138,
2,0,0,0,0,4280.19,0.000274105,-6.64518e-05,-0.49703,6,1.50896,10,3.30285e-08,-3.30362, , ,0.000152241,