File: Figure_codes/Fig_3-5/workspace_calculate_alpha_eff/20221101_1-115_003_TrumpetPlot_ParaChange_from10_every3_16_CV_C01_62.csv
mode,ox/red,error,control changes,counter inc.,time/s,control/V,Ewe/V,<I>/mA,cycle number,(Q-Qo)/C,I Range,P/W,log(|I|),Tafel slope mV/dec,alpha_eff,E-IR/V,
2,0,0,0,0,41372.7,2.44065e-05,-0.000287149,-0.114023,63,0.0000000E+000,10,3.27415e-08,-3.94301, , ,-0.000236979,
2,1,0,1,0,41376.5,0.0187763,0.0184434,0.208656,63,0.000675256,10,3.84832e-06,-3.68057,0.142115,0.415157,0.0183516,
2,1,0,1,0,41380.3,0.0377538,0.0374018,0.273162,63,0.00164555,10,1.02167e-05,-3.56358,0.197976,0.298017,0.0372816,
2,1,0,0,0,41384.1,0.0567309,0.0563926,0.335605,63,0.00286343,10,1.89256e-05,-3.47417,0.252238,0.233906,0.056245,
2,1,0,1,0,41387.9,0.075708,0.0753697,0.382753,63,0.00428993,10,2.8848e-05,-3.41708,0.489631,0.120499,0.0752013,
2,1,0,0,0,41391.7,0.094685,0.0943594,0.436832,63,0.005887,10,4.12192e-05,-3.35969,0.246969,0.238896,0.0941672,
2,1,0,1,0,41395.5,0.113662,0.113333,0.535192,63,0.00778547,10,6.06551e-05,-3.27149,0.335865,0.175666,0.113098,
2,1,0,0,0,41399.3,0.132639,0.132316,0.576394,63,0.00996938,10,7.62659e-05,-3.23928,-0.658566,-0.0895886,0.132062,
2,1,0,1,0,41403,0.151617,0.151257,0.376746,63,0.0119062,10,5.69854e-05,-3.42395,-0.0770845,-0.765394,0.151091,
2,1,0,1,0,41406.8,0.170594,0.170261,0.280495,63,0.0131492,10,4.77574e-05,-3.55207,-0.30031,-0.196464,0.170138,
2,1,0,1,0,41410.6,0.189571,0.189236,0.259757,63,0.0142167,10,4.91553e-05,-3.58543,-0.977263,-0.0603727,0.189122,
2,1,0,1,0,41414.4,0.208547,0.208232,0.251376,63,0.0152335,10,5.23446e-05,-3.59968,-2.22227,-0.0265495,0.208122,
2,1,0,1,0,41418.2,0.227524,0.227198,0.245053,63,0.016223,10,5.56757e-05,-3.61074,-0.93452,-0.063134,0.227091,
2,1,0,1,0,41422,0.246501,0.246199,0.240519,63,0.0171929,10,5.92156e-05,-3.61885,-1.02665,-0.0574682,0.246093,
2,1,0,0,0,41425.8,0.265479,0.265198,0.23731,63,0.0181478,10,6.29341e-05,-3.62468,-0.838149,-0.0703932,0.265094,
2,1,0,1,0,41429.6,0.284456,0.284132,0.233948,63,0.0190869,10,6.64722e-05,-3.63088,-2.17084,-0.0271784,0.284029,
2,1,0,0,0,41433.4,0.303433,0.303161,0.228251,63,0.0200098,10,6.91967e-05,-3.64159,-10.7131,-0.00550728,0.30306,
2,1,0,1,0,41437.2,0.32241,0.322102,0.22605,63,0.0209185,10,7.2811e-05,-3.6458,-19.9297,-0.00296041,0.322002,
2,1,0,0,0,41441,0.341387,0.341035,0.223897,63,0.0218154,10,7.63568e-05,-3.64995,-3.24414,-0.0181866,0.340937,
2,1,0,1,0,41444.8,0.360364,0.360016,0.221907,63,0.0227015,10,7.98898e-05,-3.65383,-3.12539,-0.0188776,0.359918,
2,1,0,1,0,41448.6,0.379342,0.379038,0.218817,63,0.0235783,10,8.294e-05,-3.65992,-3.49723,-0.0168705,0.378941,
2,1,0,1,0,41452.4,0.398319,0.397977,0.217943,63,0.0244482,10,8.67362e-05,-3.66166,-423.805,-0.000139215,0.397881,
2,1,0,1,0,41456.2,0.417295,0.416993,0.216691,63,0.0253132,10,9.03584e-05,-3.66416,2.62928,0.0224396,0.416897,
2,1,0,1,0,41460,0.436272,0.43597,0.217754,63,0.0261737,10,9.49343e-05,-3.66203,1.63488,0.0360882,0.435875,
2,1,0,1,0,41463.8,0.455249,0.454942,0.216875,63,0.0270332,10,9.86656e-05,-3.66379,2.0574,0.028677,0.454847,
2,1,0,1,0,41467.6,0.474226,0.473945,0.218938,63,0.0278969,10,0.000103764,-3.65968,1.6051,0.0367578,0.473849,
2,1,0,1,0,41471.4,0.493203,0.492888,0.22174,63,0.0287681,10,0.000109293,-3.65416,1.44605,0.0408009,0.492791,
2,1,0,0,0,41475.2,0.512181,0.511896,0.22611,63,0.0296515,10,0.000115745,-3.64568,1.07334,0.0549685,0.511796,
2,1,0,1,0,41479,0.531158,0.530873,0.232372,63,0.0305539,10,0.00012336,-3.63382,1.67486,0.0352269,0.53077,
2,1,0,0,0,41482.7,0.550135,0.549836,0.241314,63,0.0314835,10,0.000132683,-3.61742,0.668601,0.0882439,0.54973,
2,1,0,1,0,41486.5,0.569112,0.568829,0.253683,63,0.0324533,10,0.000144302,-3.59571,0.836712,0.0705141,0.568717,
2,1,0,0,0,41490.3,0.588089,0.587795,0.275046,63,0.033485,10,0.000161671,-3.56059,0.406121,0.145277,0.587674,
2,1,0,1,0,41494.1,0.607066,0.606774,0.31052,63,0.0346203,10,0.000188416,-3.50791,0.285982,0.206306,0.606638,
2,1,0,1,0,41497.9,0.626044,0.62577,0.37592,63,0.0359408,10,0.000235239,-3.4249,0.17701,0.333314,0.625605,
2,1,0,1,0,41501.7,0.64502,0.644697,0.510589,63,0.0376276,10,0.000329175,-3.29193,0.117589,0.501747,0.644472,
2,1,0,1,0,41505.5,0.663997,0.663695,0.789409,63,0.0400649,10,0.000523927,-3.1027,0.087562,0.673808,0.663348,
2,1,0,1,0,41509.3,0.682974,0.682674,1.33098,63,0.0440186,10,0.000908624,-2.87583,0.0784933,0.751656,0.682088,
2,1,0,1,0,41513.1,0.701951,0.701669,2.25595,63,0.050724,10,0.00158293,-2.64667,0.0858067,0.687592,0.700676,
2,1,0,1,0,41516.9,0.720928,0.720626,3.6174,63,0.0617605,10,0.00260679,-2.4416,0.0966807,0.610256,0.719034,
2,1,0,1,0,41520.7,0.739905,0.739619,5.43462,63,0.0788219,10,0.00401955,-2.26483,0.109816,0.537262,0.737228,
2,1,0,0,0,41524.5,0.758883,0.758593,7.75538,63,0.103709,10,0.00588317,-2.1104,0.121293,0.486425,0.75518,
2,1,0,1,0,41528.3,0.77786,0.7776,10.7251,63,0.138565,10,0.00833981,-1.9696,0.128851,0.457894,0.772881,
2,1,0,0,0,41532.1,0.796837,0.796583,14.6823,63,0.18641,10,0.0116957,-1.83321,0.12301,0.479635,0.790123,
2,1,0,1,0,41535.9,0.815814,0.815552,19.9119,63,0.251754,10,0.0162392,-1.70089,0.132191,0.446323,0.806791,
2,1,0,0,0,41539.7,0.834791,0.83452,26.1361,63,0.338871,10,0.0218111,-1.58276,0.144851,0.407316,0.82302,
2,1,0,0,0,41543.4,0.846726,0.846463,29.7592,63,0.446711,10,0.0251901,-1.52638,0.110725,0.532852,0.833369,
2,1,0,1,0,41547.2,0.827749,0.827492,22.3191,63,0.544822,10,0.0184689,-1.65132,0.127572,0.462486,0.817672,
2,1,0,1,0,41551,0.808772,0.808487,16.3707,63,0.617616,10,0.0132355,-1.78593,0.121589,0.485241,0.801284,
2,1,0,1,0,41554.8,0.789795,0.789534,11.7804,63,0.670677,10,0.00930107,-1.92884,0.114053,0.517304,0.784351,
2,1,0,1,0,41558.6,0.770818,0.770503,8.24679,63,0.708305,10,0.00635417,-2.08372,0.111066,0.531214,0.766875,
2,1,0,1,0,41562.4,0.751841,0.75155,5.6231,63,0.734349,10,0.00422604,-2.25002,0.103119,0.572153,0.749076,
2,1,0,1,0,41566.1,0.732865,0.732629,3.67235,63,0.751773,10,0.00269047,-2.43506,0.0916822,0.643527,0.731013,
2,1,0,0,0,41569.9,0.713887,0.71361,2.24292,63,0.76283,10,0.00160057,-2.64919,0.0776117,0.760195,0.712623,
2,1,0,1,0,41573.7,0.69491,0.694654,1.22735,63,0.769257,10,0.000852588,-2.91103,0.0644804,0.915006,0.694114,
2,1,0,0,0,41577.5,0.675933,0.675647,0.576076,63,0.772545,10,0.000389224,-3.23952,0.050637,1.16516,0.675393,
2,1,0,1,0,41581.3,0.656956,0.656669,0.209804,63,0.773929,10,0.000137772,-3.67819,0.0359211,1.64249,0.656576,
2,1,0,0,0,41585.1,0.637979,0.63772,0.0280302,63,0.774302,10,1.78754e-05,-4.55237,0.00920841,6.40719,0.637708,
2,0,0,1,0,41588.9,0.619002,0.618697,-0.0512117,63,0.7742,10,-3.16845e-05,-4.29063,-0.0441437,-1.33654,0.618719,
2,0,0,0,0,41592.7,0.600024,0.599729,-0.0867836,63,0.773892,10,-5.20466e-05,-4.06156,-0.17401,-0.33906,0.599767,
2,0,0,1,0,41596.5,0.581047,0.580761,-0.103702,63,0.77349,10,-6.0226e-05,-3.98421,-0.594759,-0.0991999,0.580807,
2,0,0,1,0,41600.3,0.56207,0.56175,-0.113575,63,0.773043,10,-6.3801e-05,-3.94472,-1.09326,-0.0539672,0.5618,
2,0,0,1,0,41604.1,0.543093,0.54278,-0.118954,63,0.772567,10,-6.45656e-05,-3.92462,-1.62777,-0.0362458,0.542832,
2,0,0,1,0,41607.9,0.524116,0.523789,-0.123456,63,0.772072,10,-6.46648e-05,-3.90849,2.79079,0.021141,0.523843,
2,0,0,1,0,41611.7,0.505139,0.504878,-0.128367,63,0.77156,10,-6.48094e-05,-3.89155,-0.790949,-0.0745939,0.504934,
2,0,0,1,0,41615.5,0.486162,0.485847,-0.133505,63,0.771027,10,-6.48629e-05,-3.8745,-1.81977,-0.0324216,0.485906,
2,0,0,1,0,41619.3,0.467185,0.466908,-0.139222,63,0.770472,10,-6.50039e-05,-3.85629,-0.76534,-0.0770899,0.46697,
2,0,0,1,0,41623.1,0.448208,0.447916,-0.145811,63,0.769894,10,-6.53111e-05,-3.83621,-4.70836,-0.0125309,0.44798,
2,0,0,0,0,41626.9,0.429231,0.428929,-0.153548,63,0.769286,10,-6.58612e-05,-3.81376,-1.42443,-0.0414201,0.428997,
2,0,0,1,0,41630.7,0.410254,0.409901,-0.161781,63,0.768647,10,-6.63143e-05,-3.79107,-0.713818,-0.0826541,0.409973,
2,0,0,0,0,41634.5,0.391277,0.391017,-0.171308,63,0.767973,10,-6.69844e-05,-3.76622,-1.65043,-0.0357482,0.391092,
2,0,0,1,0,41638.3,0.3723,0.371958,-0.181006,63,0.767261,10,-6.73267e-05,-3.74231,-0.565464,-0.104339,0.372038,
2,0,0,1,0,41642.1,0.353322,0.352986,-0.191408,63,0.76651,10,-6.75642e-05,-3.71804,-0.948497,-0.0622037,0.35307,
2,0,0,1,0,41645.9,0.334345,0.33403,-0.202243,63,0.765718,10,-6.75551e-05,-3.69413,-1.02402,-0.0576159,0.334119,
2,0,0,1,0,41649.6,0.315368,0.315053,-0.213709,63,0.764881,10,-6.73298e-05,-3.67018,-0.712691,-0.0827849,0.315147,
2,0,0,1,0,41653.4,0.296391,0.296084,-0.225522,63,0.764,10,-6.67733e-05,-3.64681,-0.736359,-0.0801239,0.296183,
2,0,0,1,0,41657.2,0.277414,0.277073,-0.237353,63,0.763075,10,-6.57641e-05,-3.6246,-0.586855,-0.100536,0.277177,
2,0,0,1,0,41661,0.258437,0.258112,-0.249137,63,0.762102,10,-6.43051e-05,-3.60356,-0.806068,-0.0731949,0.258222,
2,0,0,1,0,41664.8,0.239461,0.239151,-0.260745,63,0.761083,10,-6.23574e-05,-3.58378,-0.746726,-0.0790116,0.239266,
2,0,0,0,0,41668.6,0.220483,0.220162,-0.272568,63,0.760022,10,-6.00092e-05,-3.56452,-0.61883,-0.0953412,0.220282,
2,0,0,1,0,41672.4,0.201506,0.201211,-0.285419,63,0.758912,10,-5.74295e-05,-3.54452,-0.489411,-0.120553,0.201337,
2,0,0,0,0,41676.2,0.182529,0.182229,-0.303656,63,0.757743,10,-5.53349e-05,-3.51762,-0.543384,-0.108579,0.182363,
2,0,0,1,0,41680,0.163552,0.163201,-0.336764,63,0.756479,10,-5.49601e-05,-3.47267,-0.316587,-0.186362,0.163349,
2,0,0,0,0,41683.8,0.144575,0.144254,-0.434817,63,0.754997,10,-6.27239e-05,-3.36169,-0.10657,-0.553628,0.144445,
2,0,0,1,0,41687.6,0.125598,0.125249,-0.649357,63,0.75288,10,-8.13314e-05,-3.18752,-0.168634,-0.349869,0.125535,
2,0,0,1,0,41691.4,0.10662,0.106296,-0.700326,63,0.750201,10,-7.4442e-05,-3.1547,2.57982,0.0228698,0.106604,
2,0,0,1,0,41695.2,0.0876433,0.0872874,-0.667677,63,0.74754,10,-5.82798e-05,-3.17543,0.678041,0.0870154,0.0875812,
2,0,0,1,0,41699,0.0686664,0.0683443,-0.62389,63,0.745037,10,-4.26393e-05,-3.20489,0.746646,0.0790201,0.0686189,
2,0,0,1,0,41702.8,0.0496895,0.0493783,-0.577473,63,0.742694,10,-2.85146e-05,-3.23847,0.522916,0.112829,0.0496323,
2,0,0,1,0,41706.6,0.0307126,0.0304362,-0.529863,63,0.740531,10,-1.6127e-05,-3.27584,0.544906,0.108275,0.0306694,
2,0,0,1,0,41710.4,0.0117356,0.0114052,-0.498057,63,0.73853,10,-5.68043e-06,-3.30272,2.40322,0.0245504,0.0116243,
2,0,0,0,0,41712.7,0.000274105,-0.00013445,-0.501078,63,0.737353,10,6.73701e-08,-3.30009, , ,8.6024e-05,