File: Figure_codes/Fig_3-5/workspace_calculate_alpha_eff/20221101_1-115_003_TrumpetPlot_ParaChange_from10_every3_16_CV_C01_98.csv
mode,ox/red,error,control changes,counter inc.,time/s,control/V,Ewe/V,<I>/mA,cycle number,(Q-Qo)/C,I Range,P/W,log(|I|),Tafel slope mV/dec,alpha_eff,E-IR/V,
2,0,0,0,0,65014.3,2.44065e-05,-0.000382585,-0.104482,99,0.0000000E+000,10,3.99734e-08,-3.98096, , ,-0.000336613,
2,1,0,1,0,65018,0.0187763,0.018454,0.2018,99,0.000651019,10,3.72401e-06,-3.69508,0.14716,0.400925,0.0183652,
2,1,0,1,0,65021.8,0.0377538,0.0374039,0.26417,99,0.00158738,10,9.88101e-06,-3.57812,0.184192,0.320317,0.0372877,
2,1,0,0,0,65025.6,0.0567309,0.0564446,0.323417,99,0.00276202,10,1.82551e-05,-3.49024,0.304187,0.19396,0.0563023,
2,1,0,1,0,65029.4,0.075708,0.075411,0.36863,99,0.00413488,10,2.77987e-05,-3.43341,0.425203,0.138757,0.0752488,
2,1,0,0,0,65033.2,0.094685,0.0943382,0.41972,99,0.00567006,10,3.95956e-05,-3.37704,0.260879,0.226158,0.0941535,
2,1,0,1,0,65037,0.113662,0.113349,0.511799,99,0.00748791,10,5.8012e-05,-3.2909,0.314353,0.187687,0.113124,
2,1,0,0,0,65040.8,0.132639,0.132285,0.54114,99,0.00956589,10,7.15847e-05,-3.26669,-0.556394,-0.10604,0.132047,
2,1,0,1,0,65044.6,0.151617,0.151287,0.355909,99,0.0113802,10,5.38443e-05,-3.44866,-0.0804798,-0.733104,0.15113,
2,1,0,1,0,65048.4,0.170594,0.170279,0.270307,99,0.0125686,10,4.60276e-05,-3.56814,-0.346302,-0.170372,0.17016,
2,1,0,1,0,65052.2,0.189571,0.189256,0.256056,99,0.0136103,10,4.84602e-05,-3.59167,-1.90156,-0.0310271,0.189144,
2,1,0,1,0,65056,0.208547,0.208234,0.248656,99,0.0146151,10,5.17787e-05,-3.6044,-1.94498,-0.0303345,0.208125,
2,1,0,1,0,65059.8,0.227524,0.227201,0.244975,99,0.0155984,10,5.56584e-05,-3.61088,-1.24732,-0.0473013,0.227093,
2,1,0,1,0,65063.6,0.246501,0.246199,0.241631,99,0.0165667,10,5.94893e-05,-3.61685,-1.20793,-0.0488438,0.246092,
2,1,0,0,0,65067.4,0.265479,0.265152,0.23791,99,0.0175214,10,6.30823e-05,-3.62359,-0.959295,-0.0615035,0.265047,
2,1,0,1,0,65071.2,0.284456,0.284165,0.23452,99,0.0184605,10,6.66422e-05,-3.62982,-2.22984,-0.0264593,0.284062,
2,1,0,0,0,65075,0.303433,0.303093,0.23039,99,0.019383,10,6.98296e-05,-3.63754,-1.92011,-0.0307273,0.302992,
2,1,0,1,0,65078.8,0.32241,0.322085,0.227426,99,0.0202912,10,7.32505e-05,-3.64316,-3.29994,-0.0178791,0.321985,
2,1,0,0,0,65082.6,0.341387,0.341086,0.224785,99,0.0211881,10,7.66711e-05,-3.64823,-3.06509,-0.019249,0.340987,
2,1,0,1,0,65086.4,0.360364,0.360043,0.223943,99,0.022075,10,8.06291e-05,-3.64986,-6.5135,-0.00905811,0.359945,
2,1,0,1,0,65090.2,0.379342,0.379014,0.2206,99,0.022953,10,8.36105e-05,-3.65639,-3.65976,-0.0161213,0.378917,
2,1,0,1,0,65094,0.398319,0.398014,0.219255,99,0.0238247,10,8.72663e-05,-3.65905,6.13012,0.0096246,0.397917,
2,1,0,1,0,65097.7,0.417295,0.417008,0.219277,99,0.0246918,10,9.14404e-05,-3.65901,-3.51658,-0.0167777,0.416912,
2,1,0,1,0,65101.5,0.436272,0.435956,0.218143,99,0.0255544,10,9.51006e-05,-3.66126,7.93264,0.00743762,0.43586,
2,1,0,1,0,65105.3,0.455249,0.454953,0.217605,99,0.0264142,10,9.90001e-05,-3.66233,1.55024,0.0380587,0.454857,
2,1,0,1,0,65109.1,0.474226,0.473914,0.219719,99,0.0272761,10,0.000104128,-3.65813,1.14084,0.0517162,0.473817,
2,1,0,1,0,65112.9,0.493203,0.492918,0.221592,99,0.0281442,10,0.000109227,-3.65445,1.03424,0.057047,0.492821,
2,1,0,0,0,65116.7,0.512181,0.511882,0.225795,99,0.0290237,10,0.00011558,-3.64629,2.21401,0.0266484,0.511782,
2,1,0,1,0,65120.5,0.531158,0.530855,0.231532,99,0.029919,10,0.00012291,-3.63539,1.86775,0.0315889,0.530753,
2,1,0,0,0,65124.3,0.550135,0.549875,0.239327,99,0.0308388,10,0.0001316,-3.62101,0.736177,0.0801438,0.54977,
2,1,0,1,0,65128.1,0.569112,0.56879,0.251115,99,0.0317953,10,0.000142832,-3.60013,0.720778,0.081856,0.568679,
2,1,0,0,0,65131.9,0.588089,0.587821,0.268483,99,0.0328063,10,0.00015782,-3.57108,0.646793,0.0912193,0.587703,
2,1,0,1,0,65135.7,0.607066,0.606754,0.297645,99,0.0339031,10,0.000180598,-3.5263,0.334573,0.176344,0.606623,
2,1,0,1,0,65139.5,0.626044,0.62578,0.350683,99,0.0351498,10,0.00021945,-3.45509,0.21834,0.270221,0.625625,
2,1,0,1,0,65143.3,0.64502,0.644733,0.455132,99,0.0366833,10,0.000293439,-3.34186,0.138769,0.425166,0.644533,
2,1,0,1,0,65147.1,0.663997,0.663709,0.665526,99,0.0387916,10,0.000441715,-3.17684,0.0984653,0.599196,0.663416,
2,1,0,1,0,65150.9,0.682974,0.682667,1.06983,99,0.0420367,10,0.000730336,-2.97069,0.0860131,0.685942,0.682196,
2,1,0,1,0,65154.7,0.701951,0.701689,1.75851,99,0.0473285,10,0.00123392,-2.75486,0.0887563,0.664741,0.700915,
2,1,0,1,0,65158.5,0.720928,0.72067,2.78085,99,0.0558587,10,0.00200408,-2.55582,0.0984239,0.599448,0.719447,
2,1,0,1,0,65162.3,0.739905,0.739645,4.16527,99,0.0689437,10,0.00308082,-2.38036,0.109366,0.539474,0.737812,
2,1,0,0,0,65166.1,0.758883,0.758573,5.97319,99,0.0880617,10,0.0045311,-2.22379,0.121817,0.484335,0.755944,
2,1,0,1,0,65169.9,0.77786,0.77758,8.31965,99,0.115023,10,0.0064692,-2.07989,0.128022,0.460858,0.77392,
2,1,0,0,0,65173.7,0.796837,0.796537,11.3861,99,0.152171,10,0.00906946,-1.94362,0.130317,0.452743,0.791527,
2,1,0,1,0,65177.5,0.815814,0.815561,15.3974,99,0.202802,10,0.0125576,-1.81255,0.140805,0.419018,0.808786,
2,1,0,0,0,65181.2,0.834791,0.83455,20.5168,99,0.27075,10,0.0171223,-1.68789,0.152895,0.385885,0.825522,
2,1,0,0,0,65184.9,0.846726,0.846481,23.5085,99,0.355896,10,0.0198995,-1.62877,0.10108,0.583694,0.836138,
2,1,0,1,0,65188.7,0.827749,0.827479,17.0986,99,0.432258,10,0.0141488,-1.76704,0.120485,0.489686,0.819955,
2,1,0,1,0,65192.5,0.808772,0.808512,12.3539,99,0.487768,10,0.00998831,-1.90819,0.117594,0.501724,0.803076,
2,1,0,1,0,65196.3,0.789795,0.789511,8.77931,99,0.527504,10,0.00693137,-2.05654,0.11781,0.500808,0.785648,
2,1,0,1,0,65200.1,0.770818,0.770563,6.15302,99,0.555555,10,0.00474128,-2.21091,0.113214,0.521139,0.767855,
2,1,0,1,0,65203.9,0.751841,0.751521,4.21423,99,0.575017,10,0.00316708,-2.37528,0.106542,0.553771,0.749667,
2,1,0,1,0,65207.7,0.732865,0.732616,2.77287,99,0.588114,10,0.00203145,-2.55707,0.0943273,0.625482,0.731396,
2,1,0,0,0,65211.5,0.713887,0.713601,1.69897,99,0.596467,10,0.00121239,-2.76981,0.0808327,0.729902,0.712853,
2,1,0,1,0,65215.3,0.69491,0.694653,0.933002,99,0.601335,10,0.000648113,-3.03012,0.064508,0.914615,0.694243,
2,1,0,0,0,65219.1,0.675933,0.675662,0.43512,99,0.60383,10,0.000293994,-3.36139,0.0487909,1.20924,0.67547,
2,1,0,1,0,65222.9,0.656956,0.656691,0.147036,99,0.604852,10,9.65571e-05,-3.83258,0.0305432,1.93169,0.656626,
2,0,0,0,0,65226.7,0.637979,0.637664,0.00175712,99,0.605072,10,1.12045e-06,-5.7552,0.0302573,1.94994,0.637663,
2,0,0,1,0,65230.5,0.619002,0.618703,-0.0633522,99,0.604911,10,-3.91962e-05,-4.19824,-0.0705412,-0.83639,0.618731,
2,0,0,0,0,65234.3,0.600024,0.599716,-0.0932375,99,0.604579,10,-5.5916e-05,-4.03041,-0.177834,-0.33177,0.599757,
2,0,0,1,0,65238.1,0.581047,0.580729,-0.106804,99,0.604169,10,-6.20243e-05,-3.97141,-0.435538,-0.135465,0.580776,
2,0,0,1,0,65241.9,0.56207,0.561764,-0.115232,99,0.603719,10,-6.47332e-05,-3.93843,-1.00169,-0.0589003,0.561815,
2,0,0,1,0,65245.7,0.543093,0.542786,-0.12002,99,0.603246,10,-6.51453e-05,-3.92075,-0.973476,-0.0606076,0.542839,
2,0,0,1,0,65249.5,0.524116,0.523796,-0.124758,99,0.602754,10,-6.5348e-05,-3.90393,-1.16931,-0.0504569,0.523851,
2,0,0,1,0,65253.3,0.505139,0.504834,-0.130252,99,0.602243,10,-6.57558e-05,-3.88521,-1.8186,-0.0324426,0.504891,
2,0,0,1,0,65257.1,0.486162,0.485848,-0.135144,99,0.601712,10,-6.56597e-05,-3.8692,-1.54579,-0.0381681,0.485908,
2,0,0,1,0,65260.9,0.467185,0.466889,-0.141197,99,0.601159,10,-6.59234e-05,-3.85017,-0.921942,-0.0639954,0.466951,
2,0,0,1,0,65264.6,0.448208,0.44791,-0.147721,99,0.600581,10,-6.61655e-05,-3.83056,-1.0991,-0.0536801,0.447975,
2,0,0,0,0,65268.4,0.429231,0.428886,-0.155433,99,0.599976,10,-6.66628e-05,-3.80846,-4.37118,-0.0134975,0.428954,
2,0,0,1,0,65272.2,0.410254,0.409951,-0.16376,99,0.599339,10,-6.71336e-05,-3.78579,-1.02244,-0.0577049,0.410023,
2,0,0,0,0,65276,0.391277,0.39097,-0.173396,99,0.598667,10,-6.77926e-05,-3.76096,-0.854301,-0.0690623,0.391046,
2,0,0,1,0,65279.8,0.3723,0.371988,-0.182675,99,0.597959,10,-6.79529e-05,-3.73832,-0.740191,-0.0797092,0.372068,
2,0,0,1,0,65283.6,0.353322,0.353051,-0.192073,99,0.597211,10,-6.78116e-05,-3.71653,-0.566037,-0.104233,0.353135,
2,0,0,1,0,65287.4,0.334345,0.334082,-0.204234,99,0.596421,10,-6.82309e-05,-3.68987,-1.0187,-0.0579167,0.334172,
2,0,0,1,0,65291.2,0.315368,0.315046,-0.214544,99,0.595589,10,-6.75912e-05,-3.66848,-0.846124,-0.0697297,0.31514,
2,0,0,1,0,65295,0.296391,0.296083,-0.226965,99,0.594711,10,-6.72003e-05,-3.64404,-0.864049,-0.0682831,0.296183,
2,0,0,1,0,65298.8,0.277414,0.277098,-0.23799,99,0.593788,10,-6.59465e-05,-3.62344,-0.714422,-0.0825842,0.277203,
2,0,0,1,0,65302.6,0.258437,0.258103,-0.250524,99,0.592818,10,-6.4661e-05,-3.60115,-0.672312,-0.0877568,0.258213,
2,0,0,1,0,65306.4,0.239461,0.239162,-0.262123,99,0.591803,10,-6.26897e-05,-3.5815,-0.854764,-0.0690249,0.239277,
2,0,0,0,0,65310.2,0.220483,0.220136,-0.273356,99,0.590746,10,-6.01756e-05,-3.56327,-0.697795,-0.084552,0.220257,
2,0,0,1,0,65314,0.201506,0.201178,-0.286383,99,0.589641,10,-5.76141e-05,-3.54305,-0.708519,-0.0832722,0.201304,
2,0,0,0,0,65317.8,0.182529,0.182254,-0.303176,99,0.58848,10,-5.52552e-05,-3.51831,-0.572197,-0.103111,0.182388,
2,0,0,1,0,65321.6,0.163552,0.163237,-0.332492,99,0.587233,10,-5.42751e-05,-3.47822,-0.321554,-0.183484,0.163383,
2,0,0,0,0,65325.4,0.144575,0.144236,-0.410402,99,0.585806,10,-5.91946e-05,-3.38679,-0.131535,-0.448549,0.144416,
2,0,0,1,0,65329.2,0.125598,0.125282,-0.598901,99,0.583856,10,-7.50315e-05,-3.22264,-0.149416,-0.39487,0.125545,
2,0,0,1,0,65333,0.10662,0.106276,-0.669355,99,0.581344,10,-7.11364e-05,-3.17434,-3.18168,-0.0185437,0.106571,
2,0,0,1,0,65336.8,0.0876433,0.087348,-0.652125,99,0.578775,10,-5.69618e-05,-3.18567,0.80288,0.0734854,0.0876349,
2,0,0,1,0,65340.6,0.0686664,0.0683115,-0.614816,99,0.576319,10,-4.1999e-05,-3.21125,0.728966,0.0809366,0.068582,
2,0,0,1,0,65344.3,0.0496895,0.0493824,-0.57199,99,0.574009,10,-2.82463e-05,-3.24261,0.58092,0.101563,0.0496341,
2,0,0,1,0,65348.1,0.0307126,0.030379,-0.525682,99,0.57187,10,-1.59697e-05,-3.27928,0.519465,0.113578,0.0306103,
2,0,0,1,0,65351.9,0.0117356,0.011382,-0.497178,99,0.569884,10,-5.65888e-06,-3.30349,2.15142,0.0274237,0.0116007,
2,0,0,0,0,65354.2,0.000274105,-0.000135643,-0.499536,99,0.568713,10,6.77587e-08,-3.30143, , ,8.41525e-05,