File: Figure_codes/Fig_3-5/workspace_calculate_alpha_eff/20221101_1-115_003_TrumpetPlot_ParaChange_from10_every3_16_CV_C01_80.csv
mode,ox/red,error,control changes,counter inc.,time/s,control/V,Ewe/V,<I>/mA,cycle number,(Q-Qo)/C,I Range,P/W,log(|I|),Tafel slope mV/dec,alpha_eff,E-IR/V,
2,0,0,0,0,53193.5,2.44065e-05,-0.000306236,-0.104482,81,0.0000000E+000,10,3.19963e-08,-3.98096, , ,-0.000260264,
2,1,0,1,0,53197.3,0.0187763,0.018419,0.203888,81,0.000654905,10,3.75541e-06,-3.69061,0.145222,0.406276,0.0183293,
2,1,0,1,0,53201.1,0.0377538,0.0373647,0.266426,81,0.00160098,10,9.95492e-06,-3.57442,0.167727,0.351763,0.0372475,
2,1,0,0,0,53204.9,0.0567309,0.056381,0.327517,81,0.00278927,10,1.84657e-05,-3.48477,0.258055,0.228633,0.0562369,
2,1,0,1,0,53208.6,0.075708,0.0753877,0.372431,81,0.00418039,10,2.80767e-05,-3.42895,0.428188,0.13779,0.0752238,
2,1,0,0,0,53212.4,0.094685,0.0943562,0.425319,81,0.00573908,10,4.01315e-05,-3.37129,0.254863,0.231497,0.0941691,
2,1,0,1,0,53216.2,0.113662,0.113344,0.518699,81,0.00758718,10,5.87914e-05,-3.28508,0.32142,0.183561,0.113116,
2,1,0,0,0,53220,0.132639,0.132269,0.554957,81,0.00970476,10,7.34036e-05,-3.25574,-0.576823,-0.102284,0.132025,
2,1,0,1,0,53223.8,0.151617,0.15128,0.364967,81,0.0115679,10,5.52123e-05,-3.43775,-0.0778541,-0.757828,0.15112,
2,1,0,1,0,53227.6,0.170594,0.17026,0.274363,81,0.0127789,10,4.67133e-05,-3.56167,-0.285866,-0.20639,0.17014,
2,1,0,1,0,53231.4,0.189571,0.189221,0.255951,81,0.0138278,10,4.84314e-05,-3.59184,-1.52067,-0.0387986,0.189109,
2,1,0,1,0,53235.2,0.208547,0.208181,0.249253,81,0.0148326,10,5.18899e-05,-3.60336,-1.56366,-0.0377321,0.208072,
2,1,0,1,0,53239,0.227524,0.227168,0.243666,81,0.0158139,10,5.5353e-05,-3.61321,-1.14748,-0.051417,0.22706,
2,1,0,1,0,53242.8,0.246501,0.246149,0.239628,81,0.0167777,10,5.89841e-05,-3.62046,-1.48281,-0.0397894,0.246043,
2,1,0,0,0,53246.6,0.265479,0.265192,0.236397,81,0.0177276,10,6.26906e-05,-3.62636,-1.70176,-0.03467,0.265088,
2,1,0,1,0,53250.4,0.284456,0.284131,0.231625,81,0.0186628,10,6.58119e-05,-3.63521,59.9746,0.00098375,0.284029,
2,1,0,0,0,53254.2,0.303433,0.303075,0.228416,81,0.0195805,10,6.92271e-05,-3.64127,-2.49034,-0.0236915,0.302975,
2,1,0,1,0,53258,0.32241,0.322072,0.225976,81,0.0204827,10,7.27806e-05,-3.64594,-3.92362,-0.0150371,0.321973,
2,1,0,0,0,53261.8,0.341387,0.341039,0.222316,81,0.0213728,10,7.58183e-05,-3.65303,-3.90332,-0.0151153,0.340941,
2,1,0,1,0,53265.6,0.360364,0.359993,0.220412,81,0.0222526,10,7.93469e-05,-3.65676,-2.98077,-0.0197936,0.359896,
2,1,0,1,0,53269.4,0.379342,0.378985,0.218689,81,0.0231239,10,8.28797e-05,-3.66017,-1.86189,-0.0316882,0.378888,
2,1,0,1,0,53273.2,0.398319,0.397991,0.2169,81,0.0239881,10,8.63244e-05,-3.66374,-3.53058,-0.0167111,0.397896,
2,1,0,1,0,53277,0.417295,0.416979,0.216183,81,0.0248469,10,9.01437e-05,-3.66518,-1.71563,-0.0343897,0.416884,
2,1,0,1,0,53280.8,0.436272,0.435911,0.215601,81,0.0257012,10,9.39828e-05,-3.66635,7.66346,0.00769887,0.435816,
2,1,0,1,0,53284.6,0.455249,0.454932,0.216752,81,0.026554,10,9.86073e-05,-3.66404,-6.71827,-0.00878203,0.454837,
2,1,0,1,0,53288.4,0.474226,0.473854,0.217228,81,0.0274092,10,0.000102934,-3.66309,1.2822,0.0460148,0.473759,
2,1,0,1,0,53292.1,0.493203,0.49288,0.219964,81,0.0282711,10,0.000108416,-3.65765,2.07092,0.0284898,0.492783,
2,1,0,0,0,53295.9,0.512181,0.511827,0.22355,81,0.029144,10,0.000114419,-3.65063,1.71078,0.0344871,0.511728,
2,1,0,1,0,53299.7,0.531158,0.530808,0.228871,81,0.0300336,10,0.000121486,-3.64041,2.34773,0.0251306,0.530707,
2,1,0,0,0,53303.5,0.550135,0.549786,0.237329,81,0.0309486,10,0.00013048,-3.62465,0.910797,0.0647784,0.549682,
2,1,0,1,0,53307.3,0.569112,0.568771,0.249543,81,0.0319012,10,0.000141933,-3.60285,0.666146,0.0885692,0.568662,
2,1,0,0,0,53311.1,0.588089,0.587725,0.268483,81,0.0329102,10,0.000157794,-3.57108,0.614568,0.0960024,0.587607,
2,1,0,1,0,53314.9,0.607066,0.606688,0.298766,81,0.0340097,10,0.000181258,-3.52467,0.324519,0.181808,0.606557,
2,1,0,1,0,53318.7,0.626044,0.625708,0.353419,81,0.0352664,10,0.000221137,-3.45171,0.203788,0.289517,0.625553,
2,1,0,1,0,53322.5,0.64502,0.644654,0.464299,81,0.0368256,10,0.000299312,-3.3332,0.132258,0.446098,0.64445,
2,1,0,1,0,53326.3,0.663997,0.663688,0.690501,81,0.038996,10,0.000458277,-3.16084,0.0963474,0.612368,0.663384,
2,1,0,1,0,53330.1,0.682974,0.68261,1.12737,81,0.042392,10,0.000769555,-2.94793,0.0846972,0.696599,0.682114,
2,1,0,1,0,53333.9,0.701951,0.701614,1.87747,81,0.0480121,10,0.00131726,-2.72643,0.0852277,0.692263,0.700788,
2,1,0,1,0,53337.7,0.720928,0.720586,2.99252,81,0.0571622,10,0.00215637,-2.52396,0.0974267,0.605584,0.71927,
2,1,0,1,0,53341.5,0.739905,0.739595,4.49904,81,0.0712788,10,0.00332747,-2.34688,0.10962,0.538223,0.737616,
2,1,0,0,0,53345.3,0.758883,0.758519,6.45538,81,0.0919441,10,0.00489653,-2.19008,0.121235,0.486656,0.755678,
2,1,0,1,0,53349.1,0.77786,0.777514,8.96413,81,0.12104,10,0.00696973,-2.04749,0.128307,0.459834,0.773569,
2,1,0,0,0,53352.9,0.796837,0.796523,12.2466,81,0.161004,10,0.00975473,-1.91198,0.128606,0.458766,0.791135,
2,1,0,1,0,53356.7,0.815814,0.815485,16.5556,81,0.21532,10,0.0135008,-1.78105,0.126984,0.464625,0.8082,
2,1,0,0,0,53360.5,0.834791,0.834497,22.0209,81,0.288312,10,0.0183764,-1.65716,0.143307,0.411705,0.824807,
2,1,0,0,0,53364.2,0.846726,0.846431,25.2272,81,0.379633,10,0.0213531,-1.59813,0.107019,0.551305,0.835332,
2,1,0,1,0,53368,0.827749,0.827441,18.5557,81,0.462083,10,0.0153537,-1.73152,0.117602,0.501692,0.819277,
2,1,0,1,0,53371.8,0.808772,0.80845,13.4547,81,0.522388,10,0.0108774,-1.87113,0.118971,0.495919,0.802529,
2,1,0,1,0,53375.5,0.789795,0.789477,9.62208,81,0.565804,10,0.00759641,-2.01673,0.114939,0.513314,0.785243,
2,1,0,1,0,53379.3,0.770818,0.770455,6.72738,81,0.596487,10,0.00518314,-2.17215,0.112544,0.524238,0.767495,
2,1,0,1,0,53383.1,0.751841,0.751516,4.59888,81,0.617764,10,0.00345613,-2.33735,0.105446,0.55953,0.749492,
2,1,0,1,0,53386.9,0.732865,0.732568,3.00319,81,0.632011,10,0.00220004,-2.52242,0.0931785,0.633193,0.731246,
2,1,0,0,0,53390.7,0.713887,0.713583,1.82658,81,0.641031,10,0.00130341,-2.73836,0.0767839,0.76839,0.712779,
2,1,0,1,0,53394.5,0.69491,0.69457,0.99618,81,0.646257,10,0.000691916,-3.00166,0.0635308,0.928683,0.694131,
2,1,0,0,0,53398.3,0.675933,0.675604,0.460092,81,0.648906,10,0.00031084,-3.33716,0.0487364,1.21059,0.675402,
2,1,0,1,0,53402.1,0.656956,0.656636,0.155711,81,0.649984,10,0.000102245,-3.80768,0.0313416,1.88248,0.656567,
2,1,0,0,0,53405.9,0.637979,0.637661,0.00442197,81,0.65022,10,2.81972e-06,-5.35438,0.0107922,5.46694,0.637659,
2,0,0,1,0,53409.7,0.619002,0.618631,-0.0618225,81,0.650063,10,-3.82453e-05,-4.20885,-0.0618369,-0.954123,0.618658,
2,0,0,0,0,53413.5,0.600024,0.599631,-0.0919888,81,0.649732,10,-5.51594e-05,-4.03627,-0.235115,-0.250941,0.599672,
2,0,0,1,0,53417.3,0.581047,0.580684,-0.106616,81,0.649321,10,-6.19099e-05,-3.97218,-0.409433,-0.144102,0.580731,
2,0,0,1,0,53421.1,0.56207,0.56172,-0.11403,81,0.64887,10,-6.4053e-05,-3.94298,-2.2559,-0.0261536,0.56177,
2,0,0,1,0,53424.9,0.543093,0.54274,-0.119165,81,0.648395,10,-6.46758e-05,-3.92385,-1.25068,-0.0471744,0.542792,
2,0,0,1,0,53428.7,0.524116,0.523764,-0.123916,81,0.647903,10,-6.49027e-05,-3.90687,-0.57339,-0.102897,0.523818,
2,0,0,1,0,53432.5,0.505139,0.504801,-0.127506,81,0.647394,10,-6.43651e-05,-3.89447,-1.24224,-0.0474949,0.504857,
2,0,0,1,0,53436.3,0.486162,0.485807,-0.133083,81,0.646867,10,-6.46527e-05,-3.87588,9.00799,0.00654974,0.485865,
2,0,0,1,0,53440.1,0.467185,0.466792,-0.139248,81,0.646319,10,-6.49998e-05,-3.85621,-1.35823,-0.0434389,0.466853,
2,0,0,1,0,53443.9,0.448208,0.447842,-0.145692,81,0.645745,10,-6.52469e-05,-3.83656,-1.90002,-0.0310522,0.447906,
2,0,0,0,0,53447.7,0.429231,0.428858,-0.153128,81,0.645143,10,-6.56704e-05,-3.81494,-2.19866,-0.0268346,0.428926,
2,0,0,1,0,53451.5,0.410254,0.409862,-0.161222,81,0.644509,10,-6.60786e-05,-3.79258,-1.0874,-0.0542578,0.409933,
2,0,0,0,0,53455.2,0.391277,0.390895,-0.170328,81,0.643841,10,-6.65802e-05,-3.76871,-0.667023,-0.0884527,0.39097,
2,0,0,1,0,53459,0.3723,0.371965,-0.180576,81,0.643136,10,-6.7168e-05,-3.74334,-0.476155,-0.123909,0.372045,
2,0,0,1,0,53462.8,0.353322,0.352969,-0.191088,81,0.642391,10,-6.7448e-05,-3.71877,-0.774755,-0.0761531,0.353053,
2,0,0,1,0,53466.6,0.334345,0.334002,-0.201774,81,0.641606,10,-6.73929e-05,-3.69514,-0.944677,-0.0624552,0.334091,
2,0,0,1,0,53470.4,0.315368,0.314966,-0.212795,81,0.640778,10,-6.70233e-05,-3.67204,-2.69283,-0.02191,0.31506,
2,0,0,1,0,53474.2,0.296391,0.296014,-0.224666,81,0.639906,10,-6.65042e-05,-3.64846,-0.661706,-0.0891635,0.296113,
2,0,0,1,0,53478,0.277414,0.27708,-0.236843,81,0.638988,10,-6.56244e-05,-3.62554,-0.858754,-0.0687042,0.277184,
2,0,0,1,0,53481.8,0.258437,0.25806,-0.248291,81,0.638023,10,-6.40739e-05,-3.60504,-0.628835,-0.0938243,0.258169,
2,0,0,1,0,53485.6,0.239461,0.23913,-0.260604,81,0.637013,10,-6.23181e-05,-3.58402,-1.21954,-0.0483787,0.239244,
2,0,0,0,0,53489.4,0.220483,0.220165,-0.270914,81,0.63596,10,-5.96457e-05,-3.56717,-0.573248,-0.102922,0.220284,
2,0,0,1,0,53493.2,0.201506,0.201138,-0.283836,81,0.634861,10,-5.70902e-05,-3.54693,-0.5079,-0.116165,0.201263,
2,0,0,0,0,53497,0.182529,0.18219,-0.301063,81,0.633703,10,-5.48506e-05,-3.52134,-0.589139,-0.100146,0.182322,
2,0,0,1,0,53500.8,0.163552,0.163201,-0.33199,81,0.632459,10,-5.41812e-05,-3.47887,-0.325546,-0.181234,0.163347,
2,0,0,0,0,53504.6,0.144575,0.144196,-0.415305,81,0.631023,10,-5.98854e-05,-3.38163,-0.119917,-0.492006,0.144379,
2,0,0,1,0,53508.4,0.125598,0.125194,-0.613965,81,0.629025,10,-7.68647e-05,-3.21186,-0.154649,-0.381509,0.125464,
2,0,0,1,0,53512.2,0.10662,0.106244,-0.677503,81,0.626465,10,-7.19808e-05,-3.16909,-16.1287,-0.00365808,0.106542,
2,0,0,1,0,53516,0.0876433,0.087278,-0.655375,81,0.623873,10,-5.71998e-05,-3.18351,0.743424,0.0793625,0.0875663,
2,0,0,1,0,53519.8,0.0686664,0.0683126,-0.616596,81,0.621408,10,-4.21213e-05,-3.21,0.688773,0.0856596,0.0685839,
2,0,0,1,0,53523.6,0.0496895,0.0492902,-0.571883,81,0.619095,10,-2.81882e-05,-3.24269,0.568945,0.103701,0.0495418,
2,0,0,1,0,53527.4,0.0307126,0.0303386,-0.5259,81,0.616955,10,-1.59551e-05,-3.2791,0.536153,0.110043,0.03057,
2,0,0,1,0,53531.2,0.0117356,0.011398,-0.496682,81,0.61497,10,-5.66117e-06,-3.30392,1.15292,0.0511745,0.0116165,
2,0,0,0,0,53533.4,0.000274105,-0.000148766,-0.498386,81,0.6138,10,7.41429e-08,-3.30243, , ,7.05242e-05,