File: Figure_codes/Fig_3-5/workspace_calculate_alpha_eff/20221101_1-115_003_TrumpetPlot_ParaChange_from10_every3_16_CV_C01_24.csv
mode,ox/red,error,control changes,counter inc.,time/s,control/V,Ewe/V,<I>/mA,cycle number,(Q-Qo)/C,I Range,P/W,log(|I|),Tafel slope mV/dec,alpha_eff,E-IR/V,
2,0,0,1,0,16991.2,2.44065e-05,-0.000382585,-0.0472394,25,0.0000000E+000,10,1.80731e-08,-4.3257, , ,-0.0003618,
2,1,0,1,0,16994.9,0.0187763,0.0184487,0.278877,25,0.000959131,10,5.14491e-06,-3.55459,0.178551,0.330437,0.018326,
2,1,0,0,0,16998.7,0.0377538,0.0374251,0.34526,25,0.00222174,10,1.29214e-05,-3.46185,0.202295,0.291654,0.0372732,
2,1,0,1,0,17002.5,0.0567309,0.056399,0.407389,25,0.00373448,10,2.29764e-05,-3.38999,0.285381,0.206741,0.0562198,
2,1,0,0,0,17006.3,0.075708,0.0753919,0.453946,25,0.00545565,10,3.42239e-05,-3.343,0.651609,0.0905451,0.0751922,
2,1,0,1,0,17010.1,0.0946851,0.0943934,0.512757,25,0.00734878,10,4.84009e-05,-3.29009,0.25431,0.232,0.0941678,
2,1,0,0,0,17013.9,0.113662,0.113375,0.617642,25,0.00957068,10,7.0025e-05,-3.20926,0.335222,0.176003,0.113103,
2,1,0,1,0,17017.7,0.132639,0.13232,0.67786,25,0.0121163,10,8.96944e-05,-3.16886,-1.21208,-0.0486767,0.132022,
2,1,0,1,0,17021.5,0.151617,0.151335,0.455073,25,0.0144297,10,6.88682e-05,-3.34192,-0.078112,-0.755326,0.151134,
2,1,0,1,0,17025.3,0.170594,0.170291,0.333934,25,0.0159351,10,5.6866e-05,-3.47634,-0.276415,-0.213447,0.170144,
2,1,0,1,0,17029.1,0.189571,0.189223,0.305722,25,0.017205,10,5.78498e-05,-3.51467,-0.736454,-0.0801136,0.189089,
2,1,0,1,0,17032.9,0.208547,0.208219,0.294025,25,0.0184038,10,6.12217e-05,-3.53162,-1.07374,-0.0549483,0.20809,
2,1,0,1,0,17036.7,0.227524,0.227226,0.285497,25,0.0195663,10,6.48724e-05,-3.5444,-0.970854,-0.0607713,0.2271,
2,1,0,1,0,17040.5,0.246501,0.246164,0.280316,25,0.0207037,10,6.90037e-05,-3.55235,-0.824571,-0.0715524,0.24604,
2,1,0,1,0,17044.3,0.265479,0.265223,0.275794,25,0.0218227,10,7.31469e-05,-3.55942,-2.19976,-0.0268212,0.265101,
2,1,0,0,0,17048,0.284456,0.284143,0.271813,25,0.0229255,10,7.72336e-05,-3.56573,-2.31987,-0.0254325,0.284023,
2,1,0,1,0,17051.8,0.303433,0.303138,0.267549,25,0.0240123,10,8.11042e-05,-3.5726,-1.79877,-0.0328002,0.30302,
2,1,0,0,0,17055.6,0.32241,0.322155,0.26402,25,0.0250837,10,8.50554e-05,-3.57836,-1.64425,-0.0358827,0.322039,
2,1,0,1,0,17059.4,0.341387,0.341053,0.260765,25,0.0261422,10,8.89348e-05,-3.58375,-2.26608,-0.0260362,0.340939,
2,1,0,0,0,17063.2,0.360364,0.36005,0.260076,25,0.0271888,10,9.36402e-05,-3.5849,-3.39511,-0.0173779,0.359935,
2,1,0,1,0,17067,0.379342,0.379064,0.256417,25,0.0282248,10,9.71983e-05,-3.59105,-10.9376,-0.00539425,0.378951,
2,1,0,1,0,17070.8,0.398319,0.398001,0.253871,25,0.0292519,10,0.000101041,-3.59539,-148.104,-0.000398368,0.397889,
2,1,0,1,0,17074.6,0.417295,0.416996,0.252856,25,0.0302709,10,0.00010544,-3.59713,42.3488,0.00139319,0.416885,
2,1,0,1,0,17078.4,0.436272,0.435984,0.251723,25,0.0312846,10,0.000109747,-3.59908,4.60129,0.0128225,0.435873,
2,1,0,1,0,17082.2,0.455249,0.454969,0.252317,25,0.0322968,10,0.000114796,-3.59805,3.58559,0.0164547,0.454858,
2,1,0,1,0,17086,0.474226,0.473881,0.251643,25,0.0333116,10,0.000119249,-3.59922,2.14801,0.0274673,0.47377,
2,1,0,1,0,17089.8,0.493203,0.492959,0.255995,25,0.0343323,10,0.000126195,-3.59177,2.21593,0.0266254,0.492847,
2,1,0,1,0,17093.6,0.512181,0.511866,0.260512,25,0.035365,10,0.000133347,-3.58417,1.08767,0.0542444,0.511751,
2,1,0,0,0,17097.4,0.531158,0.530892,0.267015,25,0.0364193,10,0.000141756,-3.57346,2.58052,0.0228636,0.530774,
2,1,0,1,0,17101.2,0.550135,0.549818,0.277253,25,0.0375048,10,0.000152439,-3.55712,0.678277,0.0869851,0.549696,
2,1,0,0,0,17105,0.569112,0.568847,0.294316,25,0.0386373,10,0.00016742,-3.53119,0.564133,0.104585,0.568717,
2,1,0,1,0,17108.8,0.588089,0.587758,0.319247,25,0.0398473,10,0.00018764,-3.49587,0.408069,0.144584,0.587618,
2,1,0,0,0,17112.6,0.607066,0.606777,0.368026,25,0.0411937,10,0.00022331,-3.43412,0.23936,0.24649,0.606616,
2,1,0,1,0,17116.4,0.626044,0.625783,0.4635,25,0.0428025,10,0.00029005,-3.33395,0.151674,0.388992,0.625579,
2,1,0,1,0,17120.2,0.64502,0.644759,0.665864,25,0.0449494,10,0.000429322,-3.17661,0.101199,0.58301,0.644466,
2,1,0,1,0,17124,0.663997,0.663747,1.1016,25,0.0482574,10,0.000731185,-2.95798,0.077667,0.759654,0.663262,
2,1,0,1,0,17127.8,0.682974,0.682734,1.97709,25,0.0539801,10,0.00134983,-2.70397,0.0721638,0.817584,0.681865,
2,1,0,1,0,17131.5,0.701951,0.701669,3.50476,25,0.0642076,10,0.00245918,-2.45534,0.0758743,0.777602,0.700127,
2,1,0,1,0,17135.3,0.720928,0.720669,5.78915,25,0.0816624,10,0.00417206,-2.23739,0.0884275,0.667214,0.718122,
2,1,0,1,0,17139.1,0.739905,0.739649,8.80325,25,0.109188,10,0.00651131,-2.05536,0.105993,0.556642,0.735776,
2,1,0,1,0,17142.9,0.758883,0.75861,12.5269,25,0.149484,10,0.00950303,-1.90216,0.119301,0.494548,0.753098,
2,1,0,0,0,17146.7,0.77786,0.777595,17.3292,25,0.20578,10,0.0134751,-1.76122,0.122644,0.481069,0.76997,
2,1,0,1,0,17150.5,0.796837,0.79656,23.3672,25,0.282642,10,0.0186133,-1.63139,0.129299,0.456307,0.786278,
2,1,0,0,0,17154.3,0.815814,0.815549,30.5939,25,0.384764,10,0.0249508,-1.51437,0.139856,0.421863,0.802088,
2,1,0,1,0,17158.1,0.834791,0.834571,38.2322,25,0.515405,10,0.0319075,-1.41757,0.17119,0.344645,0.817749,
2,1,0,1,0,17161.8,0.846727,0.846486,42.2153,25,0.669349,10,0.0357346,-1.37453,0.039121,1.50814,0.827911,
2,1,0,1,0,17165.6,0.827749,0.827497,31.7593,25,0.805635,10,0.0262808,-1.49813,0.14471,0.407712,0.813523,
2,1,0,1,0,17169.4,0.808772,0.80849,24.5077,25,0.911992,10,0.0198142,-1.6107,0.12555,0.469932,0.797706,
2,1,0,1,0,17173.2,0.789795,0.789519,17.9625,25,0.992159,10,0.0141817,-1.74563,0.115296,0.511728,0.781616,
2,1,0,1,0,17177,0.770818,0.770529,12.7203,25,1.04995,10,0.00980138,-1.8955,0.105149,0.561108,0.764932,
2,1,0,1,0,17180.8,0.751841,0.751576,8.5907,25,1.08996,10,0.00645657,-2.06597,0.0972886,0.606443,0.747796,
2,1,0,1,0,17184.6,0.732865,0.732606,5.504,25,1.11637,10,0.00403226,-2.25932,0.0861341,0.684978,0.730184,
2,1,0,1,0,17188.4,0.713887,0.713615,3.27342,25,1.13272,10,0.00233596,-2.485,0.0739568,0.797763,0.712174,
2,1,0,0,0,17192.2,0.69491,0.694653,1.76379,25,1.14202,10,0.00122522,-2.75355,0.0622272,0.948138,0.693877,
2,1,0,1,0,17196,0.675933,0.675656,0.83744,25,1.14675,10,0.000565821,-3.07705,0.052532,1.12312,0.675288,
2,1,0,0,0,17199.8,0.656956,0.656668,0.337,25,1.14882,10,0.000221297,-3.47237,0.0428055,1.37833,0.656519,
2,1,0,1,0,17203.6,0.637979,0.637703,0.0972443,25,1.14953,10,6.2013e-05,-4.01214,0.027134,2.17439,0.63766,
2,1,0,0,0,17207.4,0.619002,0.618763,-0.00865349,25,1.14962,10,-5.35446e-06,-5.06281,-0.00367444,-16.0569,0.618767,
2,0,0,1,0,17211.2,0.600025,0.599698,-0.0530582,25,1.14944,10,-3.18189e-05,-4.27525,-0.0743497,-0.793547,0.599722,
2,0,0,1,0,17214.9,0.581047,0.580738,-0.0749419,25,1.14914,10,-4.35216e-05,-4.12528,-0.226008,-0.261052,0.580771,
2,0,0,1,0,17218.7,0.56207,0.561732,-0.0858794,25,1.14879,10,-4.82412e-05,-4.06611,-0.769299,-0.0766932,0.56177,
2,0,0,1,0,17222.5,0.543093,0.542802,-0.092352,25,1.1484,10,-5.01288e-05,-4.03455,-0.755394,-0.078105,0.542843,
2,0,0,1,0,17226.3,0.524116,0.523791,-0.0979755,25,1.14798,10,-5.13187e-05,-4.00888,-3.59801,-0.0163979,0.523834,
2,0,0,1,0,17230.1,0.505139,0.504826,-0.102527,25,1.14755,10,-5.17584e-05,-3.98916,-0.636911,-0.0926346,0.504871,
2,0,0,1,0,17233.9,0.486162,0.485848,-0.109007,25,1.1471,10,-5.2961e-05,-3.96254,-0.909136,-0.0648968,0.485896,
2,0,0,1,0,17237.7,0.467185,0.466882,-0.115722,25,1.14662,10,-5.40286e-05,-3.93658,-0.837558,-0.0704429,0.466933,
2,0,0,0,0,17241.5,0.448208,0.447887,-0.123416,25,1.14611,10,-5.52765e-05,-3.90863,-1.34761,-0.0437813,0.447942,
2,0,0,1,0,17245.3,0.429231,0.428906,-0.130167,25,1.14558,10,-5.58292e-05,-3.8855,-12.3274,-0.00478609,0.428963,
2,0,0,0,0,17249.1,0.410254,0.409981,-0.140752,25,1.14501,10,-5.77058e-05,-3.85154,14.7067,0.00401178,0.410043,
2,0,0,1,0,17252.9,0.391277,0.390925,-0.149964,25,1.1444,10,-5.86249e-05,-3.82401,-0.588476,-0.100259,0.390991,
2,0,0,0,0,17256.7,0.3723,0.372017,-0.159939,25,1.14376,10,-5.95e-05,-3.79605,-0.63468,-0.0929602,0.372088,
2,0,0,1,0,17260.5,0.353322,0.352999,-0.170386,25,1.14307,10,-6.01463e-05,-3.76857,-0.605051,-0.0975124,0.353074,
2,0,0,1,0,17264.3,0.334345,0.33405,-0.181585,25,1.14234,10,-6.06585e-05,-3.74092,-1.03865,-0.0568047,0.33413,
2,0,0,1,0,17268.1,0.315368,0.315061,-0.193796,25,1.14157,10,-6.10574e-05,-3.71266,-0.741796,-0.0795367,0.315146,
2,0,0,1,0,17271.9,0.296391,0.296048,-0.206196,25,1.14075,10,-6.10438e-05,-3.68572,-0.779481,-0.0756914,0.296139,
2,0,0,1,0,17275.7,0.277414,0.277094,-0.217771,25,1.13989,10,-6.0343e-05,-3.662,-0.846194,-0.0697239,0.27719,
2,0,0,1,0,17279.5,0.258437,0.258168,-0.231136,25,1.13897,10,-5.96719e-05,-3.63613,-0.687244,-0.0858501,0.25827,
2,0,0,1,0,17283.3,0.239461,0.239162,-0.242977,25,1.13801,10,-5.81107e-05,-3.61444,-1.33567,-0.0441724,0.239269,
2,0,0,1,0,17287.1,0.220483,0.220202,-0.255194,25,1.137,10,-5.61942e-05,-3.59313,-0.513173,-0.114971,0.220314,
2,0,0,0,0,17290.9,0.201506,0.201154,-0.270413,25,1.13594,10,-5.43947e-05,-3.56797,-0.5123,-0.115167,0.201273,
2,0,0,1,0,17294.7,0.182529,0.182215,-0.292026,25,1.13482,10,-5.32116e-05,-3.53458,-0.406476,-0.14515,0.182344,
2,0,0,0,0,17298.4,0.163552,0.163248,-0.334614,25,1.13358,10,-5.4625e-05,-3.47546,-0.22044,-0.267646,0.163395,
2,0,0,1,0,17302.2,0.144575,0.144264,-0.46721,25,1.13204,10,-6.74018e-05,-3.33049,-0.0845028,-0.698202,0.14447,
2,0,0,0,0,17306,0.125598,0.125297,-0.71517,25,1.12969,10,-8.96085e-05,-3.14559,-0.22673,-0.260221,0.125611,
2,0,0,1,0,17309.8,0.10662,0.106337,-0.729162,25,1.12682,10,-7.75372e-05,-3.13718,0.698466,0.0844708,0.106658,
2,0,0,1,0,17313.6,0.0876433,0.0873169,-0.671002,25,1.1241,10,-5.85898e-05,-3.17328,0.554847,0.106336,0.0876122,
2,0,0,1,0,17317.4,0.0686664,0.0683551,-0.625093,25,1.12158,10,-4.27282e-05,-3.20406,0.944149,0.0624901,0.0686301,
2,0,0,1,0,17321.2,0.0496895,0.0493866,-0.581243,25,1.11921,10,-2.87057e-05,-3.23564,0.55421,0.106458,0.0496424,
2,0,0,1,0,17325,0.0307126,0.030431,-0.531929,25,1.11702,10,-1.61871e-05,-3.27415,0.50317,0.117257,0.030665,
2,0,0,1,0,17328.8,0.0117356,0.0114106,-0.496172,25,1.11501,10,-5.66161e-06,-3.30437,1.00888,0.0584807,0.0116289,
2,0,0,1,0,17331.1,0.000274105,-8.07672e-05,-0.495097,25,1.11383,10,3.99876e-08,-3.30531, , ,0.000137075,