File: Figure_codes/Fig_3-5/workspace_calculate_alpha_eff/20221101_1-115_003_TrumpetPlot_ParaChange_from10_every3_16_CV_C01_21.csv
mode,ox/red,error,control changes,counter inc.,time/s,control/V,Ewe/V,<I>/mA,cycle number,(Q-Qo)/C,I Range,P/W,log(|I|),Tafel slope mV/dec,alpha_eff,E-IR/V,
2,0,0,1,0,15021,2.44065e-05,-0.000229887,-0.0427872,22,0.0000000E+000,10,9.83622e-09,-4.36869, , ,-0.000211061,
2,1,0,1,0,15024.8,0.0187763,0.0184454,0.276246,22,0.000944282,10,5.09548e-06,-3.5587,0.16853,0.350085,0.0183239,
2,1,0,0,0,15028.6,0.0377538,0.0374145,0.342658,22,0.00219386,10,1.28204e-05,-3.46514,0.22289,0.264705,0.0372638,
2,1,0,1,0,15032.4,0.0567309,0.0563789,0.404449,22,0.00369563,10,2.28024e-05,-3.39314,0.317497,0.185828,0.0562009,
2,1,0,0,0,15036.2,0.075708,0.0753591,0.4518,22,0.00540598,10,3.40472e-05,-3.34505,0.574904,0.102626,0.0751603,
2,1,0,1,0,15040,0.0946851,0.0943796,0.512139,22,0.00729133,10,4.83354e-05,-3.29061,0.247755,0.238138,0.0941542,
2,1,0,0,0,15043.8,0.113662,0.113356,0.616071,22,0.00950743,10,6.98351e-05,-3.21037,0.350867,0.168155,0.113084,
2,1,0,1,0,15047.6,0.132639,0.13232,0.678,22,0.0120473,10,8.97129e-05,-3.16877,-2.42972,-0.0242826,0.132022,
2,1,0,1,0,15051.3,0.151617,0.151278,0.459269,22,0.0143656,10,6.94773e-05,-3.33793,-0.0799447,-0.73801,0.151076,
2,1,0,1,0,15055.1,0.170594,0.170298,0.334348,22,0.0158793,10,5.69389e-05,-3.4758,-0.25711,-0.229474,0.170151,
2,1,0,1,0,15058.9,0.189571,0.189265,0.307358,22,0.0171556,10,5.81721e-05,-3.51235,-0.975402,-0.0604879,0.18913,
2,1,0,1,0,15062.7,0.208547,0.208264,0.295217,22,0.0183631,10,6.14829e-05,-3.52986,-0.791185,-0.0745717,0.208134,
2,1,0,1,0,15066.5,0.227524,0.227208,0.28748,22,0.0195314,10,6.53178e-05,-3.54139,-1.36052,-0.0433658,0.227082,
2,1,0,1,0,15070.3,0.246501,0.246193,0.279392,22,0.0206716,10,6.87845e-05,-3.55379,-0.991852,-0.0594847,0.24607,
2,1,0,1,0,15074.1,0.265479,0.265186,0.274409,22,0.0217905,10,7.27692e-05,-3.5616,-0.96694,-0.0610172,0.265065,
2,1,0,0,0,15077.9,0.284456,0.284178,0.270612,22,0.0228918,10,7.69017e-05,-3.56765,-1.67427,-0.0352393,0.284058,
2,1,0,1,0,15081.7,0.303433,0.303127,0.267308,22,0.0239757,10,8.10282e-05,-3.57299,-7.71873,-0.00764375,0.303009,
2,1,0,0,0,15085.5,0.32241,0.322134,0.263184,22,0.0250448,10,8.47804e-05,-3.57974,-2.54764,-0.0231587,0.322018,
2,1,0,1,0,15089.3,0.341387,0.341057,0.259856,22,0.0260996,10,8.86258e-05,-3.58527,-1.48775,-0.0396573,0.340942,
2,1,0,0,0,15093.1,0.360364,0.360068,0.258049,22,0.0271423,10,9.29149e-05,-3.5883,-32.4778,-0.00181662,0.359954,
2,1,0,1,0,15096.9,0.379342,0.379079,0.254958,22,0.0281739,10,9.66492e-05,-3.59353,-2.79773,-0.0210885,0.378967,
2,1,0,1,0,15100.7,0.398319,0.397991,0.252301,22,0.0291948,10,0.000100414,-3.59808,-2.56713,-0.0229829,0.39788,
2,1,0,1,0,15104.5,0.417295,0.416973,0.250976,22,0.0302092,10,0.00010465,-3.60037,-4.4611,-0.0132254,0.416863,
2,1,0,1,0,15108.3,0.436272,0.435972,0.251079,22,0.0312199,10,0.000109463,-3.60019,1.8939,0.0311526,0.435861,
2,1,0,1,0,15112.1,0.455249,0.45499,0.250839,22,0.0322278,10,0.000114129,-3.60061,2.5396,0.023232,0.454879,
2,1,0,1,0,15115.9,0.474226,0.473933,0.251108,22,0.033236,10,0.000119008,-3.60014,1.69123,0.0348859,0.473822,
2,1,0,1,0,15119.7,0.493203,0.492909,0.254417,22,0.0342494,10,0.000125405,-3.59445,1.04533,0.0564417,0.492798,
2,1,0,1,0,15123.5,0.512181,0.511847,0.258668,22,0.0352761,10,0.000132399,-3.58726,1.24568,0.0473635,0.511733,
2,1,0,0,0,15127.3,0.531158,0.530846,0.265233,22,0.036322,10,0.000140798,-3.57637,1.70961,0.0345109,0.530729,
2,1,0,1,0,15131.1,0.550135,0.549862,0.274451,22,0.0373976,10,0.00015091,-3.56153,0.88138,0.0669405,0.549742,
2,1,0,0,0,15134.8,0.569112,0.568801,0.291789,22,0.0385225,10,0.00016597,-3.53493,0.576853,0.102279,0.568673,
2,1,0,1,0,15138.6,0.588089,0.587791,0.319134,22,0.0397267,10,0.000187584,-3.49603,0.394055,0.149725,0.587651,
2,1,0,0,0,15142.4,0.607066,0.606783,0.367318,22,0.0410688,10,0.000222882,-3.43496,0.23745,0.248474,0.606621,
2,1,0,1,0,15146.2,0.626044,0.625763,0.464648,22,0.0426792,10,0.00029076,-3.33288,0.141588,0.416701,0.625559,
2,1,0,1,0,15150,0.64502,0.644777,0.673416,22,0.0448413,10,0.000434204,-3.17172,0.0999648,0.590208,0.644481,
2,1,0,1,0,15153.8,0.663997,0.663724,1.12175,22,0.0481982,10,0.000744534,-2.9501,0.0763612,0.772644,0.66323,
2,1,0,1,0,15157.6,0.682974,0.68268,2.00639,22,0.0540424,10,0.00136973,-2.69758,0.0749966,0.786702,0.681798,
2,1,0,1,0,15161.4,0.701951,0.701668,3.56695,22,0.0644521,10,0.00250282,-2.4477,0.077512,0.761172,0.700098,
2,1,0,1,0,15165.2,0.720928,0.720673,5.86772,22,0.0821752,10,0.00422871,-2.23153,0.0901108,0.65475,0.718092,
2,1,0,1,0,15169,0.739905,0.739643,8.86132,22,0.109969,10,0.00655421,-2.0525,0.107626,0.548193,0.735744,
2,1,0,1,0,15172.8,0.758883,0.758565,12.5096,22,0.15035,10,0.00948934,-1.90276,0.123635,0.477212,0.753061,
2,1,0,0,0,15176.6,0.77786,0.777584,17.1679,22,0.206321,10,0.0133495,-1.76528,0.124096,0.47544,0.77003,
2,1,0,1,0,15180.4,0.796837,0.796561,23.0933,22,0.282421,10,0.0183952,-1.63651,0.135057,0.436853,0.786399,
2,1,0,0,0,15184.2,0.815814,0.81555,30.1867,22,0.383021,10,0.0246188,-1.52018,0.127157,0.463994,0.802268,
2,1,0,1,0,15188,0.834791,0.834608,37.66,22,0.511834,10,0.0314314,-1.42412,0.177362,0.332654,0.818038,
2,1,0,1,0,15191.7,0.846727,0.846522,41.3091,22,0.66296,10,0.0349691,-1.38395,0.143371,0.411518,0.828346,
2,1,0,1,0,15195.5,0.827749,0.827499,32.8663,22,0.803134,10,0.0271968,-1.48325,0.151755,0.388784,0.813037,
2,1,0,1,0,15199.3,0.808772,0.808521,25.3844,22,0.913419,10,0.0205238,-1.59543,0.130212,0.453108,0.797352,
2,1,0,1,0,15203.1,0.789795,0.789484,18.7743,22,0.996792,10,0.014822,-1.72644,0.117143,0.503656,0.781224,
2,1,0,1,0,15206.9,0.770818,0.770538,13.3,22,1.05723,10,0.0102482,-1.87615,0.104925,0.562304,0.764686,
2,1,0,1,0,15210.7,0.751841,0.75157,9.01027,22,1.09917,10,0.00677185,-2.04526,0.09512,0.620269,0.747605,
2,1,0,1,0,15214.5,0.732865,0.732618,5.759,22,1.12683,10,0.00421914,-2.23965,0.0838661,0.703502,0.730084,
2,1,0,1,0,15218.2,0.713887,0.713616,3.39907,22,1.1439,10,0.00242563,-2.46864,0.074226,0.79487,0.71212,
2,1,0,0,0,15222,0.69491,0.694651,1.82956,22,1.15355,10,0.00127091,-2.73765,0.0619416,0.95251,0.693846,
2,1,0,1,0,15225.8,0.675933,0.675656,0.868723,22,1.15845,10,0.000586958,-3.06112,0.0530542,1.11207,0.675274,
2,1,0,0,0,15229.6,0.656956,0.656678,0.350216,22,1.16061,10,0.000229979,-3.45566,0.0424949,1.3884,0.656524,
2,1,0,1,0,15233.4,0.637979,0.637705,0.105971,22,1.16136,10,6.75781e-05,-3.97481,0.0279102,2.11393,0.637659,
2,0,0,0,0,15237.2,0.619002,0.618709,-0.00470185,22,1.16148,10,-2.90908e-06,-5.32773,-0.0061724,-9.55868,0.618711,
2,0,0,1,0,15241,0.600025,0.599734,-0.0515086,22,1.16131,10,-3.08915e-05,-4.28812,-0.0773797,-0.762474,0.599757,
2,0,0,1,0,15244.8,0.581047,0.58078,-0.07343,22,1.16101,10,-4.26467e-05,-4.13413,-0.193959,-0.304188,0.580813,
2,0,0,1,0,15248.6,0.56207,0.561785,-0.0856782,22,1.16066,10,-4.81327e-05,-4.06713,-0.55222,-0.106841,0.561823,
2,0,0,1,0,15252.4,0.543093,0.542788,-0.0917046,22,1.16027,10,-4.97762e-05,-4.03761,-0.42759,-0.137983,0.542829,
2,0,0,1,0,15256.2,0.524116,0.523831,-0.0976254,22,1.15986,10,-5.11391e-05,-4.01044,-0.700017,-0.0842837,0.523873,
2,0,0,1,0,15260,0.505139,0.504812,-0.103043,22,1.15943,10,-5.20172e-05,-3.98698,-0.91276,-0.0646391,0.504858,
2,0,0,1,0,15263.8,0.486162,0.485858,-0.109231,22,1.15897,10,-5.30707e-05,-3.96165,-0.873833,-0.0675186,0.485906,
2,0,0,1,0,15267.6,0.467185,0.466841,-0.114586,22,1.1585,10,-5.34935e-05,-3.94087,-0.568773,-0.103732,0.466892,
2,0,0,0,0,15271.4,0.448208,0.447892,-0.121763,22,1.15799,10,-5.45365e-05,-3.91449,-1.5885,-0.0371419,0.447945,
2,0,0,1,0,15275.2,0.429231,0.428913,-0.129396,22,1.15746,10,-5.54999e-05,-3.88808,-1.2187,-0.0484122,0.42897,
2,0,0,0,0,15279,0.410254,0.409931,-0.139192,22,1.15689,10,-5.7059e-05,-3.85639,-0.781592,-0.0754869,0.409992,
2,0,0,1,0,15282.8,0.391277,0.390981,-0.149979,22,1.15629,10,-5.8639e-05,-3.82397,-0.620526,-0.0950806,0.391047,
2,0,0,0,0,15286.6,0.3723,0.371991,-0.160067,22,1.15565,10,-5.95436e-05,-3.7957,-0.653095,-0.0903391,0.372061,
2,0,0,1,0,15290.4,0.353322,0.353017,-0.169742,22,1.15496,10,-5.99218e-05,-3.77021,-0.519655,-0.113537,0.353092,
2,0,0,1,0,15294.2,0.334345,0.334021,-0.181214,22,1.15423,10,-6.05294e-05,-3.74181,-0.599839,-0.0983596,0.334101,
2,0,0,1,0,15298,0.315368,0.315015,-0.193322,22,1.15346,10,-6.08994e-05,-3.71372,-0.700224,-0.0842587,0.3151,
2,0,0,1,0,15301.7,0.296391,0.296113,-0.205542,22,1.15264,10,-6.08637e-05,-3.6871,-0.47077,-0.125326,0.296204,
2,0,0,1,0,15305.5,0.277414,0.277088,-0.217757,22,1.15177,10,-6.03378e-05,-3.66203,-0.68085,-0.0866564,0.277184,
2,0,0,1,0,15309.3,0.258437,0.258127,-0.230997,22,1.15086,10,-5.96266e-05,-3.63639,-0.935789,-0.0630484,0.258228,
2,0,0,1,0,15313.1,0.239461,0.239105,-0.243069,22,1.14989,10,-5.8119e-05,-3.61427,-0.628008,-0.0939479,0.239212,
2,0,0,1,0,15316.9,0.220483,0.220199,-0.25546,22,1.14888,10,-5.62521e-05,-3.59268,-0.481234,-0.122602,0.220311,
2,0,0,0,0,15320.7,0.201506,0.201187,-0.270924,22,1.14782,10,-5.45063e-05,-3.56715,-0.498687,-0.118311,0.201306,
2,0,0,1,0,15324.5,0.182529,0.182184,-0.293379,22,1.14669,10,-5.34492e-05,-3.53257,-0.353833,-0.166745,0.182314,
2,0,0,0,0,15328.3,0.163552,0.163205,-0.339069,22,1.14544,10,-5.53379e-05,-3.46971,-0.211676,-0.278728,0.163354,
2,0,0,1,0,15332.1,0.144575,0.144277,-0.481188,22,1.14387,10,-6.94244e-05,-3.31768,-0.0800521,-0.73702,0.144489,
2,0,0,0,0,15335.9,0.125598,0.125337,-0.730383,22,1.14146,10,-9.15441e-05,-3.13645,-0.241764,-0.244039,0.125658,
2,0,0,1,0,15339.7,0.10662,0.106296,-0.735942,22,1.13855,10,-7.82277e-05,-3.13316,0.582541,0.10128,0.10662,
2,0,0,1,0,15343.5,0.0876433,0.0873519,-0.673955,22,1.13581,10,-5.88713e-05,-3.17137,0.531451,0.111017,0.0876485,
2,0,0,1,0,15347.3,0.0686664,0.0683561,-0.626086,22,1.13328,10,-4.27968e-05,-3.20337,0.775604,0.0760698,0.0686316,
2,0,0,1,0,15351.1,0.0496895,0.0493665,-0.581022,22,1.13091,10,-2.86831e-05,-3.23581,0.612924,0.0962599,0.0496222,
2,0,0,1,0,15354.9,0.0307126,0.0303822,-0.530766,22,1.12873,10,-1.61258e-05,-3.2751,0.490092,0.120386,0.0306157,
2,0,0,1,0,15358.7,0.0117356,0.0114423,-0.495889,22,1.12672,10,-5.67413e-06,-3.30462,1.73619,0.0339825,0.0116605,
2,0,0,1,0,15361,0.000274105,-9.62757e-05,-0.494769,22,1.12554,10,4.76342e-08,-3.3056, , ,0.000121423,