File: Figure_codes/Fig_3-5/workspace_calculate_alpha_eff/20221101_1-115_003_TrumpetPlot_ParaChange_from10_every3_16_CV_C01_81.csv
mode,ox/red,error,control changes,counter inc.,time/s,control/V,Ewe/V,<I>/mA,cycle number,(Q-Qo)/C,I Range,P/W,log(|I|),Tafel slope mV/dec,alpha_eff,E-IR/V,
2,0,0,1,0,54423.6,2.44065e-05,-0.000344411,-0.0453313,82,0.0000000E+000,10,1.56126e-08,-4.3436, , ,-0.000324465,
2,1,0,1,0,54427.4,0.0187763,0.0184232,0.25993,82,0.000872442,10,4.78874e-06,-3.58514,0.178728,0.33011,0.0183088,
2,1,0,0,0,54431.2,0.0377538,0.037352,0.32327,82,0.00203879,10,1.20748e-05,-3.49043,0.225595,0.261531,0.0372097,
2,1,0,1,0,54435,0.0567309,0.0563873,0.379291,82,0.00343744,10,2.13872e-05,-3.42103,0.360189,0.163803,0.0562204,
2,1,0,0,0,54438.8,0.075708,0.0753421,0.421837,82,0.00502436,10,3.17821e-05,-3.37486,0.498295,0.118404,0.0751565,
2,1,0,1,0,54442.6,0.094685,0.0943266,0.470798,82,0.00676077,10,4.44088e-05,-3.32717,0.271062,0.217662,0.0941194,
2,1,0,0,0,54446.4,0.113662,0.113291,0.562555,82,0.0087835,10,6.37323e-05,-3.24984,0.380108,0.155219,0.113043,
2,1,0,1,0,54450.2,0.132639,0.132286,0.592294,82,0.0110562,10,7.83522e-05,-3.22746,-0.509573,-0.115783,0.132025,
2,1,0,1,0,54454,0.151617,0.151268,0.396384,82,0.0130449,10,5.996e-05,-3.40188,-0.091392,-0.64557,0.151093,
2,1,0,1,0,54457.8,0.170594,0.170262,0.312662,82,0.0143943,10,5.32342e-05,-3.50493,-0.417184,-0.141424,0.170124,
2,1,0,1,0,54461.5,0.189571,0.189222,0.296751,82,0.0155961,10,5.61518e-05,-3.52761,-1.18636,-0.0497318,0.189091,
2,1,0,1,0,54465.3,0.208547,0.20821,0.289766,82,0.0167581,10,6.03322e-05,-3.53795,-3.57224,-0.0165162,0.208082,
2,1,0,1,0,54469.1,0.227524,0.227189,0.284131,82,0.0178991,10,6.45514e-05,-3.54648,-1.49975,-0.03934,0.227064,
2,1,0,1,0,54472.9,0.246501,0.246186,0.281388,82,0.0190246,10,6.92738e-05,-3.55069,-1.31306,-0.0449332,0.246062,
2,1,0,1,0,54476.7,0.265479,0.265164,0.278313,82,0.0201364,10,7.37987e-05,-3.55547,-3.68016,-0.0160319,0.265042,
2,1,0,0,0,54480.5,0.284456,0.284116,0.274385,82,0.0212333,10,7.79572e-05,-3.56164,-3.00563,-0.0196298,0.283995,
2,1,0,1,0,54484.3,0.303433,0.303092,0.269711,82,0.0223141,10,8.17471e-05,-3.5691,-10.8874,-0.00541912,0.302973,
2,1,0,0,0,54488.1,0.32241,0.322081,0.267059,82,0.0233799,10,8.60145e-05,-3.57339,-24.5886,-0.00239949,0.321963,
2,1,0,1,0,54491.9,0.341387,0.341068,0.264543,82,0.0244335,10,9.02271e-05,-3.5775,4.62516,0.0127563,0.340952,
2,1,0,0,0,54495.7,0.360364,0.360019,0.261885,82,0.0254759,10,9.42836e-05,-3.58189,-2.50506,-0.0235523,0.359904,
2,1,0,1,0,54499.5,0.379342,0.379043,0.26018,82,0.0265067,10,9.86193e-05,-3.58473,-5.12762,-0.0115063,0.378929,
2,1,0,1,0,54503.3,0.398319,0.397965,0.258288,82,0.027529,10,0.000102789,-3.5879,11.0737,0.00532796,0.397851,
2,1,0,1,0,54507.1,0.417295,0.417001,0.25649,82,0.0285452,10,0.000106956,-3.59093,-175.4,-0.000336374,0.416888,
2,1,0,1,0,54510.9,0.436272,0.435957,0.255289,82,0.029553,10,0.000111295,-3.59297,15.1037,0.00390633,0.435844,
2,1,0,1,0,54514.7,0.455249,0.454911,0.254861,82,0.0305562,10,0.000115939,-3.5937,-60.854,-0.000969534,0.454799,
2,1,0,1,0,54518.5,0.474226,0.473896,0.255351,82,0.0315592,10,0.00012101,-3.59286,1.51227,0.0390143,0.473783,
2,1,0,1,0,54522.3,0.493203,0.492861,0.256797,82,0.0325661,10,0.000126565,-3.59041,3.17692,0.0185714,0.492748,
2,1,0,1,0,54526.1,0.512181,0.511901,0.260706,82,0.0335816,10,0.000133456,-3.58385,2.34663,0.0251424,0.511786,
2,1,0,0,0,54529.9,0.531158,0.530846,0.265719,82,0.0346127,10,0.000141056,-3.57558,2.79653,0.0210976,0.530729,
2,1,0,1,0,54533.7,0.550135,0.549809,0.274099,82,0.0356676,10,0.000150702,-3.56209,1.56631,0.0376682,0.549689,
2,1,0,0,0,54537.5,0.569112,0.568806,0.285732,82,0.0367588,10,0.000162526,-3.54404,1.2204,0.0483448,0.568681,
2,1,0,1,0,54541.3,0.588089,0.587782,0.303239,82,0.0379031,10,0.000178239,-3.51821,0.578013,0.102074,0.587649,
2,1,0,0,0,54545,0.607066,0.606789,0.332877,82,0.0391363,10,0.000201986,-3.47772,0.394168,0.149682,0.606643,
2,1,0,1,0,54548.8,0.626044,0.625755,0.389832,82,0.0405275,10,0.000243939,-3.40912,0.213664,0.276135,0.625583,
2,1,0,1,0,54552.6,0.64502,0.644738,0.503744,82,0.0422293,10,0.000324783,-3.29779,0.13597,0.433918,0.644517,
2,1,0,1,0,54556.4,0.663997,0.663701,0.732638,82,0.0445547,10,0.000486253,-3.13511,0.100059,0.589652,0.663379,
2,1,0,1,0,54560.2,0.682974,0.682698,1.17985,82,0.0481308,10,0.000805483,-2.92817,0.0859359,0.686559,0.682179,
2,1,0,1,0,54564,0.701951,0.701614,1.94557,82,0.0539771,10,0.00136504,-2.71095,0.087332,0.675583,0.700758,
2,1,0,1,0,54567.8,0.720928,0.720598,3.09235,82,0.0634427,10,0.00222834,-2.50971,0.0978389,0.603032,0.719238,
2,1,0,1,0,54571.6,0.739905,0.739633,4.65235,82,0.0780326,10,0.00344103,-2.33233,0.108209,0.545241,0.737586,
2,1,0,1,0,54575.4,0.758883,0.758595,6.68539,82,0.099414,10,0.0050715,-2.17487,0.119834,0.492346,0.755653,
2,1,0,0,0,54579.2,0.77786,0.777535,9.30916,82,0.129587,10,0.00723819,-2.03109,0.126563,0.46617,0.773439,
2,1,0,1,0,54583,0.796837,0.796562,12.7762,82,0.171204,10,0.010177,-1.8936,0.122876,0.480159,0.79094,
2,1,0,0,0,54586.8,0.815814,0.815543,17.3812,82,0.228103,10,0.0141751,-1.75992,0.124766,0.472884,0.807895,
2,1,0,1,0,54590.6,0.834791,0.834531,23.1127,82,0.304689,10,0.0192883,-1.63615,0.140806,0.419015,0.824361,
2,1,0,1,0,54594.3,0.846726,0.846462,26.4065,82,0.400395,10,0.0223521,-1.57829,0.103253,0.57141,0.834843,
2,1,0,1,0,54598.1,0.827749,0.827491,19.1027,82,0.485716,10,0.0158073,-1.71891,0.120918,0.487934,0.819086,
2,1,0,1,0,54601.9,0.808772,0.80849,13.8496,82,0.547739,10,0.0111972,-1.85856,0.11854,0.497724,0.802396,
2,1,0,1,0,54605.7,0.789795,0.789522,9.85,82,0.592327,10,0.00777679,-2.00656,0.111956,0.526994,0.785188,
2,1,0,1,0,54609.5,0.770818,0.770549,6.89258,82,0.623777,10,0.00531107,-2.16162,0.111136,0.530883,0.767516,
2,1,0,1,0,54613.3,0.751841,0.75154,4.69793,82,0.645521,10,0.00353068,-2.32809,0.106552,0.553718,0.749473,
2,1,0,1,0,54617.1,0.732865,0.732591,3.07059,82,0.660078,10,0.00224948,-2.51278,0.09435,0.625331,0.73124,
2,1,0,1,0,54620.9,0.713887,0.713593,1.87819,82,0.669316,10,0.00134026,-2.72626,0.0788882,0.747894,0.712767,
2,1,0,0,0,54624.7,0.69491,0.694633,1.03677,82,0.674713,10,0.000720173,-2.98432,0.0651509,0.90559,0.694177,
2,1,0,1,0,54628.4,0.675933,0.675607,0.493787,82,0.677499,10,0.000333606,-3.30646,0.0510293,1.1562,0.67539,
2,1,0,0,0,54632.2,0.656956,0.656655,0.185588,82,0.678693,10,0.000121867,-3.73145,0.036797,1.60339,0.656573,
2,1,0,1,0,54636,0.637979,0.637662,0.030698,82,0.679034,10,1.9575e-05,-4.51289,0.0129796,4.54561,0.637648,
2,0,0,0,0,54639.8,0.619002,0.618716,-0.0377313,82,0.678971,10,-2.3345e-05,-4.4233,-0.035291,-1.67182,0.618732,
2,0,0,1,0,54643.6,0.600024,0.59973,-0.0670079,82,0.678732,10,-4.01867e-05,-4.17387,-0.183378,-0.32174,0.59976,
2,0,0,1,0,54647.4,0.581047,0.580721,-0.0825118,82,0.678412,10,-4.79163e-05,-4.08348,-0.51647,-0.114237,0.580757,
2,0,0,1,0,54651.2,0.56207,0.561714,-0.0916343,82,0.678049,10,-5.14723e-05,-4.03794,-1.51685,-0.0388965,0.561755,
2,0,0,1,0,54655,0.543093,0.542778,-0.0963463,82,0.67766,10,-5.22946e-05,-4.01616,2.09968,0.0280996,0.54282,
2,0,0,1,0,54658.8,0.524116,0.523788,-0.102012,82,0.677252,10,-5.34325e-05,-3.99135,-0.609438,-0.0968105,0.523833,
2,0,0,1,0,54662.6,0.505139,0.504795,-0.107008,82,0.676824,10,-5.40169e-05,-3.97059,-0.772605,-0.0763651,0.504842,
2,0,0,1,0,54666.4,0.486162,0.485885,-0.112005,82,0.676374,10,-5.44217e-05,-3.95076,-1.25227,-0.0471144,0.485934,
2,0,0,1,0,54670.2,0.467185,0.466873,-0.11961,82,0.6759,10,-5.58426e-05,-3.92223,-1.26842,-0.0465146,0.466926,
2,0,0,0,0,54674,0.448208,0.447906,-0.12653,82,0.675398,10,-5.66736e-05,-3.89781,-0.647435,-0.0911289,0.447962,
2,0,0,1,0,54677.8,0.429231,0.428896,-0.134753,82,0.674866,10,-5.7795e-05,-3.87046,-1.48685,-0.0396812,0.428956,
2,0,0,0,0,54681.6,0.410254,0.409896,-0.144352,82,0.6743,10,-5.91693e-05,-3.84058,-0.938605,-0.0628592,0.40996,
2,0,0,1,0,54685.4,0.391277,0.390915,-0.154269,82,0.673698,10,-6.03062e-05,-3.81172,-0.619996,-0.0951619,0.390983,
2,0,0,0,0,54689.2,0.3723,0.371946,-0.16324,82,0.673057,10,-6.07166e-05,-3.78717,-0.687857,-0.0857736,0.372018,
2,0,0,1,0,54693,0.353322,0.352976,-0.172733,82,0.672377,10,-6.09706e-05,-3.76263,-1.02615,-0.0574967,0.353052,
2,0,0,1,0,54696.8,0.334345,0.333995,-0.184573,82,0.671655,10,-6.16466e-05,-3.73383,-0.859741,-0.0686253,0.334076,
2,0,0,1,0,54700.6,0.315368,0.315041,-0.195721,82,0.670888,10,-6.166e-05,-3.70836,-0.80878,-0.0729494,0.315127,
2,0,0,1,0,54704.4,0.296391,0.296046,-0.207897,82,0.670076,10,-6.15469e-05,-3.68215,-0.710938,-0.082989,0.296137,
2,0,0,1,0,54708.2,0.277414,0.277092,-0.219366,82,0.669217,10,-6.07845e-05,-3.65883,-0.846021,-0.0697383,0.277188,
2,0,0,1,0,54711.9,0.258437,0.258161,-0.232183,82,0.668309,10,-5.99405e-05,-3.63417,-0.844786,-0.0698402,0.258263,
2,0,0,1,0,54715.7,0.239461,0.239094,-0.24544,82,0.667352,10,-5.86831e-05,-3.61005,-0.785381,-0.0751228,0.239202,
2,0,0,1,0,54719.5,0.220483,0.220128,-0.256067,82,0.666352,10,-5.63675e-05,-3.59165,-0.632116,-0.0933372,0.220241,
2,0,0,0,0,54723.3,0.201506,0.201174,-0.269871,82,0.665305,10,-5.42911e-05,-3.56884,-0.561613,-0.105055,0.201293,
2,0,0,1,0,54727.1,0.182529,0.182184,-0.288385,82,0.664199,10,-5.25393e-05,-3.54003,-0.455307,-0.129583,0.182311,
2,0,0,0,0,54730.9,0.163552,0.163177,-0.31712,82,0.663006,10,-5.17466e-05,-3.49878,-0.348148,-0.169468,0.163316,
2,0,0,1,0,54734.7,0.144575,0.144208,-0.400325,82,0.661624,10,-5.77302e-05,-3.39759,-0.121983,-0.483673,0.144384,
2,0,0,0,0,54738.5,0.125598,0.125217,-0.595353,82,0.659691,10,-7.45485e-05,-3.22523,-0.141006,-0.418422,0.125479,
2,0,0,1,0,54742.3,0.10662,0.106258,-0.663387,82,0.657186,10,-7.04903e-05,-3.17823,-10.1367,-0.00582043,0.10655,
2,0,0,1,0,54746.1,0.0876433,0.0873425,-0.642386,82,0.65464,10,-5.61076e-05,-3.1922,0.939134,0.0628238,0.0876252,
2,0,0,1,0,54749.9,0.0686664,0.0682968,-0.606677,82,0.652211,10,-4.14341e-05,-3.21704,0.660816,0.0892836,0.0685637,
2,0,0,1,0,54753.7,0.0496895,0.0493455,-0.565268,82,0.649923,10,-2.78934e-05,-3.24775,0.619249,0.0952766,0.0495942,
2,0,0,1,0,54757.5,0.0307126,0.030363,-0.521158,82,0.6478,10,-1.58239e-05,-3.28303,0.541494,0.108958,0.0305923,
2,0,0,1,0,54761.3,0.0117356,0.011402,-0.491749,82,0.645827,10,-5.60692e-06,-3.30826,1.28375,0.0459591,0.0116184,
2,0,0,1,0,54763.6,0.000274105,-0.000101048,-0.491887,82,0.644667,10,4.9704e-08,-3.30813, , ,0.000115383,