File: Figure_codes/Fig_3-5/workspace_calculate_alpha_eff/20221101_1-115_003_TrumpetPlot_ParaChange_from10_every3_16_CV_C01_60.csv
mode,ox/red,error,control changes,counter inc.,time/s,control/V,Ewe/V,<I>/mA,cycle number,(Q-Qo)/C,I Range,P/W,log(|I|),Tafel slope mV/dec,alpha_eff,E-IR/V,
2,0,0,1,0,40632.7,2.44065e-05,-0.000401673,-0.0408791,61,0.0000000E+000,10,1.642e-08,-4.3885, , ,-0.000383686,
2,1,0,1,0,40636.5,0.0187763,0.0184563,0.266818,61,0.000887761,10,4.92447e-06,-3.57378,0.179,0.32961,0.0183389,
2,1,0,0,0,40640.3,0.0377538,0.0374209,0.330896,61,0.00207679,10,1.23824e-05,-3.48031,0.243465,0.242335,0.0372753,
2,1,0,1,0,40644.1,0.0567309,0.0563735,0.389052,61,0.00350549,10,2.19322e-05,-3.40999,0.349177,0.168969,0.0562024,
2,1,0,0,0,40647.9,0.075708,0.0753824,0.433536,61,0.00513227,10,3.2681e-05,-3.36297,0.586528,0.100592,0.0751916,
2,1,0,1,0,40651.7,0.094685,0.0943711,0.484807,61,0.0069123,10,4.57518e-05,-3.31443,0.258204,0.228502,0.0941578,
2,1,0,0,0,40655.5,0.113662,0.113324,0.578881,61,0.0089869,10,6.56009e-05,-3.23741,0.343785,0.171619,0.113069,
2,1,0,1,0,40659.2,0.132639,0.132273,0.620332,61,0.0113362,10,8.20533e-05,-3.20738,-0.668474,-0.0882607,0.132,
2,1,0,1,0,40663,0.151617,0.151302,0.420408,61,0.0134328,10,6.36088e-05,-3.37633,-0.0830034,-0.710814,0.151117,
2,1,0,1,0,40666.8,0.170594,0.170275,0.323405,61,0.0148362,10,5.50678e-05,-3.49025,-0.366046,-0.161182,0.170133,
2,1,0,1,0,40670.6,0.189571,0.189276,0.303425,61,0.016066,10,5.74309e-05,-3.51795,-0.745257,-0.0791673,0.189142,
2,1,0,1,0,40674.4,0.208547,0.208233,0.294907,61,0.0172466,10,6.14094e-05,-3.53032,-1.49778,-0.0393917,0.208103,
2,1,0,1,0,40678.2,0.227524,0.227162,0.288498,61,0.0184001,10,6.55359e-05,-3.53986,-0.888589,-0.0663974,0.227035,
2,1,0,1,0,40682,0.246501,0.246165,0.285602,61,0.0195346,10,7.03052e-05,-3.54424,-0.988082,-0.0597117,0.246039,
2,1,0,1,0,40685.8,0.265479,0.265154,0.280626,61,0.020654,10,7.44091e-05,-3.55187,-1.27003,-0.0464554,0.26503,
2,1,0,0,0,40689.6,0.284456,0.284147,0.276311,61,0.0217569,10,7.85128e-05,-3.5586,-2.30342,-0.025614,0.284025,
2,1,0,1,0,40693.4,0.303433,0.303123,0.271785,61,0.0228448,10,8.23842e-05,-3.56577,-10.9477,-0.00538927,0.303003,
2,1,0,0,0,40697.2,0.32241,0.322103,0.267941,61,0.023916,10,8.63045e-05,-3.57196,-10.8778,-0.00542391,0.321985,
2,1,0,1,0,40701,0.341387,0.341074,0.265787,61,0.0249736,10,9.06529e-05,-3.57547,-4.13903,-0.0142546,0.340957,
2,1,0,0,0,40704.8,0.360364,0.360048,0.263106,61,0.0260191,10,9.47309e-05,-3.57987,-2.71452,-0.021735,0.359933,
2,1,0,1,0,40708.6,0.379342,0.379065,0.260354,61,0.0270538,10,9.86913e-05,-3.58444,-36.3071,-0.00162503,0.378951,
2,1,0,1,0,40712.4,0.398319,0.397973,0.258259,61,0.0280807,10,0.00010278,-3.58795,-24.681,-0.0023905,0.39786,
2,1,0,1,0,40716.2,0.417295,0.417007,0.257263,61,0.0291005,10,0.00010728,-3.58962,6.8644,0.00859507,0.416894,
2,1,0,1,0,40720,0.436272,0.435965,0.256156,61,0.0301141,10,0.000111675,-3.5915,4.81305,0.0122583,0.435853,
2,1,0,1,0,40723.8,0.455249,0.45499,0.254621,61,0.031123,10,0.00011585,-3.59411,2.29443,0.0257145,0.454878,
2,1,0,1,0,40727.6,0.474226,0.473925,0.256111,61,0.0321315,10,0.000121377,-3.59157,1.92545,0.0306421,0.473813,
2,1,0,1,0,40731.4,0.493203,0.492908,0.258365,61,0.0331453,10,0.00012735,-3.58777,1.13725,0.0518797,0.492794,
2,1,0,1,0,40735.2,0.512181,0.511896,0.261794,61,0.0341681,10,0.000134011,-3.58204,3.33083,0.0177133,0.51178,
2,1,0,0,0,40739,0.531158,0.530833,0.26742,61,0.0352073,10,0.000141955,-3.57281,2.5774,0.0228913,0.530716,
2,1,0,1,0,40742.7,0.550135,0.549852,0.276,61,0.0362724,10,0.000151759,-3.55909,0.708113,0.0833201,0.54973,
2,1,0,0,0,40746.5,0.569112,0.56881,0.288862,61,0.0373768,10,0.000164308,-3.53931,0.830562,0.0710362,0.568682,
2,1,0,1,0,40750.3,0.588089,0.587782,0.309393,61,0.0385424,10,0.000181856,-3.50949,0.558748,0.105593,0.587646,
2,1,0,0,0,40754.1,0.607066,0.606754,0.343901,61,0.0398089,10,0.000208663,-3.46357,0.320291,0.184207,0.606603,
2,1,0,1,0,40757.9,0.626044,0.625734,0.411562,61,0.0412617,10,0.000257528,-3.38557,0.189859,0.310756,0.625553,
2,1,0,1,0,40761.7,0.64502,0.644706,0.548276,61,0.0430865,10,0.000353477,-3.261,0.12752,0.462673,0.644465,
2,1,0,1,0,40765.5,0.663997,0.663718,0.830557,61,0.0456714,10,0.000551256,-3.08063,0.0913437,0.645912,0.663353,
2,1,0,1,0,40769.3,0.682974,0.682689,1.37976,61,0.0497933,10,0.000941949,-2.8602,0.0824147,0.715891,0.682082,
2,1,0,1,0,40773.1,0.701951,0.701686,2.32096,61,0.0567103,10,0.00162859,-2.63433,0.0861146,0.685133,0.700665,
2,1,0,1,0,40776.9,0.720928,0.720613,3.71657,61,0.0680527,10,0.00267821,-2.42986,0.0957959,0.615893,0.718978,
2,1,0,1,0,40780.7,0.739905,0.739581,5.5883,61,0.0855901,10,0.00413301,-2.25272,0.108385,0.544355,0.737123,
2,1,0,1,0,40784.5,0.758883,0.758632,7.9775,61,0.111195,10,0.00605199,-2.09813,0.121439,0.485839,0.755122,
2,1,0,0,0,40788.3,0.77786,0.777571,11.0066,61,0.147017,10,0.00855839,-1.95835,0.12837,0.45961,0.772728,
2,1,0,1,0,40792.1,0.796837,0.796562,15.0669,61,0.196101,10,0.0120017,-1.82198,0.1224,0.482024,0.789932,
2,1,0,0,0,40795.9,0.815814,0.815531,20.3072,61,0.262922,10,0.0165611,-1.69235,0.131003,0.450371,0.806596,
2,1,0,1,0,40799.7,0.834791,0.834565,26.4045,61,0.35177,10,0.0220362,-1.57832,0.148523,0.397246,0.822947,
2,1,0,1,0,40803.4,0.846726,0.846469,29.983,61,0.46062,10,0.0253797,-1.52312,0.11476,0.514117,0.833276,
2,1,0,1,0,40807.2,0.827749,0.827478,22.6225,61,0.559856,10,0.0187197,-1.64546,0.123718,0.47689,0.817524,
2,1,0,1,0,40811,0.808772,0.808505,16.6993,61,0.633946,10,0.0135015,-1.7773,0.118104,0.499559,0.801157,
2,1,0,1,0,40814.8,0.789795,0.789544,11.9502,61,0.687856,10,0.00943523,-1.92262,0.116662,0.505734,0.784286,
2,1,0,1,0,40818.6,0.770818,0.770533,8.36477,61,0.726066,10,0.00644533,-2.07755,0.107666,0.54799,0.766853,
2,1,0,1,0,40822.4,0.751841,0.751545,5.68041,61,0.752443,10,0.00426909,-2.24562,0.10008,0.589528,0.749046,
2,1,0,1,0,40826.1,0.732865,0.732535,3.69657,61,0.770006,10,0.00270786,-2.4322,0.091421,0.645366,0.730908,
2,1,0,1,0,40829.9,0.713887,0.713673,2.24786,61,0.781096,10,0.00160423,-2.64823,0.0774117,0.762159,0.712684,
2,1,0,0,0,40833.7,0.69491,0.694619,1.23552,61,0.787545,10,0.000858215,-2.90815,0.0655692,0.899813,0.694076,
2,1,0,1,0,40837.5,0.675933,0.675634,0.590547,61,0.790875,10,0.000398994,-3.22875,0.0532585,1.1078,0.675374,
2,1,0,0,0,40841.3,0.656956,0.656663,0.230281,61,0.792324,10,0.000151217,-3.63774,0.0390156,1.51222,0.656562,
2,1,0,1,0,40845.1,0.637979,0.637675,0.050948,61,0.792777,10,3.24882e-05,-4.29287,0.0180554,3.26772,0.637652,
2,0,0,0,0,40848.9,0.619002,0.618702,-0.0290021,61,0.792759,10,-1.79436e-05,-4.53757,-0.0257604,-2.29034,0.618715,
2,0,0,1,0,40852.7,0.600024,0.599722,-0.0637414,61,0.792538,10,-3.82271e-05,-4.19558,-0.118881,-0.496293,0.59975,
2,0,0,1,0,40856.5,0.581047,0.580725,-0.080672,61,0.792224,10,-4.68482e-05,-4.09328,-0.311878,-0.189177,0.580761,
2,0,0,1,0,40860.3,0.56207,0.561768,-0.0897914,61,0.791863,10,-5.04419e-05,-4.04677,-0.727659,-0.0810819,0.561808,
2,0,0,1,0,40864.1,0.543093,0.542754,-0.0951695,61,0.791474,10,-5.16536e-05,-4.0215,-1.44988,-0.0406929,0.542796,
2,0,0,1,0,40867.9,0.524116,0.5238,-0.100364,61,0.791064,10,-5.25708e-05,-3.99842,-1.11085,-0.0531125,0.523845,
2,0,0,1,0,40871.7,0.505139,0.504859,-0.105768,61,0.790633,10,-5.3398e-05,-3.97564,-0.736353,-0.0801246,0.504905,
2,0,0,1,0,40875.5,0.486162,0.485797,-0.111828,61,0.790182,10,-5.43257e-05,-3.95145,-0.780683,-0.0755748,0.485847,
2,0,0,1,0,40879.3,0.467185,0.466878,-0.118164,61,0.789707,10,-5.51683e-05,-3.92751,-0.531602,-0.110985,0.46693,
2,0,0,0,0,40883.1,0.448208,0.44794,-0.125511,61,0.789203,10,-5.62215e-05,-3.90132,-0.78396,-0.0752589,0.447996,
2,0,0,1,0,40886.9,0.429231,0.428925,-0.133872,61,0.78867,10,-5.74212e-05,-3.87331,-1.11766,-0.0527887,0.428984,
2,0,0,0,0,40890.7,0.410254,0.409916,-0.143338,61,0.788104,10,-5.87564e-05,-3.84364,-0.862226,-0.0684275,0.409979,
2,0,0,1,0,40894.5,0.391277,0.390968,-0.15188,61,0.7875,10,-5.93802e-05,-3.8185,-0.474972,-0.124218,0.391035,
2,0,0,0,0,40898.3,0.3723,0.37197,-0.163496,61,0.786858,10,-6.08157e-05,-3.78649,-0.517314,-0.114051,0.372042,
2,0,0,1,0,40902.1,0.353322,0.353016,-0.173941,61,0.786175,10,-6.1404e-05,-3.7596,-0.797174,-0.0740114,0.353092,
2,0,0,1,0,40905.9,0.334345,0.334038,-0.184916,61,0.785448,10,-6.1769e-05,-3.73302,-0.698417,-0.0844767,0.334119,
2,0,0,1,0,40909.6,0.315368,0.315028,-0.196403,61,0.784676,10,-6.18723e-05,-3.70685,-0.718873,-0.082073,0.315114,
2,0,0,1,0,40913.4,0.296391,0.29604,-0.209374,61,0.783859,10,-6.19831e-05,-3.67908,-0.639658,-0.0922368,0.296132,
2,0,0,1,0,40917.2,0.277414,0.277144,-0.220784,61,0.782995,10,-6.11889e-05,-3.65603,-1.0459,-0.0564108,0.277241,
2,0,0,1,0,40921,0.258437,0.258083,-0.233981,61,0.782081,10,-6.03866e-05,-3.63082,-0.72407,-0.0814838,0.258186,
2,0,0,1,0,40924.8,0.239461,0.239151,-0.2462,61,0.781119,10,-5.88789e-05,-3.60871,-0.706199,-0.0835458,0.239259,
2,0,0,1,0,40928.6,0.220483,0.220187,-0.258624,61,0.780112,10,-5.69458e-05,-3.58733,-0.663049,-0.0889829,0.220301,
2,0,0,0,0,40932.4,0.201506,0.2012,-0.271177,61,0.779055,10,-5.45607e-05,-3.56675,-0.597254,-0.0987854,0.201319,
2,0,0,1,0,40936.2,0.182529,0.182234,-0.290762,61,0.777937,10,-5.29867e-05,-3.53646,-0.428043,-0.137837,0.182362,
2,0,0,0,0,40940,0.163552,0.163244,-0.324576,61,0.776725,10,-5.29852e-05,-3.48868,-0.299494,-0.196999,0.163387,
2,0,0,1,0,40943.8,0.144575,0.144205,-0.421197,61,0.775294,10,-6.07386e-05,-3.37551,-0.104958,-0.562129,0.14439,
2,0,0,0,0,40947.6,0.125598,0.125301,-0.637245,61,0.773228,10,-7.98475e-05,-3.19569,-0.166324,-0.354729,0.125581,
2,0,0,1,0,40951.4,0.10662,0.106349,-0.688646,61,0.770598,10,-7.32368e-05,-3.162,2.83583,0.0208052,0.106652,
2,0,0,1,0,40955.2,0.0876433,0.0873149,-0.655933,61,0.76798,10,-5.72727e-05,-3.18314,0.712083,0.0828555,0.0876035,
2,0,0,1,0,40959,0.0686664,0.0683645,-0.615232,61,0.765514,10,-4.206e-05,-3.21096,0.698765,0.0844347,0.0686352,
2,0,0,1,0,40962.8,0.0496895,0.0493357,-0.570452,61,0.7632,10,-2.81437e-05,-3.24378,0.542093,0.108837,0.0495867,
2,0,0,1,0,40966.6,0.0307126,0.030379,-0.525491,61,0.761057,10,-1.59639e-05,-3.27943,0.518032,0.113892,0.0306102,
2,0,0,1,0,40970.4,0.0117356,0.0113817,-0.494959,61,0.759069,10,-5.63349e-06,-3.30543,1.72247,0.034253,0.0115995,
2,0,0,1,0,40972.7,0.000274105,-0.00010224,-0.494928,61,0.757901,10,5.06017e-08,-3.30546, , ,0.000115528,