File: Figure_codes/Fig_3-5/workspace_calculate_alpha_eff/20221101_1-115_003_TrumpetPlot_ParaChange_from10_every3_16_CV_C01_39.csv
mode,ox/red,error,control changes,counter inc.,time/s,control/V,Ewe/V,<I>/mA,cycle number,(Q-Qo)/C,I Range,P/W,log(|I|),Tafel slope mV/dec,alpha_eff,E-IR/V,
2,0,0,1,0,26841.8,2.44065e-05,-0.000325324,-0.0376989,40,0.0000000E+000,10,1.22644e-08,-4.42367, , ,-0.000308736,
2,1,0,1,0,26845.6,0.0187763,0.018473,0.273303,40,0.000930282,10,5.04874e-06,-3.56336,0.184222,0.320265,0.0183528,
2,1,0,0,0,26849.4,0.0377538,0.0374326,0.339681,40,0.00216218,10,1.27151e-05,-3.46893,0.208948,0.282367,0.0372831,
2,1,0,1,0,26853.2,0.0567309,0.056399,0.400256,40,0.00364371,10,2.2574e-05,-3.39766,0.356556,0.165472,0.0562229,
2,1,0,0,0,26857,0.075708,0.075357,0.444653,40,0.00532612,10,3.35077e-05,-3.35198,0.620526,0.0950806,0.0751613,
2,1,0,1,0,26860.7,0.0946851,0.0943722,0.500424,40,0.00717127,10,4.72261e-05,-3.30066,0.261635,0.225505,0.094152,
2,1,0,0,0,26864.5,0.113662,0.113338,0.599076,40,0.00933029,10,6.78978e-05,-3.22252,0.376281,0.156798,0.113074,
2,1,0,1,0,26868.3,0.132639,0.132299,0.650257,40,0.0117859,10,8.60282e-05,-3.18691,-1.09295,-0.0539822,0.132013,
2,1,0,1,0,26872.1,0.151617,0.151304,0.434441,40,0.013988,10,6.57325e-05,-3.36207,-0.0800073,-0.737432,0.151112,
2,1,0,1,0,26875.9,0.170594,0.170323,0.328662,40,0.015439,10,5.59787e-05,-3.48325,-0.295646,-0.199563,0.170178,
2,1,0,1,0,26879.7,0.189571,0.189313,0.304653,40,0.0166925,10,5.76748e-05,-3.51619,-1.13494,-0.0519853,0.189179,
2,1,0,1,0,26883.5,0.208547,0.208264,0.294593,40,0.0178863,10,6.13531e-05,-3.53078,-1.37365,-0.0429512,0.208134,
2,1,0,1,0,26887.3,0.227524,0.227195,0.28693,40,0.0190461,10,6.51892e-05,-3.54222,-2.10838,-0.0279836,0.227069,
2,1,0,1,0,26891.1,0.246501,0.246204,0.282016,40,0.0201845,10,6.94334e-05,-3.54973,-0.832598,-0.0708626,0.24608,
2,1,0,1,0,26894.9,0.265479,0.265134,0.276929,40,0.0213057,10,7.34233e-05,-3.55763,-2.02477,-0.029139,0.265012,
2,1,0,0,0,26898.7,0.284456,0.284184,0.273642,40,0.0224097,10,7.77645e-05,-3.56282,-2.56997,-0.0229575,0.284063,
2,1,0,1,0,26902.5,0.303433,0.303124,0.270304,40,0.0234965,10,8.19355e-05,-3.56815,-2.84867,-0.0207114,0.303005,
2,1,0,0,0,26906.3,0.32241,0.322098,0.265831,40,0.0245689,10,8.56235e-05,-3.57539,-6.35388,-0.00928567,0.321981,
2,1,0,1,0,26910.1,0.341387,0.341112,0.263328,40,0.0256281,10,8.98243e-05,-3.5795,-11.9663,-0.00493052,0.340996,
2,1,0,0,0,26913.9,0.360364,0.360038,0.261111,40,0.0266754,10,9.40098e-05,-3.58318,2.70856,0.0217828,0.359923,
2,1,0,1,0,26917.7,0.379342,0.37905,0.258568,40,0.0277124,10,9.80102e-05,-3.58743,-1.67581,-0.0352069,0.378937,
2,1,0,1,0,26921.5,0.398319,0.398019,0.256137,40,0.028741,10,0.000101947,-3.59153,24.5884,0.00239951,0.397906,
2,1,0,1,0,26925.3,0.417295,0.417,0.25424,40,0.029763,10,0.000106018,-3.59476,6.42983,0.00917598,0.416888,
2,1,0,1,0,26929.1,0.436272,0.435975,0.254001,40,0.0307775,10,0.000110738,-3.59516,-4.70846,-0.0125306,0.435863,
2,1,0,1,0,26932.9,0.455249,0.454961,0.253123,40,0.0317891,10,0.000115161,-3.59667,1.86588,0.0316205,0.45485,
2,1,0,1,0,26936.7,0.474226,0.473917,0.254463,40,0.0328022,10,0.000120594,-3.59438,1.78054,0.033136,0.473805,
2,1,0,1,0,26940.4,0.493203,0.492919,0.257424,40,0.0338211,10,0.000126889,-3.58935,0.985027,0.0598968,0.492806,
2,1,0,1,0,26944.2,0.512181,0.511843,0.260737,40,0.0348515,10,0.000133456,-3.5838,2.23782,0.0263649,0.511728,
2,1,0,0,0,26948,0.531158,0.530847,0.268349,40,0.0359011,10,0.000142452,-3.5713,6.47779,0.00910805,0.530729,
2,1,0,1,0,26951.8,0.550135,0.549846,0.276061,40,0.0369789,10,0.000151791,-3.559,0.961156,0.0613844,0.549725,
2,1,0,0,0,26955.6,0.569112,0.568797,0.291677,40,0.038099,10,0.000165905,-3.5351,0.740241,0.0797038,0.568669,
2,1,0,1,0,26959.4,0.588089,0.58778,0.314462,40,0.0392865,10,0.000184835,-3.50243,0.384544,0.153428,0.587642,
2,1,0,0,0,26963.2,0.607066,0.606765,0.355698,40,0.0405919,10,0.000215825,-3.44892,0.270468,0.218141,0.606608,
2,1,0,1,0,26967,0.626044,0.625824,0.436615,40,0.042121,10,0.000273244,-3.3599,0.167673,0.351875,0.625632,
2,1,0,1,0,26970.8,0.64502,0.644729,0.60202,40,0.0440973,10,0.00038814,-3.22039,0.109251,0.540042,0.644464,
2,1,0,1,0,26974.6,0.663997,0.663698,0.956313,40,0.0470206,10,0.000634703,-3.0194,0.0840003,0.702378,0.663277,
2,1,0,1,0,26978.4,0.682974,0.682682,1.65521,40,0.0518831,10,0.00112998,-2.78115,0.0751402,0.785198,0.681953,
2,1,0,1,0,26982.2,0.701951,0.701651,2.86598,40,0.060325,10,0.00201091,-2.54273,0.0809451,0.728889,0.70039,
2,1,0,1,0,26986,0.720928,0.720637,4.66741,40,0.0744732,10,0.00336351,-2.33092,0.0924837,0.63795,0.718584,
2,1,0,1,0,26989.8,0.739905,0.739635,7.07196,40,0.0966097,10,0.00523067,-2.15046,0.106673,0.553091,0.736524,
2,1,0,1,0,26993.6,0.758883,0.758599,10.1022,40,0.129036,10,0.00766355,-1.99558,0.11932,0.49447,0.754154,
2,1,0,0,0,26997.4,0.77786,0.777568,13.9877,40,0.174442,10,0.0108764,-1.85425,0.122227,0.482707,0.771413,
2,1,0,1,0,27001.2,0.796837,0.796564,19.1257,40,0.236903,10,0.0152348,-1.71838,0.122934,0.479931,0.788149,
2,1,0,0,0,27005,0.815814,0.815575,25.4456,40,0.321261,10,0.0207528,-1.59439,0.141933,0.41569,0.804379,
2,1,0,1,0,27008.8,0.834791,0.834514,32.5718,40,0.431172,10,0.0271816,-1.48716,0.157412,0.374814,0.820182,
2,1,0,1,0,27012.5,0.846727,0.846494,35.9047,40,0.56246,10,0.0303931,-1.44485,0.122155,0.482992,0.830696,
2,1,0,1,0,27016.3,0.827749,0.827575,27.4804,40,0.682137,10,0.0227421,-1.56098,0.131128,0.449942,0.815484,
2,1,0,1,0,27020.1,0.808772,0.808486,20.5557,40,0.772837,10,0.016619,-1.68707,0.121106,0.487177,0.799441,
2,1,0,1,0,27023.8,0.789795,0.789512,14.859,40,0.839603,10,0.0117313,-1.82801,0.110893,0.532043,0.782974,
2,1,0,1,0,27027.6,0.770818,0.770528,10.3871,40,0.887071,10,0.00800357,-1.9835,0.106905,0.551894,0.765958,
2,1,0,1,0,27031.4,0.751841,0.751591,7.02112,40,0.919748,10,0.00527701,-2.15359,0.0990667,0.595558,0.748502,
2,1,0,1,0,27035.2,0.732865,0.73257,4.51078,40,0.941348,10,0.00330446,-2.34575,0.0872397,0.676298,0.730585,
2,1,0,1,0,27039,0.713887,0.713603,2.70143,40,0.954795,10,0.00192775,-2.56841,0.0755452,0.780989,0.712414,
2,1,0,0,0,27042.8,0.69491,0.694656,1.46862,40,0.962503,10,0.00102019,-2.83309,0.0631803,0.933835,0.694009,
2,1,0,1,0,27046.6,0.675933,0.675654,0.698609,40,0.966445,10,0.000472018,-3.15577,0.0520576,1.13336,0.675347,
2,1,0,0,0,27050.4,0.656956,0.65667,0.275943,40,0.968161,10,0.000181203,-3.55918,0.0404251,1.45949,0.656548,
2,1,0,1,0,27054.2,0.637979,0.637705,0.069253,40,0.968721,10,4.4163e-05,-4.15956,0.0218786,2.6967,0.637675,
2,0,0,0,0,27058,0.619002,0.618708,-0.020239,40,0.968745,10,-1.2522e-05,-4.69381,-0.0142327,-4.14539,0.618717,
2,0,0,1,0,27061.8,0.600025,0.599692,-0.0591452,40,0.96854,10,-3.54689e-05,-4.22808,-0.107001,-0.551397,0.599718,
2,0,0,1,0,27065.6,0.581047,0.580733,-0.0791266,40,0.968231,10,-4.59514e-05,-4.10168,-0.220657,-0.267383,0.580767,
2,0,0,1,0,27069.4,0.56207,0.561753,-0.0874769,40,0.967871,10,-4.91405e-05,-4.05811,-0.811063,-0.072744,0.561792,
2,0,0,1,0,27073.2,0.543093,0.542806,-0.0941816,40,0.96748,10,-5.11224e-05,-4.02603,-0.793413,-0.0743623,0.542848,
2,0,0,1,0,27077,0.524116,0.523808,-0.098885,40,0.967067,10,-5.17968e-05,-4.00487,-2.032,-0.0290354,0.523852,
2,0,0,1,0,27080.8,0.505139,0.504817,-0.104814,40,0.966634,10,-5.29118e-05,-3.97958,7.2842,0.00809973,0.504864,
2,0,0,1,0,27084.6,0.486162,0.485881,-0.110017,40,0.966181,10,-5.34554e-05,-3.95854,-2.1891,-0.0269517,0.485929,
2,0,0,1,0,27088.4,0.467185,0.466889,-0.11582,40,0.965703,10,-5.40753e-05,-3.93622,-0.698217,-0.0845009,0.46694,
2,0,0,0,0,27092.2,0.448208,0.447924,-0.123828,40,0.965199,10,-5.54657e-05,-3.90718,-0.648329,-0.0910032,0.447979,
2,0,0,1,0,27096,0.429231,0.428927,-0.132028,40,0.964664,10,-5.66302e-05,-3.87934,-7.02709,-0.00839608,0.428985,
2,0,0,0,0,27099.8,0.410254,0.409913,-0.141817,40,0.964095,10,-5.81326e-05,-3.84827,-2.45732,-0.0240099,0.409976,
2,0,0,1,0,27103.6,0.391277,0.390969,-0.150704,40,0.963489,10,-5.89204e-05,-3.82188,-0.486367,-0.121308,0.391035,
2,0,0,0,0,27107.3,0.3723,0.371938,-0.161283,40,0.962845,10,-5.99872e-05,-3.79241,-1.0215,-0.0577584,0.372009,
2,0,0,1,0,27111.1,0.353322,0.353038,-0.171501,40,0.962161,10,-6.05464e-05,-3.76573,-0.895516,-0.0658838,0.353113,
2,0,0,1,0,27114.9,0.334345,0.334082,-0.182477,40,0.961435,10,-6.09623e-05,-3.73879,-1.33312,-0.044257,0.334162,
2,0,0,1,0,27118.7,0.315368,0.315036,-0.194858,40,0.960664,10,-6.13872e-05,-3.71028,-0.654238,-0.0901812,0.315122,
2,0,0,1,0,27122.5,0.296391,0.296097,-0.207713,40,0.959846,10,-6.15031e-05,-3.68254,-0.764657,-0.0771588,0.296188,
2,0,0,1,0,27126.3,0.277414,0.277107,-0.21959,40,0.958981,10,-6.08498e-05,-3.65839,-0.579458,-0.101819,0.277203,
2,0,0,1,0,27130.1,0.258437,0.258165,-0.231579,40,0.958067,10,-5.97857e-05,-3.6353,-0.591015,-0.0998282,0.258267,
2,0,0,1,0,27133.9,0.239461,0.23918,-0.244519,40,0.957107,10,-5.8484e-05,-3.61169,-0.88758,-0.0664729,0.239287,
2,0,0,1,0,27137.7,0.220483,0.220214,-0.255711,40,0.9561,10,-5.6311e-05,-3.59225,-0.860392,-0.0685734,0.220326,
2,0,0,0,0,27141.5,0.201506,0.201184,-0.26973,40,0.955043,10,-5.42653e-05,-3.56907,-0.578845,-0.101927,0.201302,
2,0,0,1,0,27145.3,0.182529,0.182247,-0.28961,40,0.953921,10,-5.27806e-05,-3.53819,-0.372215,-0.15851,0.182374,
2,0,0,0,0,27149.1,0.163552,0.163213,-0.328974,40,0.952694,10,-5.36927e-05,-3.48284,-0.26417,-0.223341,0.163357,
2,0,0,1,0,27152.9,0.144575,0.14424,-0.44236,40,0.951214,10,-6.38059e-05,-3.35422,-0.0939946,-0.627696,0.144435,
2,0,0,0,0,27156.7,0.125598,0.12529,-0.67542,40,0.949005,10,-8.46236e-05,-3.17043,-0.190688,-0.309406,0.125588,
2,0,0,1,0,27160.5,0.10662,0.106277,-0.709434,40,0.946251,10,-7.53965e-05,-3.14909,1.09107,0.0540755,0.106589,
2,0,0,1,0,27164.3,0.0876433,0.0872832,-0.664159,40,0.943574,10,-5.79699e-05,-3.17773,0.498772,0.118291,0.0875755,
2,0,0,1,0,27168.1,0.0686664,0.0683698,-0.620473,40,0.941077,10,-4.24216e-05,-3.20728,0.809569,0.0728783,0.0686428,
2,0,0,1,0,27171.9,0.0496895,0.0493675,-0.575651,40,0.938736,10,-2.84185e-05,-3.23984,0.513304,0.114942,0.0496208,
2,0,0,1,0,27175.7,0.0307126,0.0304138,-0.529026,40,0.936569,10,-1.60897e-05,-3.27652,0.533044,0.110685,0.0306466,
2,0,0,1,0,27179.5,0.0117356,0.0113936,-0.495411,40,0.934566,10,-5.6445e-06,-3.30503,1.08269,0.0544938,0.0116116,
2,0,0,1,0,27181.8,0.000274105,-0.00010224,-0.493926,40,0.933395,10,5.04992e-08,-3.30634, , ,0.000115087,