File: Figure_codes/Fig_3-5/workspace_calculate_alpha_eff/20221101_1-115_003_TrumpetPlot_ParaChange_from10_every3_16_CV_C01_85.csv
mode,ox/red,error,control changes,counter inc.,time/s,control/V,Ewe/V,<I>/mA,cycle number,(Q-Qo)/C,I Range,P/W,log(|I|),Tafel slope mV/dec,alpha_eff,E-IR/V,
2,0,0,0,0,56763.8,2.44065e-05,-0.000344411,-0.0930337,86,0.0000000E+000,10,3.20418e-08,-4.03136, , ,-0.000303476,
2,1,0,1,0,56767.5,0.0187763,0.0184763,0.211555,86,0.000681051,10,3.90877e-06,-3.67458,0.148237,0.39801,0.0183833,
2,1,0,1,0,56771.3,0.0377538,0.0373965,0.275024,86,0.00165589,10,1.02849e-05,-3.56063,0.18798,0.313863,0.0372755,
2,1,0,0,0,56775.1,0.0567309,0.0563958,0.33396,86,0.00286915,10,1.8834e-05,-3.47631,0.299512,0.196987,0.0562489,
2,1,0,1,0,56778.9,0.075708,0.075393,0.378211,86,0.00427828,10,2.85145e-05,-3.42227,0.436586,0.135139,0.0752266,
2,1,0,0,0,56782.7,0.094685,0.0943722,0.430032,86,0.00584827,10,4.0583e-05,-3.3665,0.259428,0.227424,0.0941829,
2,1,0,1,0,56786.5,0.113662,0.1133,0.521005,86,0.00770016,10,5.90301e-05,-3.28316,0.355502,0.165962,0.113071,
2,1,0,0,0,56790.3,0.132639,0.132271,0.555615,86,0.00981742,10,7.34918e-05,-3.25523,-0.559367,-0.105476,0.132027,
2,1,0,1,0,56794.1,0.151617,0.151276,0.371103,86,0.0116859,10,5.61389e-05,-3.43051,-0.0823002,-0.716888,0.151113,
2,1,0,1,0,56797.9,0.170594,0.170243,0.28459,86,0.012926,10,4.84495e-05,-3.54578,-0.326624,-0.180636,0.170118,
2,1,0,1,0,56801.7,0.189571,0.189233,0.266775,86,0.0140119,10,5.04827e-05,-3.57385,-1.01753,-0.0579835,0.189116,
2,1,0,1,0,56805.5,0.208547,0.208242,0.259901,86,0.0150549,10,5.41221e-05,-3.58519,-1.17771,-0.0500971,0.208127,
2,1,0,1,0,56809.3,0.227524,0.227196,0.253959,86,0.0160726,10,5.76986e-05,-3.59524,-0.996826,-0.0591879,0.227085,
2,1,0,1,0,56813.1,0.246501,0.246149,0.249562,86,0.0170718,10,6.14294e-05,-3.60282,-1.74066,-0.0338952,0.246039,
2,1,0,0,0,56816.9,0.265479,0.265155,0.246809,86,0.0180562,10,6.54426e-05,-3.60764,-3.59106,-0.0164297,0.265046,
2,1,0,1,0,56820.7,0.284456,0.284139,0.242008,86,0.0190241,10,6.87639e-05,-3.61617,-2.06026,-0.0286372,0.284033,
2,1,0,0,0,56824.5,0.303433,0.303138,0.237651,86,0.0199742,10,7.2041e-05,-3.62406,-1.57844,-0.0373788,0.303033,
2,1,0,1,0,56828.2,0.32241,0.322075,0.234227,86,0.0209094,10,7.54387e-05,-3.63036,-39.1806,-0.00150585,0.321972,
2,1,0,0,0,56832,0.341387,0.341104,0.23129,86,0.0218311,10,7.88939e-05,-3.63584,-4.44979,-0.013259,0.341003,
2,1,0,1,0,56835.8,0.360364,0.360051,0.229524,86,0.0227431,10,8.26403e-05,-3.63917,-2.38932,-0.0246932,0.35995,
2,1,0,1,0,56839.6,0.379342,0.379029,0.227942,86,0.0236459,10,8.63965e-05,-3.64218,-4.9287,-0.0119707,0.378929,
2,1,0,1,0,56843.4,0.398319,0.397989,0.225521,86,0.0245398,10,8.97548e-05,-3.64681,-5.13379,-0.0114925,0.39789,
2,1,0,1,0,56847.2,0.417295,0.416972,0.225304,86,0.0254295,10,9.39454e-05,-3.64723,-9.41763,-0.00626484,0.416873,
2,1,0,1,0,56851,0.436272,0.435937,0.224096,86,0.0263147,10,9.76918e-05,-3.64957,2.73763,0.0215515,0.435838,
2,1,0,1,0,56854.8,0.455249,0.454945,0.223329,86,0.027196,10,0.000101602,-3.65106,5.14458,0.0114684,0.454847,
2,1,0,1,0,56858.6,0.474226,0.473898,0.225151,86,0.0280782,10,0.000106698,-3.64753,1.21448,0.0485804,0.473799,
2,1,0,1,0,56862.4,0.493203,0.492892,0.227192,86,0.0289666,10,0.000111981,-3.64361,2.4986,0.0236132,0.492792,
2,1,0,0,0,56866.2,0.512181,0.51186,0.23151,86,0.0298657,10,0.000118501,-3.63543,1.78603,0.0330341,0.511759,
2,1,0,1,0,56870,0.531158,0.530858,0.236577,86,0.0307806,10,0.000125588,-3.62603,1.22866,0.0480198,0.530754,
2,1,0,0,0,56873.8,0.550135,0.549763,0.244396,86,0.0317208,10,0.00013436,-3.61191,0.821412,0.0718275,0.549655,
2,1,0,1,0,56877.6,0.569112,0.568809,0.256385,86,0.0326985,10,0.000145834,-3.59111,0.771557,0.0764687,0.568696,
2,1,0,0,0,56881.4,0.588089,0.587774,0.274549,86,0.0337319,10,0.000161372,-3.56138,0.54357,0.108542,0.587653,
2,1,0,1,0,56885.2,0.607066,0.606735,0.303829,86,0.0348527,10,0.000184344,-3.51737,0.363684,0.162229,0.606601,
2,1,0,1,0,56889,0.626044,0.625762,0.358264,86,0.0361257,10,0.000224188,-3.4458,0.212048,0.278239,0.625604,
2,1,0,1,0,56892.8,0.64502,0.644753,0.466039,86,0.0376944,10,0.00030048,-3.33158,0.139868,0.421826,0.644548,
2,1,0,1,0,56896.6,0.663997,0.663714,0.683238,86,0.0398542,10,0.000453475,-3.16543,0.10019,0.588879,0.663413,
2,1,0,1,0,56900.4,0.682974,0.682661,1.10236,86,0.0431917,10,0.000752541,-2.95768,0.085778,0.687822,0.682176,
2,1,0,1,0,56904.2,0.701951,0.701619,1.81966,86,0.0486586,10,0.00127671,-2.74001,0.0869292,0.678713,0.700818,
2,1,0,1,0,56908,0.720928,0.720655,2.88812,86,0.0575047,10,0.00208134,-2.53938,0.0979484,0.602358,0.719384,
2,1,0,1,0,56911.7,0.739905,0.739595,4.32738,86,0.0710972,10,0.00320051,-2.36378,0.11202,0.52669,0.737691,
2,1,0,0,0,56915.5,0.758883,0.758638,6.1902,86,0.0909361,10,0.00469612,-2.2083,0.122536,0.481491,0.755915,
2,1,0,1,0,56919.3,0.77786,0.777561,8.55005,86,0.118759,10,0.00664819,-2.06803,0.130637,0.451634,0.773799,
2,1,0,0,0,56923.1,0.796837,0.796536,11.6272,86,0.156805,10,0.00926147,-1.93453,0.131137,0.449913,0.79142,
2,1,0,1,0,56926.9,0.815814,0.815536,15.6715,86,0.208329,10,0.0127807,-1.80489,0.133787,0.440999,0.808641,
2,1,0,0,0,56930.7,0.834791,0.834539,20.656,86,0.277067,10,0.0172382,-1.68495,0.146365,0.403103,0.82545,
2,1,0,0,0,56934.4,0.846726,0.846444,23.5133,86,0.362477,10,0.0199027,-1.62869,0.109859,0.537052,0.836098,
2,1,0,1,0,56938.2,0.827749,0.827479,17.3187,86,0.439359,10,0.0143309,-1.76148,0.1213,0.486395,0.819858,
2,1,0,1,0,56942,0.808772,0.808476,12.6222,86,0.495741,10,0.0102047,-1.89887,0.123006,0.479652,0.802922,
2,1,0,1,0,56945.8,0.789795,0.7895,9.02585,86,0.536452,10,0.00712591,-2.04451,0.120659,0.488983,0.785529,
2,1,0,1,0,56949.6,0.770818,0.770486,6.34043,86,0.565332,10,0.00488521,-2.19788,0.112058,0.526514,0.767696,
2,1,0,1,0,56953.4,0.751841,0.751554,4.35759,86,0.5854,10,0.00327496,-2.36075,0.107111,0.55083,0.749637,
2,1,0,1,0,56957.2,0.732865,0.732574,2.85991,86,0.598925,10,0.00209509,-2.54365,0.0960302,0.61439,0.731316,
2,1,0,0,0,56961,0.713887,0.713599,1.74549,86,0.607529,10,0.00124558,-2.75808,0.0883405,0.66787,0.712831,
2,1,0,1,0,56964.8,0.69491,0.694643,0.973837,86,0.612598,10,0.000676469,-3.01151,0.0641464,0.91977,0.694214,
2,1,0,0,0,56968.6,0.675933,0.675655,0.455389,86,0.615201,10,0.000307686,-3.34162,0.049423,1.19378,0.675455,
2,1,0,1,0,56972.4,0.656956,0.656668,0.158928,86,0.616277,10,0.000104363,-3.7988,0.0315145,1.87215,0.656598,
2,1,0,0,0,56976.2,0.637979,0.637688,0.00869016,86,0.616533,10,5.54161e-06,-5.06097,0.0030133,19.5799,0.637685,
2,0,0,1,0,56980,0.619002,0.618706,-0.0570376,86,0.616397,10,-3.52895e-05,-4.24384,-0.0594649,-0.992182,0.618731,
2,0,0,0,0,56983.8,0.600024,0.599733,-0.0860059,86,0.616087,10,-5.15806e-05,-4.06547,-0.169529,-0.348022,0.599771,
2,0,0,1,0,56987.6,0.581047,0.580709,-0.101705,86,0.615698,10,-5.90613e-05,-3.99266,-0.570487,-0.10342,0.580754,
2,0,0,1,0,56991.4,0.56207,0.561734,-0.109761,86,0.615268,10,-6.16567e-05,-3.95955,-1.09613,-0.0538259,0.561783,
2,0,0,1,0,56995.1,0.543093,0.542743,-0.114245,86,0.614814,10,-6.20056e-05,-3.94216,-1.83113,-0.0322205,0.542793,
2,0,0,1,0,56998.9,0.524116,0.523804,-0.119541,86,0.614339,10,-6.26162e-05,-3.92248,-7.2444,-0.00814422,0.523857,
2,0,0,1,0,57002.7,0.505139,0.504813,-0.123722,86,0.613847,10,-6.24564e-05,-3.90755,-1.72177,-0.034267,0.504868,
2,0,0,1,0,57006.5,0.486162,0.485813,-0.129334,86,0.613335,10,-6.2832e-05,-3.88829,-1.84553,-0.0319692,0.48587,
2,0,0,1,0,57010.3,0.467185,0.466851,-0.135237,86,0.612801,10,-6.31355e-05,-3.8689,-1.26383,-0.0466834,0.46691,
2,0,0,1,0,57014.1,0.448208,0.447882,-0.141921,86,0.61224,10,-6.3564e-05,-3.84795,-0.89748,-0.0657396,0.447944,
2,0,0,0,0,57017.9,0.429231,0.428898,-0.14982,86,0.611651,10,-6.42575e-05,-3.82443,-5.70759,-0.0103371,0.428963,
2,0,0,1,0,57021.7,0.410254,0.409871,-0.15924,86,0.611031,10,-6.52678e-05,-3.79795,-0.80066,-0.0736892,0.409941,
2,0,0,0,0,57025.5,0.391277,0.390946,-0.168642,86,0.610376,10,-6.59298e-05,-3.77303,-0.971704,-0.0607181,0.39102,
2,0,0,1,0,57029.3,0.3723,0.371949,-0.176989,86,0.609684,10,-6.58309e-05,-3.75205,-1.48684,-0.0396815,0.372027,
2,0,0,1,0,57033.1,0.353322,0.352995,-0.187245,86,0.608952,10,-6.60968e-05,-3.72759,-0.999355,-0.0590381,0.353078,
2,0,0,1,0,57036.9,0.334345,0.33403,-0.198844,86,0.60818,10,-6.642e-05,-3.70149,-0.814004,-0.0724812,0.334118,
2,0,0,1,0,57040.7,0.315368,0.31503,-0.210456,86,0.607363,10,-6.63e-05,-3.67684,-0.578467,-0.101994,0.315123,
2,0,0,1,0,57044.5,0.296391,0.296084,-0.222362,86,0.6065,10,-6.58377e-05,-3.65294,-0.714008,-0.0826321,0.296182,
2,0,0,1,0,57048.3,0.277414,0.277083,-0.233772,86,0.605592,10,-6.47741e-05,-3.63121,-0.906793,-0.0650644,0.277185,
2,0,0,1,0,57052.1,0.258437,0.258072,-0.245957,86,0.604636,10,-6.34745e-05,-3.60914,-0.703374,-0.0838814,0.25818,
2,0,0,1,0,57055.9,0.239461,0.239123,-0.25839,86,0.603635,10,-6.17872e-05,-3.58772,-0.779047,-0.0757336,0.239237,
2,0,0,0,0,57059.7,0.220483,0.220131,-0.267492,86,0.602592,10,-5.88833e-05,-3.57269,-0.987603,-0.0597406,0.220249,
2,0,0,1,0,57063.5,0.201506,0.201159,-0.281279,86,0.601503,10,-5.65818e-05,-3.55086,-0.651918,-0.0905022,0.201283,
2,0,0,0,0,57067.3,0.182529,0.18221,-0.298725,86,0.600356,10,-5.44307e-05,-3.52473,-0.439241,-0.134323,0.182341,
2,0,0,1,0,57071.1,0.163552,0.163208,-0.329309,86,0.599121,10,-5.3746e-05,-3.4824,-0.338565,-0.174265,0.163353,
2,0,0,0,0,57074.8,0.144575,0.144186,-0.409153,86,0.597702,10,-5.89941e-05,-3.38811,-0.120194,-0.490871,0.144366,
2,0,0,1,0,57078.6,0.125598,0.125241,-0.603448,86,0.595741,10,-7.55762e-05,-3.21936,-0.149328,-0.395104,0.125506,
2,0,0,1,0,57082.4,0.10662,0.106258,-0.673042,86,0.593206,10,-7.15161e-05,-3.17196,-6.01832,-0.0098034,0.106554,
2,0,0,1,0,57086.2,0.0876433,0.0873107,-0.653743,86,0.590623,10,-5.70788e-05,-3.18459,0.884202,0.0667268,0.0875983,
2,0,0,1,0,57090,0.0686664,0.0683338,-0.616545,86,0.588161,10,-4.21308e-05,-3.21004,0.749345,0.0787355,0.0686051,
2,0,0,1,0,57093.8,0.0496895,0.0493623,-0.574581,86,0.585843,10,-2.83626e-05,-3.24065,0.550808,0.107115,0.0496151,
2,0,0,1,0,57097.6,0.0307126,0.0303862,-0.529356,86,0.583693,10,-1.60851e-05,-3.27625,0.531728,0.110959,0.0306191,
2,0,0,1,0,57101.4,0.0117356,0.0113439,-0.499303,86,0.581697,10,-5.66405e-06,-3.30164,1.07563,0.0548517,0.0115636,
2,0,0,0,0,57103.7,0.000274105,-8.31532e-05,-0.499387,86,0.580522,10,4.15256e-08,-3.30156, , ,0.000136577,