File: Figure_codes/Fig_3-5/workspace_calculate_alpha_eff/20221101_1-115_003_TrumpetPlot_ParaChange_from10_every3_16_CV_C01_82.csv
mode,ox/red,error,control changes,counter inc.,time/s,control/V,Ewe/V,<I>/mA,cycle number,(Q-Qo)/C,I Range,P/W,log(|I|),Tafel slope mV/dec,alpha_eff,E-IR/V,
2,0,0,0,0,54793.6,2.44065e-05,-0.00042076,-0.0879455,83,0.0000000E+000,10,3.70039e-08,-4.05579, , ,-0.000382064,
2,1,0,1,0,54797.4,0.0187763,0.0183924,0.211955,83,0.000689991,10,3.89836e-06,-3.67376,0.148361,0.39768,0.0182991,
2,1,0,1,0,54801.2,0.0377538,0.037352,0.274781,83,0.00167166,10,1.02636e-05,-3.56101,0.205807,0.286676,0.0372311,
2,1,0,0,0,54805,0.0567309,0.0563746,0.335147,83,0.0028948,10,1.88938e-05,-3.47477,0.311118,0.189639,0.0562271,
2,1,0,1,0,54808.8,0.075708,0.0753538,0.379173,83,0.00431617,10,2.85721e-05,-3.42116,0.503833,0.117102,0.0751869,
2,1,0,0,0,54812.6,0.094685,0.0943658,0.431469,83,0.00589883,10,4.07159e-05,-3.36505,0.253049,0.233157,0.094176,
2,1,0,1,0,54816.4,0.113662,0.113324,0.524831,83,0.00776929,10,5.94759e-05,-3.27998,0.356495,0.1655,0.113093,
2,1,0,0,0,54820.2,0.132639,0.132308,0.558149,83,0.00990553,10,7.38477e-05,-3.25325,-0.566024,-0.104236,0.132063,
2,1,0,1,0,54824,0.151617,0.151309,0.368666,83,0.0117813,10,5.57824e-05,-3.43337,-0.0815929,-0.723102,0.151147,
2,1,0,1,0,54827.8,0.170594,0.170268,0.28262,83,0.0130177,10,4.8121e-05,-3.5488,-0.331075,-0.178207,0.170143,
2,1,0,1,0,54831.5,0.189571,0.189251,0.264842,83,0.0141007,10,5.01215e-05,-3.57701,-0.912872,-0.0646312,0.189134,
2,1,0,1,0,54835.3,0.208547,0.20824,0.257696,83,0.0151414,10,5.36626e-05,-3.58889,-1.51289,-0.0389981,0.208126,
2,1,0,1,0,54839.1,0.227524,0.227163,0.251875,83,0.0161568,10,5.72167e-05,-3.59882,-1.11793,-0.0527763,0.227053,
2,1,0,1,0,54842.9,0.246501,0.246202,0.248285,83,0.0171536,10,6.11282e-05,-3.60505,-1.25872,-0.0468731,0.246093,
2,1,0,0,0,54846.7,0.265479,0.265146,0.244352,83,0.018136,10,6.4789e-05,-3.61198,-3.07003,-0.019218,0.265039,
2,1,0,1,0,54850.5,0.284456,0.284183,0.241348,83,0.0191033,10,6.8587e-05,-3.61736,-2.24962,-0.0262266,0.284077,
2,1,0,0,0,54854.3,0.303433,0.303112,0.236847,83,0.0200528,10,7.17913e-05,-3.62553,-2.39807,-0.0246031,0.303008,
2,1,0,1,0,54858.1,0.32241,0.32212,0.232754,83,0.0209858,10,7.49748e-05,-3.6331,-4.36774,-0.0135081,0.322017,
2,1,0,0,0,54861.9,0.341387,0.341082,0.230157,83,0.0219064,10,7.85025e-05,-3.63798,-7.30215,-0.00807981,0.340981,
2,1,0,1,0,54865.7,0.360364,0.360035,0.228586,83,0.0228173,10,8.2299e-05,-3.64095,-2.38346,-0.0247539,0.359934,
2,1,0,1,0,54869.5,0.379342,0.379008,0.225011,83,0.0237183,10,8.52811e-05,-3.6478,-5.83862,-0.0101051,0.378909,
2,1,0,1,0,54873.3,0.398319,0.397967,0.224,83,0.0246105,10,8.91445e-05,-3.64975,-3.96116,-0.0148946,0.397868,
2,1,0,1,0,54877.1,0.417295,0.417015,0.223498,83,0.0254979,10,9.32019e-05,-3.65073,-8.19587,-0.00719875,0.416917,
2,1,0,1,0,54880.9,0.436272,0.436001,0.22317,83,0.0263808,10,9.73023e-05,-3.65136,-45.0642,-0.00130924,0.435903,
2,1,0,1,0,54884.7,0.455249,0.454936,0.222535,83,0.0272613,10,0.000101239,-3.6526,3.79118,0.0155624,0.454838,
2,1,0,1,0,54888.5,0.474226,0.473918,0.224159,83,0.0281434,10,0.000106233,-3.64944,0.921284,0.0640411,0.473819,
2,1,0,1,0,54892.3,0.493203,0.492833,0.227117,83,0.0290319,10,0.000111931,-3.64375,1.5615,0.0377842,0.492733,
2,1,0,0,0,54896.1,0.512181,0.511829,0.230388,83,0.0299311,10,0.000117919,-3.63754,1.36313,0.0432828,0.511727,
2,1,0,1,0,54899.9,0.531158,0.530779,0.235958,83,0.0308463,10,0.000125242,-3.62716,1.63995,0.0359768,0.530675,
2,1,0,0,0,54903.7,0.550135,0.549821,0.243471,83,0.0317865,10,0.000133866,-3.61355,1.08278,0.0544896,0.549714,
2,1,0,1,0,54907.5,0.569112,0.568787,0.255498,83,0.0327629,10,0.000145324,-3.59261,0.795234,0.074192,0.568675,
2,1,0,0,0,54911.3,0.588089,0.587758,0.274376,83,0.0337951,10,0.000161267,-3.56165,0.500362,0.117915,0.587637,
2,1,0,1,0,54915,0.607066,0.606748,0.304495,83,0.0349181,10,0.000184751,-3.51642,0.329072,0.179292,0.606614,
2,1,0,1,0,54918.8,0.626044,0.625775,0.359832,83,0.0361975,10,0.000225174,-3.4439,0.212819,0.277231,0.625617,
2,1,0,1,0,54922.6,0.64502,0.644727,0.472544,83,0.0377829,10,0.000304662,-3.32556,0.132603,0.444938,0.644519,
2,1,0,1,0,54926.4,0.663997,0.663702,0.699073,83,0.0399859,10,0.000463977,-3.15548,0.0969939,0.608286,0.663395,
2,1,0,1,0,54930.2,0.682974,0.682626,1.13951,83,0.0434224,10,0.000777863,-2.94328,0.0834687,0.706852,0.682125,
2,1,0,1,0,54934,0.701951,0.70163,1.8958,83,0.0490983,10,0.00133015,-2.72221,0.0847689,0.69601,0.700796,
2,1,0,1,0,54937.8,0.720928,0.720655,3.02293,83,0.0583414,10,0.00217849,-2.51957,0.0982902,0.600263,0.719325,
2,1,0,1,0,54941.6,0.739905,0.739608,4.55664,83,0.0726227,10,0.00337013,-2.34135,0.108298,0.544793,0.737603,
2,1,0,0,0,54945.4,0.758883,0.758573,6.55719,83,0.0935822,10,0.00497411,-2.18328,0.118761,0.496798,0.755687,
2,1,0,1,0,54949.2,0.77786,0.77759,9.14912,83,0.123204,10,0.00711427,-2.03862,0.12656,0.46618,0.773564,
2,1,0,0,0,54953,0.796837,0.796562,12.5943,83,0.164175,10,0.0100321,-1.89983,0.121482,0.485669,0.79102,
2,1,0,1,0,54956.8,0.815814,0.815489,17.1861,83,0.220399,10,0.014015,-1.76482,0.129576,0.455331,0.807927,
2,1,0,0,0,54960.6,0.834791,0.834472,22.8663,83,0.296229,10,0.0190813,-1.6408,0.14691,0.401608,0.824411,
2,1,0,0,0,54964.3,0.846726,0.846442,26.0309,83,0.390848,10,0.0220336,-1.58451,0.105161,0.561045,0.834989,
2,1,0,1,0,54968.1,0.827749,0.827501,19.0132,83,0.475494,10,0.0157334,-1.72095,0.121152,0.486991,0.819135,
2,1,0,1,0,54971.9,0.808772,0.808458,13.7631,83,0.53719,10,0.0111269,-1.86128,0.117736,0.501122,0.802402,
2,1,0,1,0,54975.7,0.789795,0.789476,9.77598,83,0.581459,10,0.0077179,-2.00984,0.11457,0.514971,0.785175,
2,1,0,1,0,54979.5,0.770818,0.770496,6.79946,83,0.612604,10,0.00523895,-2.16753,0.107941,0.546596,0.767504,
2,1,0,1,0,54983.3,0.751841,0.751555,4.62756,83,0.63404,10,0.00347787,-2.33465,0.103349,0.57088,0.749519,
2,1,0,1,0,54987.1,0.732865,0.732543,3.01864,83,0.64837,10,0.00221128,-2.52019,0.0916704,0.64361,0.731215,
2,1,0,0,0,54990.9,0.713887,0.713592,1.83621,83,0.657435,10,0.0013103,-2.73608,0.0783136,0.753382,0.712784,
2,1,0,1,0,54994.7,0.69491,0.694614,1.00313,83,0.662689,10,0.000696787,-2.99864,0.0643801,0.916432,0.694173,
2,1,0,0,0,54998.4,0.675933,0.675614,0.465488,83,0.665356,10,0.00031449,-3.33209,0.049521,1.19141,0.675409,
2,1,0,1,0,55002.2,0.656956,0.656625,0.160893,83,0.666454,10,0.000105646,-3.79346,0.032171,1.83395,0.656554,
2,1,0,0,0,55006,0.637979,0.637649,0.00939686,83,0.666711,10,5.9919e-06,-5.02702,0.00333953,17.6672,0.637645,
2,0,0,1,0,55009.8,0.619002,0.618703,-0.0577251,83,0.666573,10,-3.57147e-05,-4.23864,-0.0510827,-1.15499,0.618728,
2,0,0,0,0,55013.6,0.600024,0.599676,-0.0878054,83,0.666259,10,-5.26548e-05,-4.05648,-0.17152,-0.343984,0.599715,
2,0,0,1,0,55017.4,0.581047,0.580747,-0.101885,83,0.665867,10,-5.91695e-05,-3.99189,-0.441151,-0.133741,0.580792,
2,0,0,1,0,55021.2,0.56207,0.561731,-0.109858,83,0.665436,10,-6.17106e-05,-3.95917,-0.744874,-0.0792081,0.56178,
2,0,0,1,0,55025,0.543093,0.542747,-0.114521,83,0.664981,10,-6.21562e-05,-3.94111,-0.59995,-0.0983415,0.542797,
2,0,0,1,0,55028.8,0.524116,0.523768,-0.118933,83,0.664507,10,-6.22934e-05,-3.9247,-1.83712,-0.0321154,0.52382,
2,0,0,1,0,55032.6,0.505139,0.504795,-0.122856,83,0.664017,10,-6.20173e-05,-3.9106,-0.495551,-0.119059,0.504849,
2,0,0,1,0,55036.4,0.486162,0.485813,-0.128767,83,0.663507,10,-6.25567e-05,-3.8902,-1.01764,-0.0579774,0.48587,
2,0,0,1,0,55040.2,0.467185,0.466884,-0.135474,83,0.662975,10,-6.32508e-05,-3.86814,-2.65782,-0.0221986,0.466943,
2,0,0,1,0,55044,0.448208,0.447876,-0.141708,83,0.662418,10,-6.34675e-05,-3.84861,-5.23491,-0.0112705,0.447938,
2,0,0,0,0,55047.8,0.429231,0.428902,-0.149065,83,0.661832,10,-6.39342e-05,-3.82662,-0.97983,-0.0602145,0.428967,
2,0,0,1,0,55051.6,0.410254,0.409904,-0.157934,83,0.661214,10,-6.47377e-05,-3.80152,-0.918508,-0.0642346,0.409973,
2,0,0,0,0,55055.4,0.391277,0.390946,-0.167451,83,0.66056,10,-6.54642e-05,-3.77611,-0.508723,-0.115977,0.391019,
2,0,0,1,0,55059.2,0.3723,0.371966,-0.176626,83,0.659871,10,-6.56991e-05,-3.75294,-0.851245,-0.0693102,0.372044,
2,0,0,1,0,55063,0.353322,0.352979,-0.187248,83,0.659143,10,-6.60948e-05,-3.72758,-0.508426,-0.116044,0.353062,
2,0,0,1,0,55066.8,0.334345,0.334034,-0.197658,83,0.658373,10,-6.60246e-05,-3.70408,-0.893055,-0.0660654,0.334121,
2,0,0,1,0,55070.6,0.315368,0.315046,-0.209301,83,0.65756,10,-6.59395e-05,-3.67923,-1.02701,-0.0574485,0.315138,
2,0,0,1,0,55074.4,0.296391,0.296061,-0.22056,83,0.656702,10,-6.52992e-05,-3.65647,-0.74665,-0.0790196,0.296158,
2,0,0,1,0,55078.2,0.277414,0.277077,-0.231981,83,0.655798,10,-6.42767e-05,-3.63455,-0.800355,-0.0737173,0.277179,
2,0,0,1,0,55081.9,0.258437,0.258173,-0.244729,83,0.654847,10,-6.31825e-05,-3.61131,-1.20035,-0.0491525,0.258281,
2,0,0,1,0,55085.7,0.239461,0.239131,-0.255837,83,0.653851,10,-6.11786e-05,-3.59204,-0.607169,-0.0971722,0.239243,
2,0,0,0,0,55089.5,0.220483,0.220115,-0.26703,83,0.652813,10,-5.87773e-05,-3.57344,-0.627158,-0.0940752,0.220233,
2,0,0,1,0,55093.3,0.201506,0.201191,-0.280289,83,0.651728,10,-5.63917e-05,-3.55239,-0.546918,-0.107877,0.201314,
2,0,0,0,0,55097.1,0.182529,0.182176,-0.297699,83,0.650585,10,-5.42336e-05,-3.52622,-0.519237,-0.113628,0.182307,
2,0,0,1,0,55100.9,0.163552,0.163189,-0.327781,83,0.649356,10,-5.34904e-05,-3.48442,-0.3469,-0.170078,0.163334,
2,0,0,0,0,55104.7,0.144575,0.14419,-0.407902,83,0.64794,10,-5.88154e-05,-3.38944,-0.126941,-0.464782,0.14437,
2,0,0,1,0,55108.5,0.125598,0.125259,-0.603079,83,0.645979,10,-7.55408e-05,-3.21963,-0.146931,-0.401549,0.125524,
2,0,0,1,0,55112.3,0.10662,0.106265,-0.67244,83,0.643448,10,-7.1457e-05,-3.17235,7.91446,0.00745471,0.106561,
2,0,0,1,0,55116.1,0.0876433,0.0873171,-0.65273,83,0.640872,10,-5.69945e-05,-3.18527,0.939339,0.0628101,0.0876043,
2,0,0,1,0,55119.9,0.0686664,0.0683158,-0.615157,83,0.638413,10,-4.20249e-05,-3.21101,0.639479,0.0922627,0.0685864,
2,0,0,1,0,55123.7,0.0496895,0.0493473,-0.572511,83,0.636097,10,-2.82519e-05,-3.24222,0.553881,0.106521,0.0495992,
2,0,0,1,0,55127.5,0.0307126,0.0303662,-0.528982,83,0.633949,10,-1.60632e-05,-3.27656,0.620813,0.0950366,0.030599,
2,0,0,1,0,55131.3,0.0117356,0.0114064,-0.498176,83,0.631952,10,-5.68239e-06,-3.30262,1.63526,0.0360799,0.0116256,
2,0,0,0,0,55133.6,0.000274105,-0.000130871,-0.499352,83,0.630778,10,6.53509e-08,-3.30159, , ,8.88435e-05,