File: Figure_codes/Fig_3-5/workspace_calculate_alpha_eff/20221101_1-115_003_TrumpetPlot_ParaChange_from10_every3_16_CV_C01_75.csv
mode,ox/red,error,control changes,counter inc.,time/s,control/V,Ewe/V,<I>/mA,cycle number,(Q-Qo)/C,I Range,P/W,log(|I|),Tafel slope mV/dec,alpha_eff,E-IR/V,
2,0,0,1,0,50483.4,2.44065e-05,-0.000287149,-0.038335,76,0.0000000E+000,10,1.10078e-08,-4.4164, , ,-0.000270282,
2,1,0,1,0,50487.1,0.0187763,0.0184149,0.262301,76,0.000878543,10,4.83024e-06,-3.5812,0.175776,0.335655,0.0182995,
2,1,0,0,0,50490.9,0.0377538,0.0374283,0.325989,76,0.00205182,10,1.22012e-05,-3.4868,0.205705,0.286818,0.0372849,
2,1,0,1,0,50494.7,0.0567309,0.0564011,0.383382,76,0.00346087,10,2.16232e-05,-3.41637,0.399592,0.147651,0.0562324,
2,1,0,0,0,50498.5,0.075708,0.0753739,0.427239,76,0.00506375,10,3.22027e-05,-3.36933,0.671462,0.087868,0.0751859,
2,1,0,1,0,50502.3,0.094685,0.0943859,0.475991,76,0.0068174,10,4.49269e-05,-3.3224,0.262118,0.225089,0.0941765,
2,1,0,0,0,50506.1,0.113662,0.113344,0.567625,76,0.00885818,10,6.43368e-05,-3.24594,0.381375,0.154703,0.113094,
2,1,0,1,0,50509.9,0.132639,0.132351,0.601023,76,0.0111571,10,7.95458e-05,-3.22111,-0.525497,-0.112275,0.132086,
2,1,0,1,0,50513.7,0.151617,0.151286,0.404805,76,0.0131813,10,6.12416e-05,-3.39275,-0.0881479,-0.669329,0.151108,
2,1,0,1,0,50517.5,0.170594,0.17024,0.318552,76,0.0145531,10,5.42304e-05,-3.49682,-0.429489,-0.137373,0.1701,
2,1,0,1,0,50521.3,0.189571,0.189242,0.300517,76,0.0157711,10,5.68703e-05,-3.52213,-1.74915,-0.0337306,0.189109,
2,1,0,1,0,50525.1,0.208547,0.208249,0.294603,76,0.0169462,10,6.13507e-05,-3.53076,-1.31702,-0.044798,0.208119,
2,1,0,1,0,50528.9,0.227524,0.227191,0.288224,76,0.0180975,10,6.54819e-05,-3.54027,-0.802357,-0.0735334,0.227064,
2,1,0,1,0,50532.7,0.246501,0.246204,0.283846,76,0.0192297,10,6.98839e-05,-3.54692,-0.993319,-0.0593969,0.246079,
2,1,0,1,0,50536.5,0.265479,0.265143,0.280274,76,0.0203459,10,7.43128e-05,-3.55242,-3.71383,-0.0158866,0.26502,
2,1,0,0,0,50540.3,0.284456,0.284139,0.276832,76,0.0214478,10,7.86589e-05,-3.55778,-1.58777,-0.0371591,0.284018,
2,1,0,1,0,50544.1,0.303433,0.303149,0.272458,76,0.0225338,10,8.25954e-05,-3.5647,-3.57804,-0.0164895,0.303029,
2,1,0,0,0,50547.9,0.32241,0.322102,0.267688,76,0.0236039,10,8.62227e-05,-3.57237,-1.60105,-0.0368508,0.321984,
2,1,0,1,0,50551.7,0.341387,0.341082,0.265928,76,0.0246604,10,9.07033e-05,-3.57524,-9.36127,-0.00630256,0.340965,
2,1,0,0,0,50555.4,0.360364,0.360019,0.264292,76,0.0257062,10,9.51503e-05,-3.57792,29.0829,0.00202868,0.359902,
2,1,0,1,0,50559.2,0.379342,0.379025,0.260838,76,0.0267422,10,9.88643e-05,-3.58363,-1.86507,-0.0316342,0.37891,
2,1,0,1,0,50563,0.398319,0.397984,0.258192,76,0.0277689,10,0.000102756,-3.58806,-109.902,-0.000536842,0.39787,
2,1,0,1,0,50566.8,0.417295,0.416982,0.257239,76,0.0287878,10,0.000107264,-3.58966,107.756,0.000547534,0.416869,
2,1,0,1,0,50570.6,0.436272,0.435963,0.25696,76,0.0298011,10,0.000112025,-3.59013,3.37923,0.0174596,0.43585,
2,1,0,1,0,50574.4,0.455249,0.454949,0.256499,76,0.0308112,10,0.000116694,-3.59091,32.2292,0.00183064,0.454837,
2,1,0,1,0,50578.2,0.474226,0.47391,0.256962,76,0.0318194,10,0.000121777,-3.59013,1.98977,0.0296517,0.473797,
2,1,0,1,0,50582,0.493203,0.492913,0.259079,76,0.0328322,10,0.000127703,-3.58657,3.07644,0.019178,0.492799,
2,1,0,1,0,50585.8,0.512181,0.511869,0.262773,76,0.0338551,10,0.000134505,-3.58042,1.17346,0.0502787,0.511753,
2,1,0,0,0,50589.6,0.531158,0.53079,0.268827,76,0.0348935,10,0.000142691,-3.57053,1.71056,0.0344916,0.530672,
2,1,0,1,0,50593.4,0.550135,0.549797,0.275404,76,0.0359559,10,0.000151416,-3.56003,1.23865,0.0476325,0.549675,
2,1,0,0,0,50597.2,0.569112,0.568757,0.288759,76,0.0370568,10,0.000164234,-3.53946,0.761381,0.0774908,0.56863,
2,1,0,1,0,50601,0.588089,0.587803,0.307806,76,0.038217,10,0.000180929,-3.51172,0.466609,0.126444,0.587667,
2,1,0,0,0,50604.8,0.607066,0.606749,0.340768,76,0.0394726,10,0.00020676,-3.46754,0.351547,0.16783,0.606599,
2,1,0,1,0,50608.6,0.626044,0.62571,0.401933,76,0.0408992,10,0.000251494,-3.39585,0.213819,0.275934,0.625534,
2,1,0,1,0,50612.4,0.64502,0.644724,0.525449,76,0.0426618,10,0.000338769,-3.27947,0.132497,0.445294,0.644492,
2,1,0,1,0,50616.2,0.663997,0.663704,0.777109,76,0.0451078,10,0.00051577,-3.10952,0.0980398,0.601797,0.663362,
2,1,0,1,0,50620,0.682974,0.682717,1.26238,76,0.0489172,10,0.000861849,-2.89881,0.083317,0.708139,0.682161,
2,1,0,1,0,50623.8,0.701951,0.701611,2.0872,76,0.0551845,10,0.00146441,-2.68043,0.0851023,0.693284,0.700692,
2,1,0,1,0,50627.6,0.720928,0.720638,3.31099,76,0.0653325,10,0.00238603,-2.48004,0.0954987,0.61781,0.719181,
2,1,0,1,0,50631.4,0.739905,0.739604,4.95762,76,0.0809173,10,0.00366667,-2.30473,0.110176,0.535509,0.737422,
2,1,0,1,0,50635.1,0.758883,0.758646,7.07914,76,0.103627,10,0.00537056,-2.15002,0.122441,0.481866,0.755531,
2,1,0,0,0,50638.9,0.77786,0.777581,9.79486,76,0.135467,10,0.0076163,-2.009,0.129196,0.45667,0.773272,
2,1,0,1,0,50642.7,0.796837,0.79657,13.3706,76,0.179122,10,0.0106506,-1.87385,0.125939,0.468482,0.790687,
2,1,0,0,0,50646.5,0.815814,0.815594,18.0885,76,0.238534,10,0.0147529,-1.7426,0.134265,0.439428,0.807635,
2,1,0,1,0,50650.3,0.834791,0.834544,23.8425,76,0.317928,10,0.0198976,-1.62265,0.143499,0.411152,0.824054,
2,1,0,1,0,50654,0.846726,0.846471,29.1249,76,0.417055,10,0.0246534,-1.53574,2.14536,0.0275012,0.833656,
2,1,0,1,0,50657.8,0.827749,0.827473,21.0595,76,0.511143,10,0.0174262,-1.67655,0.117083,0.503918,0.818207,
2,1,0,1,0,50661.6,0.808772,0.808487,15.2661,76,0.57957,10,0.0123424,-1.81627,0.117113,0.503789,0.80177,
2,1,0,1,0,50665.4,0.789795,0.789512,10.859,76,0.628705,10,0.0085733,-1.96421,0.114276,0.516293,0.784734,
2,1,0,1,0,50669.2,0.770818,0.770571,7.5963,76,0.663381,10,0.00585349,-2.1194,0.111689,0.528253,0.767229,
2,1,0,1,0,50673,0.751841,0.751567,5.17817,76,0.68736,10,0.00389174,-2.28582,0.104139,0.566549,0.749288,
2,1,0,1,0,50676.8,0.732865,0.73256,3.38281,76,0.703391,10,0.00247812,-2.47072,0.093201,0.633041,0.731072,
2,1,0,1,0,50680.6,0.713887,0.713571,2.06907,76,0.713571,10,0.00147642,-2.68423,0.0796956,0.740317,0.712661,
2,1,0,0,0,50684.4,0.69491,0.694641,1.14631,76,0.719531,10,0.000796272,-2.9407,0.065791,0.896779,0.694136,
2,1,0,1,0,50688.2,0.675933,0.675631,0.55047,76,0.722627,10,0.000371914,-3.25927,0.0529592,1.11407,0.675389,
2,1,0,0,0,50692,0.656956,0.656689,0.213186,76,0.723974,10,0.000139997,-3.67124,0.0392971,1.50138,0.656595,
2,1,0,1,0,50695.8,0.637979,0.637702,0.0440915,76,0.724387,10,2.81172e-05,-4.35565,0.0166468,3.54422,0.637683,
2,0,0,0,0,50699.6,0.619002,0.618688,-0.0309146,76,0.724355,10,-1.91265e-05,-4.50984,-0.027289,-2.16204,0.618702,
2,0,0,1,0,50703.4,0.600024,0.599681,-0.0644739,76,0.724129,10,-3.86638e-05,-4.19062,-0.143798,-0.410298,0.59971,
2,0,0,1,0,50707.2,0.581047,0.580743,-0.0815628,76,0.723813,10,-4.7367e-05,-4.08851,-0.290907,-0.202814,0.580779,
2,0,0,1,0,50711,0.56207,0.561746,-0.0898646,76,0.723453,10,-5.04811e-05,-4.04641,-0.592982,-0.0994971,0.561786,
2,0,0,1,0,50714.8,0.543093,0.542772,-0.0958001,76,0.723064,10,-5.19976e-05,-4.01863,-1.87347,-0.0314924,0.542814,
2,0,0,1,0,50718.5,0.524116,0.523792,-0.101345,76,0.722654,10,-5.30837e-05,-3.9942,-2.12368,-0.027782,0.523837,
2,0,0,1,0,50722.3,0.505139,0.504819,-0.106387,76,0.722224,10,-5.37062e-05,-3.97311,-1.02971,-0.0572974,0.504865,
2,0,0,1,0,50726.1,0.486162,0.485822,-0.112443,76,0.721772,10,-5.46271e-05,-3.94907,-0.499918,-0.118019,0.485871,
2,0,0,1,0,50729.9,0.467185,0.466839,-0.118601,76,0.721295,10,-5.53674e-05,-3.92591,-1.76301,-0.0334656,0.466891,
2,0,0,0,0,50733.7,0.448208,0.447875,-0.126967,76,0.720792,10,-5.68654e-05,-3.89631,-8.2938,-0.00711375,0.44793,
2,0,0,1,0,50737.5,0.429231,0.428914,-0.134411,76,0.720257,10,-5.76509e-05,-3.87156,-1.07328,-0.0549715,0.428974,
2,0,0,0,0,50741.3,0.410254,0.409926,-0.143179,76,0.719689,10,-5.86926e-05,-3.84412,-4.15119,-0.0142128,0.409989,
2,0,0,1,0,50745.1,0.391277,0.39096,-0.153669,76,0.719084,10,-6.00784e-05,-3.81341,-1.21861,-0.048416,0.391028,
2,0,0,0,0,50748.9,0.3723,0.371972,-0.16358,76,0.718439,10,-6.0847e-05,-3.78627,-0.649971,-0.0907733,0.372044,
2,0,0,1,0,50752.7,0.353322,0.353019,-0.173382,76,0.717755,10,-6.12072e-05,-3.761,-1.22824,-0.0480361,0.353095,
2,0,0,1,0,50756.5,0.334345,0.334056,-0.184513,76,0.717028,10,-6.16375e-05,-3.73397,-0.665546,-0.088649,0.334137,
2,0,0,1,0,50760.3,0.315368,0.315035,-0.196408,76,0.716258,10,-6.18753e-05,-3.70684,-0.934057,-0.0631653,0.315122,
2,0,0,1,0,50764.1,0.296391,0.296036,-0.208802,76,0.715442,10,-6.18128e-05,-3.68027,-0.925737,-0.063733,0.296128,
2,0,0,1,0,50767.9,0.277414,0.277113,-0.219742,76,0.714578,10,-6.08934e-05,-3.65809,-0.894595,-0.0659516,0.27721,
2,0,0,1,0,50771.7,0.258437,0.25808,-0.232723,76,0.713666,10,-6.00611e-05,-3.63316,-0.784078,-0.0752476,0.258182,
2,0,0,1,0,50775.5,0.239461,0.239162,-0.245719,76,0.712707,10,-5.87665e-05,-3.60956,-0.691681,-0.0852994,0.23927,
2,0,0,1,0,50779.3,0.220483,0.220201,-0.257049,76,0.711703,10,-5.66025e-05,-3.58998,-0.523909,-0.112615,0.220314,
2,0,0,0,0,50783.1,0.201506,0.201175,-0.270048,76,0.710649,10,-5.43269e-05,-3.56856,-0.588446,-0.100264,0.201294,
2,0,0,1,0,50786.9,0.182529,0.182184,-0.288388,76,0.709537,10,-5.25398e-05,-3.54002,-0.412855,-0.142907,0.182311,
2,0,0,0,0,50790.7,0.163552,0.163214,-0.319792,76,0.708334,10,-5.21945e-05,-3.49513,-0.272161,-0.216783,0.163354,
2,0,0,1,0,50794.5,0.144575,0.144269,-0.408108,76,0.706929,10,-5.88771e-05,-3.38922,-0.111745,-0.527986,0.144448,
2,0,0,0,0,50798.3,0.125598,0.125279,-0.612436,76,0.704938,10,-7.67252e-05,-3.21294,-0.159315,-0.370336,0.125548,
2,0,0,1,0,50802,0.10662,0.106318,-0.672669,76,0.70238,10,-7.15171e-05,-3.1722,5.35171,0.0110245,0.106614,
2,0,0,1,0,50805.8,0.0876433,0.0873033,-0.647293,76,0.699804,10,-5.65109e-05,-3.1889,0.769505,0.0766726,0.0875881,
2,0,0,1,0,50809.6,0.0686664,0.068353,-0.609708,76,0.69736,10,-4.16754e-05,-3.21488,0.834218,0.0707249,0.0686213,
2,0,0,1,0,50813.4,0.0496895,0.0493411,-0.566686,76,0.695062,10,-2.79609e-05,-3.24666,0.596792,0.098862,0.0495904,
2,0,0,1,0,50817.2,0.0307126,0.0303504,-0.520809,76,0.692933,10,-1.58068e-05,-3.28332,0.643696,0.0916582,0.0305795,
2,0,0,1,0,50821,0.0117356,0.0114063,-0.493053,76,0.690955,10,-5.62389e-06,-3.30711,1.0877,0.0542427,0.0116232,
2,0,0,1,0,50823.3,0.000274105,-0.000110591,-0.494875,76,0.68979,10,5.47288e-08,-3.3055, , ,0.000107154,