File: Figure_codes/Fig_3-5/workspace_calculate_alpha_eff/20221101_1-115_003_TrumpetPlot_ParaChange_from10_every3_16_CV_C01_99.csv
mode,ox/red,error,control changes,counter inc.,time/s,control/V,Ewe/V,<I>/mA,cycle number,(Q-Qo)/C,I Range,P/W,log(|I|),Tafel slope mV/dec,alpha_eff,E-IR/V,
2,0,0,1,0,66244.4,2.44065e-05,-0.000248974,-0.0485115,100,0.0000000E+000,10,1.20781e-08,-4.31416, , ,-0.000227629,
2,1,0,1,0,66248.2,0.0187763,0.0185004,0.259504,100,0.000866048,10,4.80094e-06,-3.58586,0.173173,0.3407,0.0183863,
2,1,0,0,0,66252,0.0377538,0.0374251,0.321647,100,0.00202129,10,1.20377e-05,-3.49262,0.227799,0.259,0.0372836,
2,1,0,1,0,66255.8,0.0567309,0.0564022,0.377265,100,0.00340395,10,2.12785e-05,-3.42335,0.361725,0.163107,0.0562362,
2,1,0,0,0,66259.6,0.075708,0.0754227,0.417667,100,0.00497242,10,3.15016e-05,-3.37917,0.593824,0.099356,0.0752389,
2,1,0,1,0,66263.4,0.094685,0.0943796,0.465155,100,0.00668596,10,4.39011e-05,-3.3324,0.299305,0.197124,0.0941749,
2,1,0,0,0,66267.1,0.113662,0.113313,0.554999,100,0.00867523,10,6.28887e-05,-3.25571,0.379288,0.155555,0.113069,
2,1,0,1,0,66270.9,0.132639,0.132346,0.582389,100,0.010909,10,7.70771e-05,-3.23479,-0.511574,-0.11533,0.13209,
2,1,0,1,0,66274.7,0.151617,0.15131,0.393467,100,0.0128652,10,5.95355e-05,-3.40509,-0.0924859,-0.637935,0.151137,
2,1,0,1,0,66278.5,0.170594,0.170287,0.312617,100,0.0142018,10,5.32346e-05,-3.50499,-0.435045,-0.135618,0.170149,
2,1,0,1,0,66282.3,0.189571,0.189234,0.297999,100,0.0153989,10,5.63915e-05,-3.52579,-1.5743,-0.0374769,0.189103,
2,1,0,1,0,66286.1,0.208547,0.208258,0.292711,100,0.0165625,10,6.09592e-05,-3.53356,-2.57361,-0.022925,0.208129,
2,1,0,1,0,66289.9,0.227524,0.227158,0.288292,100,0.0177077,10,6.54878e-05,-3.54017,-2.09276,-0.0281924,0.227031,
2,1,0,1,0,66293.7,0.246501,0.246175,0.284631,100,0.0188379,10,7.00692e-05,-3.54572,-2.0064,-0.0294059,0.24605,
2,1,0,1,0,66297.5,0.265479,0.26516,0.281368,100,0.0199543,10,7.46076e-05,-3.55073,-1.11544,-0.0528941,0.265036,
2,1,0,0,0,66301.3,0.284456,0.284139,0.277911,100,0.021057,10,7.89655e-05,-3.55609,7.94655,0.00742461,0.284017,
2,1,0,1,0,66305.1,0.303433,0.303121,0.273723,100,0.0221449,10,8.29709e-05,-3.56269,-4.4428,-0.0132799,0.303,
2,1,0,0,0,66308.9,0.32241,0.322103,0.271014,100,0.0232164,10,8.72943e-05,-3.56701,-1.70937,-0.0345157,0.321984,
2,1,0,1,0,66312.7,0.341387,0.341106,0.267797,100,0.0242756,10,9.13471e-05,-3.5722,-2.22242,-0.0265476,0.340989,
2,1,0,0,0,66316.5,0.360364,0.360092,0.265782,100,0.025324,10,9.57061e-05,-3.57547,-13.5663,-0.004349,0.359975,
2,1,0,1,0,66320.3,0.379342,0.37905,0.263575,100,0.0263637,10,9.99081e-05,-3.5791,-7.0545,-0.00836346,0.378934,
2,1,0,1,0,66324.1,0.398319,0.398002,0.261196,100,0.0273941,10,0.000103956,-3.58303,-5.3915,-0.0109432,0.397887,
2,1,0,1,0,66327.9,0.417295,0.41701,0.259577,100,0.0284161,10,0.000108246,-3.58573,7.26063,0.00812601,0.416896,
2,1,0,1,0,66331.7,0.436272,0.435994,0.258816,100,0.0294321,10,0.000112842,-3.58701,-6.85388,-0.00860827,0.43588,
2,1,0,1,0,66335.5,0.455249,0.454964,0.258222,100,0.0304441,10,0.000117482,-3.58801,7.51191,0.00785419,0.454851,
2,1,0,1,0,66339.3,0.474226,0.473895,0.257948,100,0.0314548,10,0.00012224,-3.58847,620.747,9.50468e-05,0.473781,
2,1,0,1,0,66343.1,0.493203,0.492919,0.260743,100,0.0324695,10,0.000128525,-3.58379,1.7248,0.0342069,0.492805,
2,1,0,1,0,66346.9,0.512181,0.511889,0.264705,100,0.0334937,10,0.000135499,-3.57724,2.24796,0.026246,0.511773,
2,1,0,0,0,66350.6,0.531158,0.530843,0.26906,100,0.034533,10,0.000142828,-3.57015,4.11639,0.0143329,0.530724,
2,1,0,1,0,66354.4,0.550135,0.549852,0.275966,100,0.0355936,10,0.000151741,-3.55914,0.926415,0.0636864,0.54973,
2,1,0,0,0,66358.2,0.569112,0.568811,0.287836,100,0.03669,10,0.000163724,-3.54085,0.85247,0.0692107,0.568684,
2,1,0,1,0,66362,0.588089,0.587769,0.305646,100,0.0378391,10,0.000179649,-3.51478,0.54383,0.10849,0.587634,
2,1,0,0,0,66365.8,0.607066,0.606756,0.334683,100,0.0390757,10,0.000203071,-3.47537,0.368893,0.159938,0.606609,
2,1,0,1,0,66369.6,0.626043,0.625817,0.389441,100,0.0404651,10,0.000243719,-3.40956,0.217541,0.271214,0.625645,
2,1,0,1,0,66373.4,0.64502,0.644768,0.497213,100,0.0421517,10,0.000320587,-3.30346,0.144422,0.408524,0.644549,
2,1,0,1,0,66377.2,0.663997,0.663704,0.713392,100,0.0444282,10,0.000473482,-3.14667,0.104443,0.5649,0.663391,
2,1,0,1,0,66381,0.682974,0.682678,1.12526,100,0.0478675,10,0.000768192,-2.94875,0.0907354,0.650242,0.682183,
2,1,0,1,0,66384.8,0.701951,0.701673,1.81985,100,0.053381,10,0.00127694,-2.73997,0.0891163,0.662056,0.700872,
2,1,0,1,0,66388.6,0.720928,0.720607,2.8487,100,0.0621576,10,0.0020528,-2.54535,0.101838,0.579349,0.719353,
2,1,0,1,0,66392.4,0.739905,0.739623,4.23153,100,0.0754992,10,0.00312973,-2.3735,0.114245,0.516434,0.737761,
2,1,0,1,0,66396.2,0.758883,0.758586,6.02031,100,0.0948385,10,0.00456693,-2.22038,0.125261,0.471015,0.755938,
2,1,0,0,0,66400,0.77786,0.777621,8.31199,100,0.121888,10,0.00646357,-2.0803,0.132397,0.44563,0.773963,
2,1,0,1,0,66403.8,0.796837,0.796634,11.2858,100,0.158846,10,0.00899061,-1.94747,0.130718,0.451353,0.791668,
2,1,0,0,0,66407.6,0.815814,0.81555,15.2349,100,0.208905,10,0.0124249,-1.81716,0.135325,0.435988,0.808847,
2,1,0,1,0,66411.4,0.834791,0.834559,20.1254,100,0.275702,10,0.0167959,-1.69626,0.148483,0.397352,0.825704,
2,1,0,1,0,66415.1,0.846726,0.846514,23.0186,100,0.359177,10,0.0194856,-1.63792,0.105147,0.561118,0.836386,
2,1,0,1,0,66418.9,0.827749,0.8275,16.8767,100,0.434211,10,0.0139655,-1.77271,0.123745,0.476785,0.820074,
2,1,0,1,0,66422.7,0.808772,0.808523,12.2125,100,0.488931,10,0.00987406,-1.9132,0.119349,0.49435,0.803149,
2,1,0,1,0,66426.5,0.789795,0.789536,8.74691,100,0.528367,10,0.00690601,-2.05815,0.117137,0.503683,0.785688,
2,1,0,1,0,66430.3,0.770818,0.770549,6.1655,100,0.556401,10,0.00475082,-2.21003,0.116428,0.506749,0.767836,
2,1,0,1,0,66434,0.751841,0.751574,4.25045,100,0.57596,10,0.00319453,-2.37156,0.108039,0.546098,0.749704,
2,1,0,1,0,66437.8,0.732864,0.732594,2.81409,100,0.589202,10,0.00206159,-2.55066,0.096375,0.612192,0.731356,
2,1,0,1,0,66441.6,0.713887,0.713612,1.74252,100,0.597719,10,0.00124348,-2.75882,0.0815242,0.723712,0.712846,
2,1,0,0,0,66445.4,0.69491,0.694681,0.975279,100,0.60276,10,0.000677508,-3.01087,0.0661012,0.892571,0.694252,
2,1,0,1,0,66449.2,0.675933,0.675629,0.47118,100,0.605403,10,0.000318342,-3.32681,0.0524787,1.12426,0.675421,
2,1,0,0,0,66453,0.656956,0.656694,0.179519,100,0.606553,10,0.000117889,-3.74589,0.0378106,1.56041,0.656615,
2,1,0,1,0,66456.8,0.637979,0.637695,0.0293288,100,0.606887,10,1.87028e-05,-4.53271,0.0123294,4.78531,0.637682,
2,0,0,0,0,66460.6,0.619002,0.61873,-0.0373206,100,0.606828,10,-2.30914e-05,-4.42805,-0.0434855,-1.35678,0.618747,
2,0,0,1,0,66464.4,0.600025,0.599736,-0.0675693,100,0.606595,10,-4.05238e-05,-4.17025,-0.184553,-0.319692,0.599766,
2,0,0,1,0,66468.2,0.581047,0.580776,-0.0819188,100,0.606279,10,-4.75765e-05,-4.08662,-0.276425,-0.213439,0.580812,
2,0,0,1,0,66472,0.56207,0.561742,-0.0908424,100,0.605921,10,-5.103e-05,-4.04171,-0.405884,-0.145362,0.561782,
2,0,0,1,0,66475.8,0.543093,0.542798,-0.0978997,100,0.605535,10,-5.31397e-05,-4.00922,-1.10142,-0.0535674,0.542841,
2,0,0,1,0,66479.6,0.524116,0.523795,-0.10231,100,0.605128,10,-5.35892e-05,-3.99008,-2.27746,-0.0259061,0.52384,
2,0,0,1,0,66483.4,0.505139,0.504832,-0.107851,100,0.604701,10,-5.44465e-05,-3.96718,-0.571426,-0.10325,0.50488,
2,0,0,1,0,66487.2,0.486162,0.485845,-0.113772,100,0.604252,10,-5.52756e-05,-3.94396,-0.595718,-0.0990402,0.485895,
2,0,0,1,0,66491,0.467185,0.466833,-0.119778,100,0.603778,10,-5.59164e-05,-3.92162,-0.983399,-0.059996,0.466886,
2,0,0,0,0,66494.8,0.448208,0.447899,-0.127634,100,0.603279,10,-5.71672e-05,-3.89403,-0.583256,-0.101156,0.447955,
2,0,0,1,0,66498.6,0.429231,0.428913,-0.134994,100,0.602749,10,-5.79008e-05,-3.86969,-2.12672,-0.0277422,0.428973,
2,0,0,0,0,66502.4,0.410254,0.40996,-0.144791,100,0.602185,10,-5.93584e-05,-3.83926,-0.721352,-0.0817909,0.410023,
2,0,0,1,0,66506.2,0.391277,0.390979,-0.154689,100,0.601583,10,-6.04803e-05,-3.81054,-0.478902,-0.123199,0.391048,
2,0,0,0,0,66510,0.3723,0.372023,-0.164725,100,0.600944,10,-6.12815e-05,-3.78324,-0.671259,-0.0878946,0.372095,
2,0,0,1,0,66513.8,0.353322,0.352963,-0.174715,100,0.600264,10,-6.1668e-05,-3.75767,-0.60398,-0.0976854,0.35304,
2,0,0,1,0,66517.5,0.334345,0.334076,-0.185954,100,0.599542,10,-6.21227e-05,-3.73059,-0.837148,-0.0704774,0.334157,
2,0,0,1,0,66521.3,0.315368,0.315068,-0.196517,100,0.598777,10,-6.19164e-05,-3.7066,-1.58484,-0.0372278,0.315155,
2,0,0,1,0,66525.1,0.296391,0.296075,-0.210473,100,0.597965,10,-6.23159e-05,-3.6768,-0.654622,-0.0901284,0.296168,
2,0,0,1,0,66528.9,0.277414,0.277114,-0.22175,100,0.597106,10,-6.14501e-05,-3.65414,-0.744101,-0.0792903,0.277212,
2,0,0,1,0,66532.7,0.258437,0.258115,-0.234847,100,0.596198,10,-6.06175e-05,-3.62922,-0.955743,-0.0617321,0.258218,
2,0,0,1,0,66536.5,0.239461,0.23913,-0.246126,100,0.595245,10,-5.88561e-05,-3.60884,-0.854684,-0.0690314,0.239238,
2,0,0,1,0,66540.3,0.220483,0.220152,-0.256765,100,0.594248,10,-5.65274e-05,-3.59046,-0.689157,-0.0856118,0.220265,
2,0,0,0,0,66544.1,0.201506,0.201173,-0.270906,100,0.593203,10,-5.44991e-05,-3.56718,-0.558406,-0.105658,0.201292,
2,0,0,1,0,66547.9,0.182529,0.182226,-0.287425,100,0.592101,10,-5.23763e-05,-3.54147,-0.391678,-0.150634,0.182352,
2,0,0,0,0,66551.7,0.163552,0.163264,-0.315801,100,0.590915,10,-5.15588e-05,-3.50059,-0.32964,-0.178983,0.163403,
2,0,0,1,0,66555.5,0.144575,0.144277,-0.392868,100,0.58955,10,-5.66819e-05,-3.40575,-0.130947,-0.450564,0.14445,
2,0,0,0,0,66559.3,0.125598,0.125248,-0.578671,100,0.587674,10,-7.24774e-05,-3.23757,-0.143728,-0.410499,0.125503,
2,0,0,1,0,66563.1,0.10662,0.106287,-0.652117,100,0.58523,10,-6.93113e-05,-3.18567,-5.0618,-0.0116559,0.106573,
2,0,0,1,0,66566.9,0.0876433,0.0873223,-0.639472,100,0.58272,10,-5.58401e-05,-3.19418,0.960497,0.0614266,0.0876037,
2,0,0,1,0,66570.7,0.0686664,0.0683453,-0.604832,100,0.580309,10,-4.13375e-05,-3.21837,0.6866,0.0859307,0.0686114,
2,0,0,1,0,66574.5,0.0496895,0.0493484,-0.565916,100,0.578032,10,-2.79271e-05,-3.24725,0.616111,0.095762,0.0495974,
2,0,0,1,0,66578.3,0.0307126,0.0304077,-0.522089,100,0.575916,10,-1.58756e-05,-3.28226,0.553164,0.106659,0.0306375,
2,0,0,1,0,66582.1,0.0117356,0.0113797,-0.491887,100,0.573947,10,-5.59754e-06,-3.30813,1.39762,0.0422147,0.0115962,
2,0,0,1,0,66584.4,0.000274105,-0.000173818,-0.493726,100,0.572788,10,8.58183e-08,-3.30651, , ,4.34213e-05,