File: Figure_codes/Fig_3-5/workspace_calculate_alpha_eff/20221101_1-115_003_TrumpetPlot_ParaChange_from10_every3_16_CV_C01_100.csv
mode,ox/red,error,control changes,counter inc.,time/s,control/V,Ewe/V,<I>/mA,cycle number,(Q-Qo)/C,I Range,P/W,log(|I|),Tafel slope mV/dec,alpha_eff,E-IR/V,
2,0,0,0,0,66614.4,2.44065e-05,-0.00042076,-0.0962139,101,0.0000000E+000,10,4.0483e-08,-4.01676, , ,-0.000378426,
2,1,0,1,0,66618.2,0.0187763,0.0184402,0.21128,101,0.000678141,10,3.89606e-06,-3.67514,0.154779,0.38119,0.0183473,
2,1,0,1,0,66622,0.0377538,0.0374283,0.273914,101,0.00164724,10,1.02521e-05,-3.56239,0.167502,0.352234,0.0373078,
2,1,0,0,0,66625.8,0.0567309,0.0563693,0.331367,101,0.00285347,10,1.86789e-05,-3.47969,0.293083,0.201308,0.0562235,
2,1,0,1,0,66629.6,0.075708,0.0753675,0.374672,101,0.00425293,10,2.82381e-05,-3.42635,0.463935,0.127173,0.0752027,
2,1,0,0,0,66633.4,0.094685,0.0943711,0.425749,101,0.0058115,10,4.01784e-05,-3.37085,0.257755,0.228899,0.0941838,
2,1,0,1,0,66637.1,0.113662,0.113324,0.517289,101,0.00764825,10,5.86211e-05,-3.28627,0.300473,0.196357,0.113096,
2,1,0,0,0,66640.9,0.132639,0.132311,0.547364,101,0.00974308,10,7.24225e-05,-3.26172,-0.544192,-0.108418,0.132071,
2,1,0,1,0,66644.7,0.151617,0.151297,0.365711,101,0.0115814,10,5.53311e-05,-3.43686,-0.0827117,-0.713321,0.151136,
2,1,0,1,0,66648.5,0.170594,0.170282,0.281704,101,0.0128041,10,4.7969e-05,-3.55021,-0.315828,-0.186811,0.170158,
2,1,0,1,0,66652.3,0.189571,0.189228,0.265237,101,0.0138809,10,5.01902e-05,-3.57637,-0.863675,-0.0683127,0.189111,
2,1,0,1,0,66656.1,0.208547,0.208261,0.259499,101,0.0149198,10,5.40434e-05,-3.58587,-1.24483,-0.047396,0.208147,
2,1,0,1,0,66659.9,0.227524,0.227202,0.253538,101,0.0159366,10,5.76041e-05,-3.59596,-1.28334,-0.0459738,0.22709,
2,1,0,1,0,66663.7,0.246501,0.246214,0.251248,101,0.016937,10,6.18607e-05,-3.5999,-3.45592,-0.0170722,0.246103,
2,1,0,0,0,66667.5,0.265479,0.265172,0.247578,101,0.0179245,10,6.56506e-05,-3.60629,-1.13767,-0.0518605,0.265063,
2,1,0,1,0,66671.3,0.284456,0.284135,0.242659,101,0.0188958,10,6.89478e-05,-3.615,-3.96582,-0.0148771,0.284028,
2,1,0,0,0,66675.1,0.303433,0.30314,0.239144,101,0.0198492,10,7.24941e-05,-3.62134,-2.68885,-0.0219424,0.303034,
2,1,0,1,0,66678.9,0.32241,0.322099,0.235781,101,0.0207883,10,7.59449e-05,-3.62749,-3.74328,-0.0157616,0.321995,
2,1,0,0,0,66682.7,0.341387,0.341087,0.233611,101,0.0217155,10,7.96819e-05,-3.63151,-7.21419,-0.00817832,0.340985,
2,1,0,1,0,66686.5,0.360364,0.360039,0.231643,101,0.0226325,10,8.34005e-05,-3.63518,-4.82159,-0.0122366,0.359937,
2,1,0,1,0,66690.3,0.379342,0.37902,0.229298,101,0.0235403,10,8.69085e-05,-3.6396,-3.05537,-0.0193102,0.378919,
2,1,0,1,0,66694.1,0.398319,0.397966,0.228168,101,0.0244413,10,9.08032e-05,-3.64174,-3.71479,-0.0158824,0.397865,
2,1,0,1,0,66697.9,0.417295,0.416997,0.226772,101,0.0253362,10,9.45633e-05,-3.64441,2.39055,0.0246805,0.416897,
2,1,0,1,0,66701.7,0.436272,0.436021,0.225888,101,0.0262265,10,9.84919e-05,-3.64611,-45.3893,-0.00129987,0.435922,
2,1,0,1,0,66705.5,0.455249,0.454979,0.226375,101,0.0271135,10,0.000102996,-3.64517,1.04982,0.0562001,0.45488,
2,1,0,1,0,66709.3,0.474226,0.473913,0.22675,101,0.0280017,10,0.00010746,-3.64445,1.6661,0.0354121,0.473814,
2,1,0,1,0,66713.1,0.493203,0.492872,0.228862,101,0.0288966,10,0.0001128,-3.64043,1.30666,0.0451534,0.492772,
2,1,0,0,0,66716.9,0.512181,0.511842,0.233067,101,0.0298015,10,0.000119293,-3.63252,1.43939,0.0409897,0.51174,
2,1,0,1,0,66720.6,0.531158,0.530839,0.23819,101,0.0307232,10,0.000126441,-3.62308,3.2098,0.0183812,0.530734,
2,1,0,0,0,66724.4,0.550135,0.549842,0.24626,101,0.0316688,10,0.000135404,-3.60861,1.02292,0.057678,0.549734,
2,1,0,1,0,66728.2,0.569112,0.568824,0.258493,101,0.0326516,10,0.000147037,-3.58755,0.76564,0.0770597,0.568711,
2,1,0,0,0,66732,0.588089,0.587775,0.276832,101,0.0336905,10,0.000162715,-3.55778,0.483858,0.121937,0.587653,
2,1,0,1,0,66735.8,0.607066,0.606775,0.306308,101,0.0348172,10,0.00018586,-3.51384,0.363539,0.162293,0.606641,
2,1,0,1,0,66739.6,0.626043,0.625737,0.360871,101,0.0360982,10,0.00022581,-3.44265,0.214741,0.27475,0.625578,
2,1,0,1,0,66743.4,0.64502,0.644758,0.468047,101,0.0376739,10,0.000301777,-3.32971,0.137002,0.430651,0.644553,
2,1,0,1,0,66747.2,0.663997,0.66369,0.682453,101,0.0398371,10,0.000452937,-3.16593,0.0998648,0.590799,0.663389,
2,1,0,1,0,66751,0.682974,0.682693,1.09247,101,0.0431559,10,0.00074582,-2.96159,0.0885029,0.666645,0.682212,
2,1,0,1,0,66754.8,0.701951,0.701679,1.78603,101,0.0485439,10,0.00125322,-2.74811,0.0887114,0.665078,0.700894,
2,1,0,1,0,66758.6,0.720928,0.720662,2.80767,101,0.0571784,10,0.00202338,-2.55165,0.100478,0.587194,0.719426,
2,1,0,1,0,66762.4,0.739905,0.739674,4.17829,101,0.0703426,10,0.00309057,-2.379,0.112302,0.525368,0.737835,
2,1,0,0,0,66766.2,0.758883,0.758595,5.95405,101,0.0894554,10,0.00451671,-2.22519,0.123568,0.477468,0.755975,
2,1,0,1,0,66770,0.77786,0.777579,8.24074,101,0.116235,10,0.00640783,-2.08403,0.131476,0.44875,0.773954,
2,1,0,0,0,66773.8,0.796837,0.796556,11.2065,101,0.1529,10,0.00892661,-1.95053,0.131986,0.447018,0.791625,
2,1,0,1,0,66777.6,0.815814,0.815521,15.1804,101,0.202681,10,0.0123799,-1.81872,0.130381,0.452521,0.808841,
2,1,0,0,0,66781.4,0.834791,0.834545,20.1913,101,0.269573,10,0.0168506,-1.69483,0.146101,0.403831,0.825661,
2,1,0,0,0,66785.1,0.846726,0.846507,23.0977,101,0.353249,10,0.0195523,-1.63643,0.106232,0.55539,0.836344,
2,1,0,1,0,66788.9,0.827749,0.827474,16.874,101,0.428385,10,0.0139628,-1.77278,0.124707,0.473109,0.82005,
2,1,0,1,0,66792.7,0.808772,0.808555,12.2541,101,0.483236,10,0.00990808,-1.91172,0.121718,0.484729,0.803163,
2,1,0,1,0,66796.5,0.789795,0.789556,8.77128,101,0.522786,10,0.00692541,-2.05694,0.118877,0.496311,0.785696,
2,1,0,1,0,66800.3,0.770818,0.770558,6.1767,101,0.550892,10,0.00475951,-2.20924,0.114482,0.515365,0.767841,
2,1,0,1,0,66804,0.751841,0.751561,4.25338,101,0.570479,10,0.00319668,-2.37127,0.107132,0.550722,0.74969,
2,1,0,1,0,66807.8,0.732865,0.732571,2.81359,101,0.583732,10,0.00206115,-2.55074,0.0953487,0.618781,0.731333,
2,1,0,0,0,66811.6,0.713887,0.713644,1.73723,101,0.592239,10,0.00123977,-2.76014,0.080116,0.736432,0.71288,
2,1,0,1,0,66815.4,0.69491,0.694649,0.96483,101,0.597251,10,0.000670218,-3.01555,0.0652096,0.904774,0.694225,
2,1,0,0,0,66819.2,0.675933,0.675659,0.456306,101,0.599846,10,0.000308308,-3.34074,0.0511133,1.1543,0.675459,
2,1,0,1,0,66823,0.656956,0.65667,0.161523,101,0.600934,10,0.000106067,-3.79176,0.0330201,1.78679,0.656599,
2,1,0,0,0,66826.8,0.637979,0.637675,0.0111283,101,0.601199,10,7.09622e-06,-4.95357,0.00301292,19.5823,0.63767,
2,0,0,1,0,66830.6,0.619002,0.618709,-0.0559289,101,0.601071,10,-3.46037e-05,-4.25236,-0.0528332,-1.11672,0.618734,
2,0,0,0,0,66834.4,0.600025,0.599703,-0.0861532,101,0.600766,10,-5.16663e-05,-4.06473,-0.197207,-0.299179,0.59974,
2,0,0,1,0,66838.2,0.581047,0.580734,-0.101897,101,0.600379,10,-5.9175e-05,-3.99184,-0.643527,-0.0916822,0.580778,
2,0,0,1,0,66842,0.56207,0.561757,-0.109295,101,0.599951,10,-6.13974e-05,-3.9614,-0.787837,-0.0748886,0.561805,
2,0,0,1,0,66845.8,0.543093,0.542782,-0.114833,101,0.599497,10,-6.23293e-05,-3.93993,-0.790762,-0.0746116,0.542832,
2,0,0,1,0,66849.6,0.524116,0.523813,-0.119547,101,0.599025,10,-6.26202e-05,-3.92246,-1.68493,-0.0350163,0.523865,
2,0,0,1,0,66853.4,0.505139,0.504866,-0.124691,101,0.598535,10,-6.29524e-05,-3.90416,-0.492295,-0.119847,0.504921,
2,0,0,1,0,66857.2,0.486162,0.485859,-0.129161,101,0.598025,10,-6.27538e-05,-3.88887,-0.857454,-0.0688084,0.485915,
2,0,0,1,0,66861,0.467185,0.46683,-0.136071,101,0.597493,10,-6.35222e-05,-3.86623,-0.841885,-0.0700808,0.46689,
2,0,0,1,0,66864.8,0.448208,0.447903,-0.142839,101,0.596934,10,-6.39778e-05,-3.84515,-0.940752,-0.0627158,0.447966,
2,0,0,0,0,66868.6,0.429231,0.428899,-0.151231,101,0.596347,10,-6.48626e-05,-3.82036,-1.03441,-0.0570376,0.428965,
2,0,0,1,0,66872.4,0.410254,0.409944,-0.159558,101,0.595726,10,-6.54098e-05,-3.79708,-0.725452,-0.0813286,0.410014,
2,0,0,0,0,66876.2,0.391277,0.390974,-0.168888,101,0.595069,10,-6.60308e-05,-3.7724,-0.73844,-0.0798981,0.391049,
2,0,0,1,0,66880,0.3723,0.371981,-0.178475,101,0.594375,10,-6.63895e-05,-3.74842,-0.688124,-0.0857404,0.37206,
2,0,0,1,0,66883.8,0.353322,0.352993,-0.18873,101,0.593642,10,-6.66203e-05,-3.72416,-0.924931,-0.0637885,0.353076,
2,0,0,1,0,66887.5,0.334345,0.334006,-0.199306,101,0.592869,10,-6.65694e-05,-3.70048,-0.713009,-0.0827479,0.334093,
2,0,0,1,0,66891.3,0.315368,0.315054,-0.210706,101,0.592051,10,-6.63837e-05,-3.67632,-0.837503,-0.0704475,0.315147,
2,0,0,1,0,66895.1,0.296391,0.296064,-0.222793,101,0.59119,10,-6.5961e-05,-3.6521,-0.810165,-0.0728247,0.296162,
2,0,0,1,0,66898.9,0.277414,0.27707,-0.234828,101,0.590282,10,-6.50636e-05,-3.62925,-0.70539,-0.0836417,0.277173,
2,0,0,1,0,66902.7,0.258437,0.258105,-0.246516,101,0.589327,10,-6.3627e-05,-3.60815,-0.854669,-0.0690326,0.258213,
2,0,0,1,0,66906.5,0.239461,0.239147,-0.257552,101,0.588328,10,-6.15927e-05,-3.58914,-0.784997,-0.0751595,0.23926,
2,0,0,0,0,66910.3,0.220483,0.220154,-0.268836,101,0.587286,10,-5.91855e-05,-3.57051,-0.982839,-0.0600302,0.220273,
2,0,0,1,0,66914.1,0.201506,0.201184,-0.28151,101,0.586198,10,-5.66352e-05,-3.55051,-0.687477,-0.0858211,0.201308,
2,0,0,0,0,66917.9,0.182529,0.182236,-0.298931,101,0.58505,10,-5.44762e-05,-3.52443,-0.626801,-0.0941288,0.182368,
2,0,0,1,0,66921.7,0.163552,0.163228,-0.327874,101,0.58382,10,-5.3518e-05,-3.48429,-0.362326,-0.162837,0.163372,
2,0,0,0,0,66925.5,0.144575,0.144302,-0.403361,101,0.582413,10,-5.8206e-05,-3.39431,-0.129623,-0.455165,0.14448,
2,0,0,1,0,66929.3,0.125598,0.125309,-0.58926,101,0.580494,10,-7.38399e-05,-3.22969,-0.150666,-0.391593,0.125569,
2,0,0,1,0,66933.1,0.10662,0.106289,-0.662049,101,0.578014,10,-7.03683e-05,-3.17911,-9.96989,-0.00591782,0.10658,
2,0,0,1,0,66936.9,0.0876433,0.0872895,-0.646044,101,0.575469,10,-5.63928e-05,-3.18974,0.859847,0.0686169,0.0875737,
2,0,0,1,0,66940.7,0.0686664,0.0683666,-0.613162,101,0.573025,10,-4.19198e-05,-3.21242,0.834395,0.0707099,0.0686364,
2,0,0,1,0,66944.5,0.0496895,0.0493656,-0.572953,101,0.570719,10,-2.82841e-05,-3.24188,0.561227,0.105127,0.0496177,
2,0,0,1,0,66948.3,0.0307126,0.0303684,-0.52803,101,0.568577,10,-1.60354e-05,-3.27734,0.507271,0.116309,0.0306007,
2,0,0,1,0,66952.1,0.0117356,0.0114084,-0.498998,101,0.566584,10,-5.69278e-06,-3.3019,1.64984,0.035761,0.011628,
2,0,0,0,0,66954.4,0.000274105,-8.6732e-05,-0.501386,101,0.565409,10,4.34862e-08,-3.29983, , ,0.000133878,