File: Figure_codes/Fig_3-5/workspace_calculate_alpha_eff/20221101_1-115_003_TrumpetPlot_ParaChange_from10_every3_16_CV_C01_0.csv
mode,ox/red,error,control changes,counter inc.,time/s,control/V,Ewe/V,<I>/mA,cycle number,(Q-Qo)/C,I Range,P/W,log(|I|),Tafel slope mV/dec,alpha_eff,E-IR/V,
2,0,0,0,0,1230.12,2.44065e-05,-0.000344411,-0.0357908,1,0.0000000E+000,10,1.23268e-08,-4.44623, , ,-0.000328663,
2,1,0,1,0,1233.87,0.0187763,0.0184996,0.266968,1,0.000960446,10,4.93881e-06,-3.57354,0.237608,0.248309,0.0183822,
2,1,0,1,0,1237.66,0.0377538,0.0374358,0.319236,1,0.00214585,10,1.19508e-05,-3.49589,0.238476,0.247404,0.0372953,
2,1,0,0,0,1241.46,0.0567309,0.0564372,0.391353,1,0.00357456,10,2.20869e-05,-3.40743,0.23501,0.251053,0.056265,
2,1,0,1,0,1245.26,0.075708,0.0753686,0.465888,1,0.00529751,10,3.51133e-05,-3.33172,0.346294,0.170376,0.0751636,
2,1,0,0,0,1249.05,0.094685,0.0943753,0.532289,1,0.0072673,10,5.02349e-05,-3.27385,0.290923,0.202803,0.0941411,
2,1,0,1,0,1252.85,0.113662,0.113388,0.663152,1,0.00958743,10,7.51938e-05,-3.17839,0.184167,0.320361,0.113097,
2,1,0,0,0,1256.64,0.132639,0.132344,0.790273,1,0.012438,10,0.000104588,-3.10222,0.438032,0.134693,0.131997,
2,1,0,1,0,1260.44,0.151617,0.151308,0.643099,1,0.0153954,10,9.7306e-05,-3.19172,-0.0763695,-0.772559,0.151025,
2,1,0,1,0,1264.23,0.170594,0.170264,0.393166,1,0.0173488,10,6.69422e-05,-3.40542,-0.131368,-0.449121,0.170091,
2,1,0,1,0,1268.03,0.189571,0.189267,0.325989,1,0.0187615,10,6.16989e-05,-3.4868,-0.474645,-0.124303,0.189123,
2,1,0,1,0,1271.82,0.208547,0.20827,0.301946,1,0.0200198,10,6.28864e-05,-3.52007,-2.51523,-0.0234571,0.208137,
2,1,0,1,0,1275.62,0.227524,0.227223,0.289855,1,0.0212127,10,6.58616e-05,-3.53782,-1.13542,-0.051963,0.227095,
2,1,0,1,0,1279.41,0.246501,0.246242,0.28078,1,0.0223684,10,6.91399e-05,-3.55163,-0.696312,-0.0847321,0.246119,
2,1,0,0,0,1283.21,0.265479,0.265234,0.276038,1,0.0234994,10,7.32149e-05,-3.55903,-0.740668,-0.0796578,0.265113,
2,1,0,1,0,1287,0.284456,0.284194,0.271146,1,0.0246113,10,7.70582e-05,-3.5668,12.2545,0.00481457,0.284075,
2,1,0,0,0,1290.8,0.303433,0.303123,0.26734,1,0.0257065,10,8.10369e-05,-3.57294,13.362,0.00441551,0.303005,
2,1,0,1,0,1294.6,0.32241,0.322088,0.263562,1,0.0267872,10,8.48902e-05,-3.57912,-2.63026,-0.0224312,0.321972,
2,1,0,0,0,1298.39,0.341387,0.341113,0.259374,1,0.0278531,10,8.84756e-05,-3.58607,-2.05288,-0.0287402,0.340999,
2,1,0,1,0,1302.19,0.360364,0.360091,0.257579,1,0.0289044,10,9.27518e-05,-3.58909,-2.02605,-0.0291207,0.359978,
2,1,0,1,0,1305.98,0.379342,0.379077,0.253261,1,0.0299427,10,9.60054e-05,-3.59643,-30.38,-0.00194207,0.378965,
2,1,0,1,0,1309.78,0.398318,0.398016,0.251717,1,0.0309723,10,0.000100187,-3.59909,-1.71294,-0.0344436,0.397905,
2,1,0,1,0,1313.57,0.417295,0.417034,0.250411,1,0.0319953,10,0.00010443,-3.60135,-1.31556,-0.0448478,0.416924,
2,1,0,1,0,1317.37,0.436272,0.436014,0.248673,1,0.0330118,10,0.000108425,-3.60437,3.51405,0.0167897,0.435905,
2,1,0,1,0,1321.16,0.455249,0.454937,0.250242,1,0.0340272,10,0.000113844,-3.60164,2.47565,0.0238321,0.454827,
2,1,0,1,0,1324.96,0.474226,0.473941,0.251404,1,0.0350466,10,0.000119151,-3.59963,0.748561,0.0788179,0.47383,
2,1,0,1,0,1328.75,0.493203,0.492947,0.254536,1,0.0360745,10,0.000125473,-3.59425,1.23638,0.0477199,0.492835,
2,1,0,0,0,1332.55,0.512181,0.511889,0.260423,1,0.0371176,10,0.000133308,-3.58432,1.17988,0.050005,0.511775,
2,1,0,1,0,1336.35,0.531158,0.530895,0.268054,1,0.0381866,10,0.000142309,-3.57178,0.86257,0.0684002,0.530777,
2,1,0,0,0,1340.14,0.550135,0.549851,0.281501,1,0.0392976,10,0.000154783,-3.55052,0.732614,0.0805336,0.549727,
2,1,0,1,0,1343.94,0.569112,0.568823,0.305972,1,0.0404782,10,0.000174044,-3.51432,0.474183,0.124425,0.568689,
2,1,0,0,0,1347.73,0.588089,0.587795,0.348394,1,0.0417771,10,0.000204785,-3.45793,0.256868,0.22969,0.587642,
2,1,0,1,0,1351.53,0.607066,0.606821,0.430833,1,0.0433025,10,0.000261438,-3.36569,0.15723,0.375246,0.606631,
2,1,0,1,0,1355.32,0.626043,0.625776,0.602507,1,0.0452873,10,0.000377034,-3.22004,0.105212,0.560773,0.625511,
2,1,0,1,0,1359.12,0.64502,0.64479,0.983612,1,0.048272,10,0.000634223,-3.00718,0.0757528,0.778849,0.644357,
2,1,0,1,0,1362.91,0.663997,0.663713,1.83535,1,0.0534918,10,0.00121815,-2.73628,0.0637074,0.926109,0.662905,
2,1,0,1,0,1366.71,0.682974,0.682697,3.56178,1,0.0634705,10,0.00243162,-2.44833,0.0646109,0.913159,0.68113,
2,1,0,1,0,1370.5,0.701951,0.701665,6.49728,1,0.08224,10,0.00455891,-2.18727,0.0733446,0.804421,0.698806,
2,1,0,1,0,1374.3,0.720928,0.720628,10.5552,1,0.114376,10,0.00760638,-1.97653,0.0913905,0.645582,0.715983,
2,1,0,1,0,1378.09,0.739905,0.739663,15.4488,1,0.163511,10,0.0114269,-1.81111,0.109622,0.538214,0.732865,
2,1,0,0,0,1381.89,0.758883,0.758624,21.5392,1,0.233307,10,0.0163401,-1.66677,0.115862,0.509225,0.749146,
2,1,0,1,0,1385.69,0.77786,0.777566,28.7107,1,0.328469,10,0.0223245,-1.54196,0.135338,0.435944,0.764933,
2,1,0,0,0,1389.48,0.796837,0.796586,36.4541,1,0.451972,10,0.0290388,-1.43825,0.247612,0.238276,0.780546,
2,1,0,1,0,1393.28,0.815814,0.815545,44.1148,1,0.604107,10,0.0359776,-1.35542,0.206512,0.285697,0.796134,
2,1,0,0,0,1397.07,0.834791,0.834577,51.2558,1,0.785442,10,0.0427769,-1.29026,0.302524,0.195026,0.812025,
2,1,0,0,0,1400.77,0.846726,0.846469,54.0206,1,0.985091,10,0.0457267,-1.26744,0.202366,0.291551,0.8227,
2,1,0,1,0,1404.56,0.827749,0.827545,46.3494,1,1.17451,10,0.0383562,-1.33396,0.245991,0.239846,0.807151,
2,1,0,1,0,1408.36,0.808772,0.808552,38.0221,1,1.33478,10,0.0307429,-1.41996,0.163258,0.361391,0.791822,
2,1,0,1,0,1412.15,0.789795,0.789553,29.7995,1,1.46345,10,0.0235283,-1.52579,0.127971,0.461043,0.776442,
2,1,0,1,0,1415.95,0.770818,0.770568,22.0931,1,1.56158,10,0.0170242,-1.65574,0.10603,0.556445,0.760847,
2,1,0,1,0,1419.74,0.751841,0.751629,15.395,1,1.63227,10,0.0115713,-1.81262,0.0936818,0.629791,0.744855,
2,1,0,1,0,1423.54,0.732865,0.732608,9.92073,1,1.67978,10,0.007268,-2.00346,0.0823467,0.716483,0.728243,
2,1,0,0,0,1427.34,0.713887,0.713625,5.8987,1,1.70931,10,0.00420946,-2.22924,0.0715376,0.824741,0.71103,
2,1,0,1,0,1431.13,0.69491,0.69467,3.17967,1,1.72607,10,0.00220882,-2.49762,0.0621492,0.949328,0.693271,
2,1,0,0,0,1434.93,0.675933,0.675657,1.51812,1,1.73463,10,0.00102573,-2.81869,0.0535558,1.10165,0.674989,
2,1,0,1,0,1438.72,0.656956,0.656714,0.639014,1,1.73846,10,0.000419649,-3.19449,0.0457538,1.28951,0.656433,
2,1,0,0,0,1442.52,0.637979,0.637717,0.229554,1,1.73993,10,0.00014639,-3.63912,0.0385507,1.53045,0.637616,
2,1,0,1,0,1446.31,0.619002,0.618757,0.0536246,1,1.74035,10,3.31806e-05,-4.27064,0.0183632,3.21294,0.618733,
2,0,0,0,0,1450.11,0.600024,0.599728,-0.0251171,1,1.74031,10,-1.50634e-05,-4.60003,-0.0193598,-3.04756,0.599739,
2,0,0,1,0,1453.9,0.581047,0.580758,-0.0586213,1,1.74008,10,-3.40448e-05,-4.23194,-0.497299,-0.118641,0.580784,
2,0,0,1,0,1457.7,0.56207,0.561758,-0.0738061,1,1.73976,10,-4.14612e-05,-4.13191,-0.39563,-0.149129,0.56179,
2,0,0,1,0,1461.49,0.543093,0.542799,-0.0846908,1,1.73938,10,-4.59701e-05,-4.07216,-0.285503,-0.206653,0.542836,
2,0,0,1,0,1465.29,0.524116,0.523813,-0.0913397,1,1.73898,10,-4.78449e-05,-4.03934,-0.339884,-0.173589,0.523853,
2,0,0,1,0,1469.09,0.505139,0.504879,-0.0970703,1,1.73855,10,-4.90087e-05,-4.01291,-0.678443,-0.0869638,0.504922,
2,0,0,1,0,1472.88,0.486162,0.485841,-0.102153,1,1.7381,10,-4.963e-05,-3.99075,-4.34724,-0.0135718,0.485886,
2,0,0,1,0,1476.68,0.467185,0.466863,-0.110809,1,1.73762,10,-5.17328e-05,-3.95542,-1.01591,-0.0580761,0.466911,
2,0,0,1,0,1480.47,0.448208,0.447923,-0.117899,1,1.73711,10,-5.28099e-05,-3.92849,-1.73339,-0.0340374,0.447975,
2,0,0,0,0,1484.27,0.429231,0.428988,-0.126768,1,1.73658,10,-5.43821e-05,-3.89699,3.18729,0.018511,0.429043,
2,0,0,1,0,1488.06,0.410254,0.409942,-0.135931,1,1.73601,10,-5.57236e-05,-3.86668,2.43212,0.0242586,0.410001,
2,0,0,0,0,1491.86,0.391277,0.390949,-0.14692,1,1.7354,10,-5.74381e-05,-3.83292,-1.28735,-0.0458306,0.391013,
2,0,0,1,0,1495.65,0.3723,0.372011,-0.157432,1,1.73476,10,-5.85666e-05,-3.80291,-0.920544,-0.0640926,0.37208,
2,0,0,1,0,1499.45,0.353322,0.353036,-0.16762,1,1.73407,10,-5.91757e-05,-3.77568,-0.575455,-0.102528,0.353109,
2,0,0,1,0,1503.24,0.334345,0.334059,-0.178203,1,1.73333,10,-5.95301e-05,-3.74909,-0.504255,-0.117004,0.334137,
2,0,0,1,0,1507.04,0.315368,0.315106,-0.19307,1,1.73255,10,-6.08374e-05,-3.71429,-1.08243,-0.0545067,0.315191,
2,0,0,1,0,1510.83,0.296391,0.296079,-0.205422,1,1.73172,10,-6.08213e-05,-3.68735,-0.775755,-0.076055,0.29617,
2,0,0,1,0,1514.63,0.277414,0.27708,-0.217323,1,1.73085,10,-6.02159e-05,-3.66289,-0.471681,-0.125084,0.277176,
2,0,0,1,0,1518.43,0.258437,0.258152,-0.230216,1,1.72992,10,-5.94309e-05,-3.63786,-0.622685,-0.0947509,0.258253,
2,0,0,1,0,1522.22,0.239461,0.239124,-0.243033,1,1.72895,10,-5.81151e-05,-3.61433,-0.795856,-0.074134,0.239231,
2,0,0,0,0,1526.02,0.220483,0.220201,-0.256121,1,1.72793,10,-5.63982e-05,-3.59155,-0.620024,-0.0951576,0.220314,
2,0,0,1,0,1529.81,0.201506,0.201221,-0.27564,1,1.72684,10,-5.54644e-05,-3.55966,-0.290584,-0.203039,0.201342,
2,0,0,0,0,1533.61,0.182529,0.18226,-0.310498,1,1.72566,10,-5.65912e-05,-3.50794,-0.235585,-0.25044,0.182396,
2,0,0,1,0,1537.4,0.163552,0.163248,-0.397683,1,1.72427,10,-6.49208e-05,-3.40046,-0.125411,-0.470455,0.163423,
2,0,0,0,0,1541.2,0.144575,0.144241,-0.669048,1,1.72224,10,-9.6504e-05,-3.17454,-0.0769543,-0.766689,0.144535,
2,0,0,1,0,1544.99,0.125598,0.125237,-0.868545,1,1.71911,10,-0.000108774,-3.06121,9.67195,0.00610011,0.12562,
2,0,0,1,0,1548.79,0.10662,0.106302,-0.780969,1,1.71587,10,-8.30183e-05,-3.10737,0.301637,0.195599,0.106645,
2,0,0,1,0,1552.58,0.0876433,0.0873279,-0.682175,1,1.71304,10,-5.95729e-05,-3.1661,0.531763,0.110952,0.087628,
2,0,0,1,0,1556.38,0.0686664,0.0684025,-0.625638,1,1.71048,10,-4.27952e-05,-3.20368,0.514724,0.114625,0.0686778,
2,0,0,1,0,1560.18,0.0496895,0.0493878,-0.559568,1,1.70815,10,-2.76358e-05,-3.25215,0.392353,0.150375,0.049634,
2,0,0,1,0,1563.97,0.0307126,0.0303863,-0.501282,1,1.70606,10,-1.52321e-05,-3.29992,0.672303,0.087758,0.0306068,
2,0,0,1,0,1567.77,0.0117356,0.0114274,-0.48031,1,1.70413,10,-5.48869e-06,-3.31848,-3.61108,-0.0163386,0.0116387,
2,0,0,0,0,1570.06,0.000274105,-8.7925e-05,-0.490265,1,1.70298,10,4.31066e-08,-3.30957, , ,0.000127792,