File: Figure_codes/Fig_3-5/workspace_calculate_alpha_eff/20221101_1-115_003_TrumpetPlot_ParaChange_from10_every3_16_CV_C01_84.csv
mode,ox/red,error,control changes,counter inc.,time/s,control/V,Ewe/V,<I>/mA,cycle number,(Q-Qo)/C,I Range,P/W,log(|I|),Tafel slope mV/dec,alpha_eff,E-IR/V,
2,0,0,1,0,56393.8,2.44065e-05,-0.000439847,-0.0345188,85,0.0000000E+000,10,1.5183e-08,-4.46194, , ,-0.000424659,
2,1,0,1,0,56397.5,0.0187763,0.0184572,0.25883,85,0.000853551,10,4.77728e-06,-3.58699,0.178801,0.329976,0.0183433,
2,1,0,0,0,56401.3,0.0377538,0.0373902,0.321309,85,0.0020057,10,1.20138e-05,-3.49308,0.215999,0.273149,0.0372488,
2,1,0,1,0,56405.1,0.0567309,0.0563799,0.377198,85,0.00338863,10,2.12664e-05,-3.42343,0.37089,0.159077,0.0562139,
2,1,0,0,0,56408.9,0.075708,0.0753792,0.418808,85,0.00495906,10,3.15695e-05,-3.37798,0.585261,0.10081,0.0751949,
2,1,0,1,0,56412.7,0.094685,0.0943191,0.467353,85,0.00667689,10,4.40803e-05,-3.33035,0.281438,0.209638,0.0941135,
2,1,0,0,0,56416.5,0.113662,0.113326,0.557191,85,0.00867528,10,6.31442e-05,-3.254,0.414088,0.142482,0.113081,
2,1,0,1,0,56420.3,0.132639,0.132302,0.584833,85,0.0109188,10,7.73744e-05,-3.23297,-0.476342,-0.123861,0.132044,
2,1,0,1,0,56424.1,0.151617,0.151274,0.398,85,0.0128888,10,6.02069e-05,-3.40012,-0.0903971,-0.652676,0.151099,
2,1,0,1,0,56427.9,0.170594,0.170254,0.31527,85,0.0142399,10,5.3676e-05,-3.50132,-0.39113,-0.150845,0.170115,
2,1,0,1,0,56431.7,0.189571,0.189211,0.298722,85,0.0154443,10,5.65215e-05,-3.52473,-1.56958,-0.0375898,0.18908,
2,1,0,1,0,56435.5,0.208547,0.208246,0.292333,85,0.0166077,10,6.08771e-05,-3.53412,-1.28068,-0.0460692,0.208117,
2,1,0,1,0,56439.3,0.227524,0.227178,0.285603,85,0.0177476,10,6.48829e-05,-3.54424,-1.4861,-0.0397012,0.227053,
2,1,0,1,0,56443.1,0.246501,0.246163,0.282477,85,0.0188712,10,6.95352e-05,-3.54902,-1.19801,-0.0492484,0.246038,
2,1,0,1,0,56446.9,0.265479,0.265136,0.279626,85,0.0199811,10,7.4139e-05,-3.55342,42.534,0.00138713,0.265013,
2,1,0,0,0,56450.7,0.284456,0.284162,0.275115,85,0.0210761,10,7.81772e-05,-3.56049,-2.30213,-0.0256284,0.284041,
2,1,0,1,0,56454.5,0.303433,0.303052,0.270884,85,0.0221542,10,8.20918e-05,-3.56722,-12.762,-0.00462311,0.302932,
2,1,0,0,0,56458.2,0.32241,0.322076,0.268524,85,0.0232176,10,8.64852e-05,-3.57102,-2.52138,-0.0233998,0.321958,
2,1,0,1,0,56462,0.341387,0.341014,0.264396,85,0.0242677,10,9.01626e-05,-3.57775,4.5927,0.0128465,0.340898,
2,1,0,0,0,56465.8,0.360364,0.360051,0.2628,85,0.0253057,10,9.46211e-05,-3.58038,-3.22094,-0.0183177,0.359935,
2,1,0,1,0,56469.6,0.379342,0.37898,0.26079,85,0.0263341,10,9.88342e-05,-3.58371,-1.35729,-0.043469,0.378866,
2,1,0,1,0,56473.4,0.398319,0.397979,0.25853,85,0.027353,10,0.00010289,-3.58749,32.9247,0.00179197,0.397865,
2,1,0,1,0,56477.2,0.417295,0.41699,0.256996,85,0.0283657,10,0.000107165,-3.59007,29.4307,0.00200471,0.416877,
2,1,0,1,0,56481,0.436272,0.435956,0.254927,85,0.0293706,10,0.000111137,-3.59358,8.72755,0.0067602,0.435844,
2,1,0,1,0,56484.8,0.455249,0.454914,0.254481,85,0.0303697,10,0.000115767,-3.59434,1.08656,0.0542999,0.454803,
2,1,0,1,0,56488.6,0.474226,0.473864,0.254832,85,0.0313681,10,0.000120756,-3.59375,1.78559,0.0330422,0.473752,
2,1,0,1,0,56492.4,0.493203,0.492868,0.257102,85,0.0323717,10,0.000126718,-3.58989,3.49076,0.0169018,0.492755,
2,1,0,1,0,56496.2,0.512181,0.51182,0.260931,85,0.0333832,10,0.00013355,-3.58347,2.40387,0.0245437,0.511705,
2,1,0,0,0,56500,0.531158,0.53084,0.265279,85,0.0344094,10,0.000140821,-3.5763,1.85166,0.0318633,0.530723,
2,1,0,1,0,56503.8,0.550135,0.549774,0.273257,85,0.035458,10,0.00015023,-3.56343,1.15498,0.0510832,0.549654,
2,1,0,0,0,56507.6,0.569112,0.568748,0.283848,85,0.0365413,10,0.000161438,-3.54691,0.895848,0.0658594,0.568623,
2,1,0,1,0,56511.4,0.588089,0.587737,0.301428,85,0.0376768,10,0.00017716,-3.52082,0.678837,0.0869134,0.587604,
2,1,0,0,0,56515.2,0.607066,0.606734,0.331077,85,0.0388977,10,0.000200876,-3.48007,0.409541,0.144064,0.606588,
2,1,0,1,0,56519,0.626044,0.625738,0.384806,85,0.0402704,10,0.000240788,-3.41476,0.221081,0.26687,0.625569,
2,1,0,1,0,56522.8,0.64502,0.644697,0.492074,85,0.0419368,10,0.000317238,-3.30797,0.140937,0.418627,0.64448,
2,1,0,1,0,56526.6,0.663997,0.663694,0.707771,85,0.0441913,10,0.000469743,-3.15011,0.102924,0.573239,0.663383,
2,1,0,1,0,56530.4,0.682974,0.682659,1.1246,85,0.0476182,10,0.000767716,-2.949,0.088921,0.66351,0.682164,
2,1,0,1,0,56534.2,0.701951,0.701658,1.83791,85,0.0531636,10,0.00128958,-2.73568,0.087953,0.670813,0.70085,
2,1,0,1,0,56538,0.720928,0.720668,2.90527,85,0.0620772,10,0.00209374,-2.53681,0.0994714,0.593135,0.71939,
2,1,0,1,0,56541.7,0.739905,0.739595,4.34431,85,0.0757341,10,0.00321303,-2.36208,0.110069,0.536026,0.737684,
2,1,0,1,0,56545.5,0.758883,0.758582,6.20605,85,0.0956354,10,0.0047078,-2.20718,0.122876,0.480158,0.755851,
2,1,0,0,0,56549.3,0.77786,0.777514,8.58773,85,0.123552,10,0.00667708,-2.06612,0.12955,0.455424,0.773735,
2,1,0,1,0,56553.1,0.796837,0.796531,11.682,85,0.161765,10,0.00930509,-1.93248,0.1302,0.453148,0.791391,
2,1,0,0,0,56556.9,0.815814,0.815513,15.7441,85,0.213573,10,0.0128395,-1.80288,0.135926,0.43406,0.808586,
2,1,0,1,0,56560.7,0.834791,0.83447,20.6025,85,0.282138,10,0.0171922,-1.68608,0.144776,0.407527,0.825405,
2,1,0,1,0,56564.4,0.846726,0.846429,23.5039,85,0.367369,10,0.0198944,-1.62886,0.110348,0.534673,0.836088,
2,1,0,1,0,56568.2,0.827749,0.827494,17.2624,85,0.444118,10,0.0142846,-1.7629,0.119843,0.492309,0.819899,
2,1,0,1,0,56572,0.808772,0.808481,12.578,85,0.500291,10,0.0101691,-1.90039,0.121218,0.486728,0.802946,
2,1,0,1,0,56575.8,0.789795,0.789481,8.98263,85,0.540851,10,0.00709161,-2.0466,0.116304,0.507291,0.785529,
2,1,0,1,0,56579.6,0.770818,0.770494,6.31454,85,0.569604,10,0.00486532,-2.19966,0.11352,0.51973,0.767715,
2,1,0,1,0,56583.4,0.751841,0.751534,4.32155,85,0.589569,10,0.00324779,-2.36436,0.110425,0.534301,0.749632,
2,1,0,1,0,56587.2,0.732865,0.732548,2.8497,85,0.603039,10,0.00208754,-2.5452,0.0938382,0.628742,0.731294,
2,1,0,1,0,56591,0.713887,0.713582,1.74319,85,0.611616,10,0.00124391,-2.75866,0.0790077,0.746763,0.712815,
2,1,0,0,0,56594.8,0.69491,0.694599,0.961597,85,0.616626,10,0.000667925,-3.01701,0.0649868,0.907877,0.694176,
2,1,0,1,0,56598.6,0.675933,0.675604,0.45542,85,0.619208,10,0.000307684,-3.34159,0.0511826,1.15274,0.675404,
2,1,0,0,0,56602.4,0.656956,0.656635,0.168518,85,0.620306,10,0.000110655,-3.77335,0.0356089,1.65689,0.65656,
2,1,0,1,0,56606.2,0.637979,0.637689,0.023126,85,0.620605,10,1.47472e-05,-4.6359,0.00947151,6.22921,0.637679,
2,0,0,0,0,56610,0.619002,0.618667,-0.0401165,85,0.620527,10,-2.48187e-05,-4.39668,-0.0486103,-1.21373,0.618684,
2,0,0,1,0,56613.8,0.600024,0.599712,-0.0688511,85,0.620284,10,-4.12909e-05,-4.16209,-0.158792,-0.371554,0.599742,
2,0,0,1,0,56617.6,0.581047,0.580714,-0.0825951,85,0.619964,10,-4.79642e-05,-4.08305,-0.275032,-0.214521,0.580751,
2,0,0,1,0,56621.3,0.56207,0.561759,-0.0906611,85,0.619605,10,-5.09297e-05,-4.04258,-0.99544,-0.0592703,0.561799,
2,0,0,1,0,56625.1,0.543093,0.542774,-0.0964464,85,0.61922,10,-5.23486e-05,-4.01571,-1.19518,-0.0493648,0.542817,
2,0,0,1,0,56628.9,0.524116,0.523805,-0.101649,85,0.618814,10,-5.3244e-05,-3.9929,-0.926114,-0.0637071,0.52385,
2,0,0,1,0,56632.7,0.505139,0.50479,-0.106317,85,0.618389,10,-5.36676e-05,-3.9734,-1.49675,-0.0394188,0.504837,
2,0,0,1,0,56636.5,0.486162,0.485848,-0.112329,85,0.617943,10,-5.45749e-05,-3.94951,-0.945858,-0.0623772,0.485898,
2,0,0,1,0,56640.3,0.467185,0.466805,-0.11874,85,0.617472,10,-5.54283e-05,-3.9254,-2.39929,-0.0245906,0.466857,
2,0,0,0,0,56644.1,0.448208,0.44791,-0.126589,85,0.616974,10,-5.67003e-05,-3.8976,-0.996911,-0.0591828,0.447965,
2,0,0,1,0,56647.9,0.429231,0.428886,-0.134127,85,0.616445,10,-5.75252e-05,-3.87248,35.9923,0.00163924,0.428945,
2,0,0,0,0,56651.7,0.410254,0.409895,-0.143626,85,0.615881,10,-5.88717e-05,-3.84277,-1.94496,-0.0303349,0.409958,
2,0,0,1,0,56655.5,0.391277,0.390917,-0.15356,85,0.615282,10,-6.00291e-05,-3.81372,-0.73404,-0.0803771,0.390984,
2,0,0,0,0,56659.3,0.3723,0.371975,-0.163145,85,0.614647,10,-6.06857e-05,-3.78743,-0.745974,-0.0790912,0.372047,
2,0,0,1,0,56663.1,0.353322,0.35294,-0.173228,85,0.613972,10,-6.11392e-05,-3.76138,-1.16212,-0.0507693,0.353016,
2,0,0,1,0,56666.9,0.334345,0.333992,-0.184272,85,0.613255,10,-6.15455e-05,-3.73454,-0.805736,-0.073225,0.334073,
2,0,0,1,0,56670.7,0.315368,0.315013,-0.195308,85,0.612495,10,-6.15244e-05,-3.70928,-0.516977,-0.114125,0.315099,
2,0,0,1,0,56674.5,0.296391,0.296098,-0.207966,85,0.611688,10,-6.15783e-05,-3.68201,-0.971496,-0.0607311,0.29619,
2,0,0,1,0,56678.3,0.277414,0.277107,-0.219658,85,0.610834,10,-6.08687e-05,-3.65825,-0.729419,-0.0808863,0.277204,
2,0,0,1,0,56682.1,0.258437,0.258103,-0.232876,85,0.609932,10,-6.01062e-05,-3.63287,-0.913095,-0.0646154,0.258206,
2,0,0,1,0,56685.9,0.239461,0.239097,-0.244302,85,0.608982,10,-5.84118e-05,-3.61207,-0.784167,-0.0752391,0.239204,
2,0,0,1,0,56689.7,0.220483,0.220176,-0.255434,85,0.607989,10,-5.62403e-05,-3.59272,-0.619181,-0.0952871,0.220288,
2,0,0,0,0,56693.5,0.201506,0.201112,-0.269603,85,0.606948,10,-5.42203e-05,-3.56927,-0.471826,-0.125046,0.20123,
2,0,0,1,0,56697.3,0.182529,0.182201,-0.286831,85,0.605848,10,-5.22609e-05,-3.54237,-0.465542,-0.126734,0.182328,
2,0,0,0,0,56701.1,0.163552,0.163214,-0.316659,85,0.604661,10,-5.16832e-05,-3.49941,-0.29889,-0.197397,0.163353,
2,0,0,1,0,56704.8,0.144575,0.144262,-0.396038,85,0.60329,10,-5.71333e-05,-3.40226,-0.117118,-0.503764,0.144436,
2,0,0,0,0,56708.6,0.125598,0.125261,-0.588074,85,0.601385,10,-7.36626e-05,-3.23057,-0.145268,-0.406146,0.125519,
2,0,0,1,0,56712.4,0.10662,0.106285,-0.658298,85,0.598909,10,-6.99675e-05,-3.18158,71.5265,0.000824869,0.106575,
2,0,0,1,0,56716.2,0.0876433,0.087282,-0.641795,85,0.59638,10,-5.60172e-05,-3.1926,0.851029,0.0693278,0.0875644,
2,0,0,1,0,56720,0.0686664,0.0683466,-0.605571,85,0.593962,10,-4.13887e-05,-3.21784,0.724146,0.0814753,0.068613,
2,0,0,1,0,56723.8,0.0496895,0.0493051,-0.565316,85,0.591682,10,-2.7873e-05,-3.24771,0.588819,0.1002,0.0495539,
2,0,0,1,0,56727.6,0.0307126,0.0303907,-0.521677,85,0.589563,10,-1.58541e-05,-3.2826,0.56316,0.104766,0.0306202,
2,0,0,1,0,56731.4,0.0117356,0.0113862,-0.491856,85,0.587594,10,-5.60037e-06,-3.30816,1.76721,0.033386,0.0116026,
2,0,0,1,0,56733.7,0.000274105,-0.000122521,-0.492104,85,0.586437,10,6.0293e-08,-3.30794, , ,9.4005e-05,