File: Figure_codes/Fig_3-5/workspace_calculate_alpha_eff/20221101_1-115_003_TrumpetPlot_ParaChange_from10_every3_16_CV_C01_63.csv
mode,ox/red,error,control changes,counter inc.,time/s,control/V,Ewe/V,<I>/mA,cycle number,(Q-Qo)/C,I Range,P/W,log(|I|),Tafel slope mV/dec,alpha_eff,E-IR/V,
2,0,0,1,0,42602.9,2.44065e-05,-0.000325324,-0.039607,64,0.0000000E+000,10,1.28851e-08,-4.40223, , ,-0.000307896,
2,1,0,1,0,42606.6,0.0187763,0.0184318,0.26462,64,0.00088913,10,4.87742e-06,-3.57738,0.187884,0.314023,0.0183154,
2,1,0,0,0,42610.4,0.0377538,0.0374527,0.329481,64,0.00207641,10,1.234e-05,-3.48217,0.219344,0.268984,0.0373077,
2,1,0,1,0,42614.2,0.0567309,0.0564223,0.388173,64,0.00350455,10,2.19016e-05,-3.41097,0.372353,0.158452,0.0562515,
2,1,0,0,0,42618,0.075708,0.0753951,0.431382,64,0.00512911,10,3.25241e-05,-3.36514,0.718227,0.0821467,0.0752053,
2,1,0,1,0,42621.8,0.094685,0.09437,0.483514,64,0.00690742,10,4.56293e-05,-3.31559,0.274569,0.214882,0.0941573,
2,1,0,0,0,42625.6,0.113662,0.113299,0.577096,64,0.00898101,10,6.53846e-05,-3.23875,0.368598,0.160066,0.113045,
2,1,0,1,0,42629.4,0.132639,0.132323,0.614539,64,0.0113266,10,8.13177e-05,-3.21145,-0.782752,-0.0753751,0.132053,
2,1,0,1,0,42633.2,0.151617,0.15128,0.415497,64,0.0134073,10,6.28565e-05,-3.38143,-0.0855092,-0.689985,0.151098,
2,1,0,1,0,42637,0.170594,0.170297,0.320145,64,0.0147998,10,5.45198e-05,-3.49465,-0.393032,-0.150115,0.170157,
2,1,0,1,0,42640.8,0.189571,0.189239,0.301456,64,0.0160233,10,5.70473e-05,-3.52078,-0.701288,-0.0841309,0.189107,
2,1,0,1,0,42644.6,0.208547,0.208236,0.292644,64,0.0172004,10,6.09391e-05,-3.53366,-2.25922,-0.0261152,0.208108,
2,1,0,1,0,42648.4,0.227524,0.227208,0.286357,64,0.0183504,10,6.50626e-05,-3.54309,-1.00238,-0.0588597,0.227082,
2,1,0,1,0,42652.2,0.246501,0.246212,0.282348,64,0.0194828,10,6.95176e-05,-3.54921,-1.16614,-0.0505943,0.246088,
2,1,0,1,0,42655.9,0.265479,0.265161,0.280062,64,0.0206003,10,7.42617e-05,-3.55275,-3.18516,-0.0185234,0.265038,
2,1,0,0,0,42659.7,0.284456,0.284124,0.275776,64,0.0217032,10,7.83548e-05,-3.55944,-4.38443,-0.0134567,0.284003,
2,1,0,1,0,42663.5,0.303433,0.303153,0.271856,64,0.0227894,10,8.2414e-05,-3.56566,-3.40304,-0.0173374,0.303034,
2,1,0,0,0,42667.3,0.32241,0.322069,0.268175,64,0.0238604,10,8.63708e-05,-3.57158,-2.34847,-0.0251227,0.321951,
2,1,0,1,0,42671.1,0.341387,0.341057,0.266067,64,0.0249188,10,9.07438e-05,-3.57501,-12.2496,-0.00481649,0.34094,
2,1,0,0,0,42674.9,0.360364,0.360051,0.262431,64,0.025966,10,9.44886e-05,-3.58098,-1.81981,-0.0324209,0.359935,
2,1,0,1,0,42678.7,0.379342,0.37906,0.259614,64,0.0270008,10,9.84094e-05,-3.58567,-2.67327,-0.0220704,0.378946,
2,1,0,1,0,42682.5,0.398319,0.39803,0.257637,64,0.0280271,10,0.000102547,-3.58899,-5.52251,-0.0106835,0.397917,
2,1,0,1,0,42686.3,0.417295,0.416966,0.257444,64,0.0290471,10,0.000107345,-3.58932,-6.53392,-0.0090298,0.416853,
2,1,0,1,0,42690.1,0.436272,0.435958,0.255887,64,0.0300614,10,0.000111556,-3.59195,24.104,0.00244772,0.435845,
2,1,0,1,0,42693.9,0.455249,0.454945,0.256207,64,0.0310718,10,0.00011656,-3.59141,-35.38,-0.00166761,0.454832,
2,1,0,1,0,42697.7,0.474226,0.47393,0.256088,64,0.0320812,10,0.000121368,-3.59161,1.69637,0.0347802,0.473818,
2,1,0,1,0,42701.5,0.493203,0.492906,0.258693,64,0.0330959,10,0.000127511,-3.58722,5.0208,0.0117511,0.492793,
2,1,0,1,0,42705.3,0.512181,0.511828,0.26232,64,0.0341214,10,0.000134262,-3.58117,2.88242,0.0204689,0.511712,
2,1,0,0,0,42709.1,0.531158,0.530865,0.268288,64,0.0351631,10,0.000142425,-3.5714,12.236,0.00482182,0.530747,
2,1,0,1,0,42712.9,0.550135,0.549824,0.27705,64,0.0362303,10,0.000152329,-3.55744,0.915254,0.064463,0.549702,
2,1,0,0,0,42716.7,0.569112,0.568769,0.288744,64,0.0373361,10,0.000164229,-3.53949,0.819284,0.0720141,0.568642,
2,1,0,1,0,42720.5,0.588089,0.587762,0.309728,64,0.0385025,10,0.000182046,-3.50902,0.505893,0.116625,0.587626,
2,1,0,0,0,42724.3,0.607066,0.606754,0.343789,64,0.0397692,10,0.000208595,-3.46371,0.325786,0.1811,0.606603,
2,1,0,1,0,42728.1,0.626044,0.625734,0.410945,64,0.0412212,10,0.000257142,-3.38622,0.191183,0.308604,0.625553,
2,1,0,1,0,42731.9,0.64502,0.644711,0.545964,64,0.0430418,10,0.000351989,-3.26284,0.12953,0.455491,0.64447,
2,1,0,1,0,42735.7,0.663997,0.663704,0.826113,64,0.0456156,10,0.000548294,-3.08296,0.0935481,0.630692,0.66334,
2,1,0,1,0,42739.4,0.682974,0.682698,1.36873,64,0.0497095,10,0.000934431,-2.86368,0.0824095,0.715937,0.682096,
2,1,0,1,0,42743.2,0.701951,0.701661,2.29655,64,0.0565633,10,0.0016114,-2.63892,0.0844259,0.698838,0.70065,
2,1,0,1,0,42747,0.720928,0.720641,3.67118,64,0.0677765,10,0.0026456,-2.43519,0.0971439,0.607346,0.719026,
2,1,0,1,0,42750.8,0.739905,0.739638,5.51124,64,0.085085,10,0.00407632,-2.25875,0.109664,0.538007,0.737213,
2,1,0,1,0,42754.6,0.758883,0.758614,7.86917,64,0.110337,10,0.00596966,-2.10407,0.123425,0.478022,0.755152,
2,1,0,0,0,42758.4,0.77786,0.777568,10.8679,64,0.145684,10,0.0084505,-1.96386,0.130477,0.452185,0.772786,
2,1,0,1,0,42762.2,0.796837,0.796553,14.7859,64,0.194126,10,0.0117778,-1.83015,0.138604,0.425673,0.790047,
2,1,0,0,0,42766,0.815814,0.815529,19.8718,64,0.259463,10,0.016206,-1.70176,0.129881,0.454261,0.806785,
2,1,0,1,0,42769.8,0.834791,0.834553,25.8839,64,0.346241,10,0.0216015,-1.58697,0.166915,0.353474,0.823164,
2,1,0,1,0,42773.5,0.846726,0.846443,29.4329,64,0.452873,10,0.0249133,-1.53117,0.109874,0.536979,0.833493,
2,1,0,1,0,42777.3,0.827749,0.827542,21.872,64,0.549712,10,0.0181,-1.66011,0.114085,0.51716,0.817918,
2,1,0,1,0,42781.1,0.808772,0.808474,16.1015,64,0.621363,10,0.0130177,-1.79313,0.120119,0.49118,0.801389,
2,1,0,1,0,42784.9,0.789795,0.789536,11.5413,64,0.673403,10,0.00911229,-1.93774,0.115118,0.512517,0.784457,
2,1,0,1,0,42788.7,0.770818,0.770564,8.09375,64,0.710313,10,0.00623675,-2.09185,0.109744,0.537615,0.767003,
2,1,0,1,0,42792.5,0.751841,0.75156,5.51494,64,0.735864,10,0.00414481,-2.25846,0.104491,0.564639,0.749134,
2,1,0,1,0,42796.3,0.732865,0.73259,3.60055,64,0.752953,10,0.00263772,-2.44363,0.0915944,0.644144,0.731006,
2,1,0,1,0,42800.1,0.713887,0.713609,2.20438,64,0.763767,10,0.00157307,-2.65671,0.079749,0.739821,0.712639,
2,1,0,0,0,42803.9,0.69491,0.694623,1.21854,64,0.770109,10,0.000846425,-2.91416,0.0660923,0.89269,0.694086,
2,1,0,1,0,42807.7,0.675933,0.675652,0.58348,64,0.773398,10,0.00039423,-3.23397,0.0535391,1.102,0.675395,
2,1,0,0,0,42811.5,0.656956,0.656639,0.227052,64,0.774832,10,0.000149091,-3.64387,0.0398905,1.47905,0.656539,
2,1,0,1,0,42815.3,0.637979,0.637699,0.0495861,64,0.775279,10,3.1621e-05,-4.30464,0.0181147,3.25703,0.637677,
2,0,0,0,0,42819.1,0.619002,0.618695,-0.0289196,64,0.775261,10,-1.78925e-05,-4.53881,-0.0278466,-2.11875,0.618708,
2,0,0,1,0,42822.8,0.600024,0.599727,-0.0650625,64,0.775038,10,-3.90197e-05,-4.18667,-0.129748,-0.454728,0.599756,
2,0,0,1,0,42826.6,0.581047,0.580769,-0.081418,64,0.774723,10,-4.7285e-05,-4.08928,-0.362456,-0.162778,0.580804,
2,0,0,1,0,42830.4,0.56207,0.56176,-0.0899124,64,0.774361,10,-5.05092e-05,-4.04618,-0.564214,-0.10457,0.5618,
2,0,0,1,0,42834.2,0.543093,0.542767,-0.0970704,64,0.773971,10,-5.26866e-05,-4.01291,-1.00447,-0.0587377,0.54281,
2,0,0,1,0,42838,0.524116,0.523823,-0.10203,64,0.773559,10,-5.34459e-05,-3.99127,14.707,0.00401171,0.523868,
2,0,0,1,0,42841.8,0.505139,0.504866,-0.106696,64,0.773128,10,-5.3867e-05,-3.97185,-0.76439,-0.0771857,0.504913,
2,0,0,1,0,42845.6,0.486162,0.485883,-0.111998,64,0.772675,10,-5.44178e-05,-3.95079,-0.780266,-0.0756152,0.485932,
2,0,0,1,0,42849.4,0.467185,0.46687,-0.118737,64,0.772199,10,-5.54349e-05,-3.92541,-0.566919,-0.104071,0.466922,
2,0,0,0,0,42853.2,0.448208,0.447905,-0.126414,64,0.771695,10,-5.66213e-05,-3.89821,-0.827987,-0.0712572,0.447961,
2,0,0,1,0,42857,0.429231,0.428946,-0.13543,64,0.771161,10,-5.80922e-05,-3.86829,-6.79765,-0.00867947,0.429006,
2,0,0,0,0,42860.8,0.410254,0.40992,-0.143005,64,0.770592,10,-5.86206e-05,-3.84465,-1.73001,-0.0341038,0.409983,
2,0,0,1,0,42864.6,0.391277,0.390978,-0.153151,64,0.769987,10,-5.98785e-05,-3.81488,-0.545129,-0.108231,0.391046,
2,0,0,0,0,42868.4,0.3723,0.372015,-0.164371,64,0.76934,10,-6.11486e-05,-3.78417,-0.726558,-0.0812048,0.372088,
2,0,0,1,0,42872.2,0.353322,0.353012,-0.174038,64,0.768654,10,-6.14376e-05,-3.75936,-0.52751,-0.111846,0.353089,
2,0,0,1,0,42876,0.334345,0.333989,-0.185356,64,0.767925,10,-6.19069e-05,-3.73199,-0.602262,-0.097964,0.33407,
2,0,0,1,0,42879.8,0.315368,0.315061,-0.195534,64,0.767152,10,-6.16052e-05,-3.70878,-0.711742,-0.0828952,0.315147,
2,0,0,1,0,42883.6,0.296391,0.296102,-0.209051,64,0.766334,10,-6.19004e-05,-3.67975,-0.630478,-0.0935798,0.296194,
2,0,0,1,0,42887.4,0.277414,0.277091,-0.221016,64,0.765467,10,-6.12415e-05,-3.65558,-1.0103,-0.0583985,0.277188,
2,0,0,1,0,42891.2,0.258437,0.258147,-0.233483,64,0.764552,10,-6.02729e-05,-3.63174,-0.588882,-0.10019,0.25825,
2,0,0,1,0,42895,0.239461,0.239159,-0.244943,64,0.763589,10,-5.85805e-05,-3.61093,-1.03425,-0.0570462,0.239267,
2,0,0,1,0,42898.8,0.220483,0.220171,-0.257093,64,0.762582,10,-5.66045e-05,-3.58991,-0.50398,-0.117068,0.220284,
2,0,0,0,0,42902.5,0.201506,0.20121,-0.270755,64,0.761527,10,-5.44786e-05,-3.56742,-0.453665,-0.130052,0.201329,
2,0,0,1,0,42906.3,0.182529,0.18218,-0.289883,64,0.760409,10,-5.28109e-05,-3.53778,-0.49851,-0.118353,0.182308,
2,0,0,0,0,42910.1,0.163552,0.163271,-0.324246,64,0.759198,10,-5.294e-05,-3.48913,-0.295963,-0.199349,0.163414,
2,0,0,1,0,42913.9,0.144575,0.144277,-0.420643,64,0.757762,10,-6.06891e-05,-3.37609,-0.105242,-0.560611,0.144462,
2,0,0,0,0,42917.7,0.125598,0.125276,-0.636644,64,0.755692,10,-7.97559e-05,-3.1961,-0.181089,-0.325807,0.125556,
2,0,0,1,0,42921.5,0.10662,0.106285,-0.686955,64,0.753058,10,-7.30133e-05,-3.16307,5.85778,0.0100721,0.106588,
2,0,0,1,0,42925.3,0.0876433,0.0873489,-0.653763,64,0.750442,10,-5.71055e-05,-3.18458,0.658231,0.0896342,0.0876365,
2,0,0,1,0,42929.1,0.0686664,0.0683295,-0.613646,64,0.747975,10,-4.19301e-05,-3.21208,0.683055,0.0863766,0.0685995,
2,0,0,1,0,42932.9,0.0496895,0.0493453,-0.570864,64,0.74566,10,-2.81694e-05,-3.24347,0.628265,0.0939094,0.0495964,
2,0,0,1,0,42936.7,0.0307126,0.0303706,-0.521777,64,0.743516,10,-1.58467e-05,-3.28252,0.510781,0.115509,0.0306002,
2,0,0,1,0,42940.5,0.0117356,0.0114456,-0.491357,64,0.741532,10,-5.62386e-06,-3.3086,1.69739,0.0347593,0.0116618,
2,0,0,1,0,42942.8,0.000274105,-0.00016666,-0.493558,64,0.740365,10,8.22565e-08,-3.30666, , ,5.05054e-05,