File: Figure_codes/Fig_3-5/workspace_calculate_alpha_eff/20221101_1-115_003_TrumpetPlot_ParaChange_from10_every3_16_CV_C01_40.csv
mode,ox/red,error,control changes,counter inc.,time/s,control/V,Ewe/V,<I>/mA,cycle number,(Q-Qo)/C,I Range,P/W,log(|I|),Tafel slope mV/dec,alpha_eff,E-IR/V,
2,0,0,0,0,27211.8,2.44065e-05,-0.00042076,-0.104482,41,0.0000000E+000,10,4.3962e-08,-3.98096, , ,-0.000374788,
2,1,0,1,0,27215.6,0.0187763,0.0184689,0.221682,41,0.000733291,10,4.09422e-06,-3.65427,0.144021,0.409662,0.0183713,
2,1,0,1,0,27219.4,0.0377538,0.0374623,0.288962,41,0.00176911,10,1.08252e-05,-3.53916,0.190103,0.310358,0.0373351,
2,1,0,0,0,27223.2,0.0567309,0.056417,0.352233,41,0.00306015,10,1.98719e-05,-3.45317,0.28771,0.205068,0.056262,
2,1,0,1,0,27227,0.075708,0.0753898,0.402696,41,0.00456852,10,3.03592e-05,-3.39502,0.562531,0.104883,0.0752126,
2,1,0,0,0,27230.7,0.0946851,0.0943626,0.456619,41,0.00625292,10,4.30877e-05,-3.34045,0.235767,0.250247,0.0941617,
2,1,0,1,0,27234.5,0.113662,0.113335,0.560455,41,0.00825548,10,6.35194e-05,-3.25146,0.313263,0.18834,0.113089,
2,1,0,0,0,27238.3,0.132639,0.13235,0.612033,41,0.0105668,10,8.10023e-05,-3.21323,-1.21848,-0.0484209,0.13208,
2,1,0,1,0,27242.1,0.151617,0.151344,0.402372,41,0.0126445,10,6.08966e-05,-3.39537,-0.0760677,-0.775625,0.151167,
2,1,0,1,0,27245.9,0.170594,0.17028,0.294741,41,0.0139727,10,5.01884e-05,-3.53056,-0.254089,-0.232203,0.17015,
2,1,0,1,0,27249.7,0.189571,0.189235,0.271014,41,0.0151017,10,5.12854e-05,-3.56701,-0.861072,-0.0685193,0.189116,
2,1,0,1,0,27253.5,0.208547,0.208272,0.260134,41,0.0161682,10,5.41784e-05,-3.5848,-1.20504,-0.048961,0.208157,
2,1,0,1,0,27257.3,0.227524,0.227216,0.251757,41,0.0171988,10,5.72032e-05,-3.59902,-1.25131,-0.0471505,0.227106,
2,1,0,1,0,27261.1,0.246501,0.2462,0.246709,41,0.0182038,10,6.07396e-05,-3.60782,-1.05964,-0.0556794,0.246091,
2,1,0,0,0,27264.9,0.265479,0.26517,0.242763,41,0.0191917,10,6.43734e-05,-3.61482,-1.18974,-0.0495906,0.265063,
2,1,0,1,0,27268.7,0.284456,0.284149,0.238552,41,0.0201636,10,6.77844e-05,-3.62242,-2.20824,-0.0267182,0.284044,
2,1,0,0,0,27272.5,0.303433,0.303121,0.233822,41,0.0211176,10,7.08762e-05,-3.63111,-1.14167,-0.0516785,0.303018,
2,1,0,1,0,27276.3,0.32241,0.322098,0.230886,41,0.0220558,10,7.43679e-05,-3.6366,-4.04296,-0.0145933,0.321996,
2,1,0,0,0,27280.1,0.341387,0.341076,0.228215,41,0.0229808,10,7.78387e-05,-3.64166,-5.43845,-0.0108487,0.340975,
2,1,0,1,0,27283.9,0.360364,0.360071,0.22562,41,0.0238951,10,8.12391e-05,-3.64662,-2.79776,-0.0210883,0.359972,
2,1,0,1,0,27287.7,0.379342,0.379051,0.223607,41,0.0247997,10,8.47585e-05,-3.65051,-4.01999,-0.0146766,0.378953,
2,1,0,1,0,27291.5,0.398319,0.397994,0.221063,41,0.0256951,10,8.7982e-05,-3.65548,-9.92922,-0.00594206,0.397897,
2,1,0,1,0,27295.3,0.417295,0.417045,0.221476,41,0.0265849,10,9.23654e-05,-3.65467,-7.70196,-0.00766039,0.416948,
2,1,0,1,0,27299.1,0.436272,0.435986,0.220946,41,0.0274714,10,9.63293e-05,-3.65571,6.51611,0.00905448,0.435889,
2,1,0,1,0,27302.9,0.455249,0.454989,0.220591,41,0.0283567,10,0.000100366,-3.65641,1.86674,0.0316059,0.454892,
2,1,0,1,0,27306.7,0.474226,0.473929,0.221492,41,0.0292436,10,0.000104971,-3.65464,2.54814,0.0231541,0.473831,
2,1,0,1,0,27310.4,0.493203,0.49286,0.226325,41,0.0301379,10,0.000111546,-3.64527,1.4395,0.0409865,0.49276,
2,1,0,0,0,27314.2,0.512181,0.511837,0.230094,41,0.0310463,10,0.000117771,-3.63809,45.8997,0.00128541,0.511736,
2,1,0,1,0,27318,0.531158,0.530868,0.235921,41,0.0319742,10,0.000125243,-3.62723,1.57939,0.0373562,0.530765,
2,1,0,0,0,27321.8,0.550135,0.5498,0.245088,41,0.032931,10,0.000134749,-3.61068,0.839611,0.0702707,0.549692,
2,1,0,1,0,27325.6,0.569112,0.568848,0.260155,41,0.0339322,10,0.000147989,-3.58477,0.594839,0.0991866,0.568733,
2,1,0,0,0,27329.4,0.588089,0.587785,0.283038,41,0.0350024,10,0.000166365,-3.54816,0.449317,0.13131,0.58766,
2,1,0,1,0,27333.2,0.607066,0.606793,0.323123,41,0.0361884,10,0.000196069,-3.49063,0.266923,0.221038,0.606651,
2,1,0,1,0,27337,0.626044,0.625767,0.401117,41,0.0375891,10,0.000251005,-3.39673,0.159087,0.370865,0.62559,
2,1,0,1,0,27340.8,0.64502,0.644713,0.563116,41,0.0394269,10,0.000363048,-3.2494,0.109995,0.536389,0.644465,
2,1,0,1,0,27344.6,0.663997,0.66367,0.90767,41,0.0421823,10,0.000602393,-3.04207,0.0804435,0.733434,0.66327,
2,1,0,1,0,27348.4,0.682974,0.682705,1.58784,41,0.0468283,10,0.00108402,-2.79919,0.0760783,0.775517,0.682006,
2,1,0,1,0,27352.2,0.701951,0.701648,2.77725,41,0.054979,10,0.00194865,-2.55639,0.0798161,0.7392,0.700426,
2,1,0,1,0,27356,0.720928,0.720639,4.5508,41,0.0687398,10,0.00327949,-2.34191,0.0917527,0.643033,0.718637,
2,1,0,1,0,27359.8,0.739905,0.73965,6.92689,41,0.0903757,10,0.00512348,-2.15946,0.104636,0.56386,0.736602,
2,1,0,0,0,27363.6,0.758883,0.758619,9.93197,41,0.122202,10,0.00753458,-2.00296,0.118893,0.496243,0.754249,
2,1,0,1,0,27367.4,0.77786,0.777603,13.7949,41,0.166932,10,0.0107269,-1.86028,0.119155,0.495153,0.771533,
2,1,0,0,0,27371.2,0.796837,0.796571,18.8603,41,0.228629,10,0.0150235,-1.72445,0.114457,0.515478,0.788273,
2,1,0,1,0,27375,0.815814,0.815568,25.5369,41,0.312729,10,0.0208271,-1.59283,0.132977,0.443687,0.804332,
2,1,0,0,0,27378.8,0.834791,0.834547,33.0673,41,0.423933,10,0.0275962,-1.4806,0.156178,0.377775,0.819997,
2,1,0,0,0,27382.5,0.846727,0.846486,37.1664,41,0.559026,10,0.0314608,-1.42985,0.121046,0.487419,0.830132,
2,1,0,1,0,27386.3,0.827749,0.827479,28.0811,41,0.681909,10,0.0232365,-1.55159,0.129936,0.454068,0.815124,
2,1,0,1,0,27390.1,0.808772,0.80852,20.8612,41,0.774494,10,0.0168667,-1.68066,0.115643,0.510192,0.799341,
2,1,0,1,0,27393.8,0.789795,0.789533,15.0296,41,0.842146,10,0.0118663,-1.82305,0.110966,0.531696,0.78292,
2,1,0,1,0,27397.6,0.770818,0.770532,10.4957,41,0.890128,10,0.00808728,-1.97899,0.10557,0.558871,0.765914,
2,1,0,1,0,27401.4,0.751841,0.751552,7.03554,41,0.923084,10,0.00528757,-2.1527,0.0982506,0.600506,0.748456,
2,1,0,1,0,27405.2,0.732865,0.732643,4.52124,41,0.944737,10,0.00331245,-2.34474,0.0866166,0.681163,0.730654,
2,1,0,0,0,27409,0.713887,0.713638,2.70418,41,0.958207,10,0.0019298,-2.56796,0.0746147,0.790729,0.712448,
2,1,0,1,0,27412.8,0.69491,0.694674,1.46063,41,0.965902,10,0.00101466,-2.83546,0.0625007,0.943989,0.694031,
2,1,0,0,0,27416.6,0.675933,0.675664,0.683848,41,0.969798,10,0.000462051,-3.16504,0.0509411,1.1582,0.675363,
2,1,0,1,0,27420.4,0.656956,0.656682,0.25762,41,0.971452,10,0.000169175,-3.58902,0.0368125,1.60272,0.656569,
2,1,0,0,0,27424.2,0.637979,0.637706,0.0511541,41,0.971943,10,3.26213e-05,-4.29112,0.0163088,3.61768,0.637684,
2,0,0,1,0,27428,0.619002,0.618726,-0.0394672,41,0.971896,10,-2.44194e-05,-4.40376,-0.032199,-1.83235,0.618744,
2,0,0,0,0,27431.8,0.600025,0.599763,-0.0787011,41,0.971618,10,-4.7202e-05,-4.10402,-0.14963,-0.394306,0.599798,
2,0,0,1,0,27435.6,0.581047,0.580746,-0.0971165,41,0.971236,10,-5.64001e-05,-4.01271,-0.267871,-0.220255,0.580789,
2,0,0,1,0,27439.4,0.56207,0.561773,-0.106515,41,0.970806,10,-5.98374e-05,-3.97259,-0.855728,-0.0689471,0.56182,
2,0,0,1,0,27443.2,0.543093,0.542775,-0.112634,41,0.970348,10,-6.11347e-05,-3.94833,-0.843347,-0.0699593,0.542824,
2,0,0,1,0,27447,0.524116,0.523856,-0.116878,41,0.969869,10,-6.12271e-05,-3.93227,-1.29633,-0.0455132,0.523907,
2,0,0,1,0,27450.8,0.505139,0.504861,-0.121954,41,0.969371,10,-6.15698e-05,-3.9138,-2.13344,-0.0276549,0.504915,
2,0,0,1,0,27454.6,0.486162,0.485831,-0.127052,41,0.968854,10,-6.17257e-05,-3.89602,-0.785245,-0.0751358,0.485887,
2,0,0,1,0,27458.4,0.467185,0.46694,-0.133211,41,0.968315,10,-6.22015e-05,-3.87546,-1.37811,-0.0428121,0.466999,
2,0,0,1,0,27462.2,0.448208,0.44788,-0.140387,41,0.967752,10,-6.28766e-05,-3.85267,-1.73729,-0.0339609,0.447942,
2,0,0,0,0,27466,0.429231,0.428963,-0.148345,41,0.967159,10,-6.36345e-05,-3.82873,-49.7926,-0.00118492,0.429029,
2,0,0,1,0,27469.8,0.410254,0.409932,-0.156591,41,0.966535,10,-6.41918e-05,-3.80523,-0.704918,-0.0836977,0.410001,
2,0,0,0,0,27473.6,0.391277,0.390959,-0.165932,41,0.965874,10,-6.48725e-05,-3.78007,-0.846975,-0.0696596,0.391032,
2,0,0,1,0,27477.3,0.3723,0.371957,-0.176606,41,0.965176,10,-6.56896e-05,-3.753,-0.493205,-0.119626,0.372035,
2,0,0,1,0,27481.1,0.353322,0.353035,-0.185267,41,0.964437,10,-6.54055e-05,-3.7322,-0.691881,-0.0852748,0.353116,
2,0,0,1,0,27484.9,0.334345,0.334,-0.196595,41,0.963658,10,-6.5663e-05,-3.70643,-0.567348,-0.103993,0.334087,
2,0,0,1,0,27488.7,0.315368,0.315073,-0.207203,41,0.962836,10,-6.52841e-05,-3.6836,-1.02627,-0.0574899,0.315165,
2,0,0,1,0,27492.5,0.296391,0.296074,-0.221332,41,0.961969,10,-6.55307e-05,-3.65496,-0.977373,-0.0603659,0.296172,
2,0,0,1,0,27496.3,0.277414,0.277069,-0.23218,41,0.961055,10,-6.43297e-05,-3.63418,-0.631203,-0.0934723,0.277171,
2,0,0,1,0,27500.1,0.258437,0.258096,-0.2452,41,0.960094,10,-6.3285e-05,-3.61048,-0.85545,-0.0689696,0.258204,
2,0,0,1,0,27503.9,0.239461,0.239142,-0.255949,41,0.959089,10,-6.12081e-05,-3.59185,-0.983794,-0.0599719,0.239254,
2,0,0,0,0,27507.7,0.220483,0.22019,-0.268252,41,0.958039,10,-5.90665e-05,-3.57146,-0.651559,-0.090552,0.220308,
2,0,0,1,0,27511.5,0.201506,0.201185,-0.280675,41,0.956939,10,-5.64675e-05,-3.5518,-0.525611,-0.11225,0.201308,
2,0,0,0,0,27515.3,0.182529,0.182226,-0.300854,41,0.955778,10,-5.48234e-05,-3.52164,-0.437976,-0.134711,0.182358,
2,0,0,1,0,27519.1,0.163552,0.163232,-0.338486,41,0.954515,10,-5.52517e-05,-3.47046,-0.285103,-0.206943,0.163381,
2,0,0,0,0,27522.9,0.144575,0.144295,-0.450463,41,0.953,10,-6.49996e-05,-3.34634,-0.0948871,-0.621792,0.144493,
2,0,0,1,0,27526.7,0.125598,0.125271,-0.682983,41,0.950765,10,-8.55582e-05,-3.16559,-0.194187,-0.30383,0.125572,
2,0,0,1,0,27530.5,0.10662,0.106283,-0.717545,41,0.947983,10,-7.6263e-05,-3.14415,1.17701,0.0501268,0.106599,
2,0,0,1,0,27534.3,0.0876433,0.0873214,-0.672068,41,0.945276,10,-5.86859e-05,-3.17259,0.676147,0.0872591,0.0876171,
2,0,0,1,0,27538.1,0.0686664,0.0683507,-0.626114,41,0.942751,10,-4.27953e-05,-3.20335,0.744897,0.0792056,0.0686262,
2,0,0,1,0,27541.9,0.0496895,0.0493527,-0.583252,41,0.940384,10,-2.87851e-05,-3.23414,0.568023,0.103869,0.0496094,
2,0,0,1,0,27545.7,0.0307126,0.0304215,-0.535462,41,0.938194,10,-1.62895e-05,-3.27127,0.524084,0.112577,0.0306571,
2,0,0,1,0,27549.5,0.0117356,0.011418,-0.500628,41,0.936171,10,-5.71615e-06,-3.30049,1.25593,0.0469773,0.0116382,
2,0,0,0,0,27551.8,0.000274105,-0.000115363,-0.501234,41,0.934986,10,5.78238e-08,-3.29996, , ,0.00010518,