File: Figure_codes/Fig_3-5/workspace_calculate_alpha_eff/20221101_1-115_003_TrumpetPlot_ParaChange_from10_every3_16_CV_C01_6.csv
mode,ox/red,error,control changes,counter inc.,time/s,control/V,Ewe/V,<I>/mA,cycle number,(Q-Qo)/C,I Range,P/W,log(|I|),Tafel slope mV/dec,alpha_eff,E-IR/V,
2,0,0,1,0,5170.38,2.44065e-05,-0.000344411,-0.0364269,7,0.0000000E+000,10,1.25458e-08,-4.43858, , ,-0.000328383,
2,1,0,1,0,5174.13,0.0187763,0.0184296,0.270202,7,0.000948579,10,4.97971e-06,-3.56831,0.1787,0.330161,0.0183107,
2,1,0,0,0,5177.93,0.0377538,0.037423,0.333623,7,0.00217057,10,1.24852e-05,-3.47674,0.214263,0.275363,0.0372762,
2,1,0,1,0,5181.72,0.0567309,0.056435,0.403349,7,0.00365293,10,2.2763e-05,-3.39432,0.314233,0.187759,0.0562576,
2,1,0,0,0,5185.52,0.075708,0.0753941,0.462896,7,0.0053847,10,3.48996e-05,-3.33452,0.43134,0.136783,0.0751904,
2,1,0,1,0,5189.31,0.0946851,0.0943753,0.527623,7,0.00732951,10,4.97946e-05,-3.27768,0.274834,0.214675,0.0941432,
2,1,0,0,0,5193.11,0.113662,0.113367,0.646827,7,0.00962385,10,7.3329e-05,-3.18921,0.25911,0.227703,0.113083,
2,1,0,1,0,5196.9,0.132639,0.132354,0.73805,7,0.0123364,10,9.76837e-05,-3.13191,1.06612,0.0553407,0.132029,
2,1,0,1,0,5200.7,0.151617,0.151319,0.545484,7,0.0149828,10,8.25423e-05,-3.26322,-0.0763147,-0.773114,0.151079,
2,1,0,1,0,5204.49,0.170594,0.170273,0.363572,7,0.0167038,10,6.19065e-05,-3.43941,-0.181317,-0.325396,0.170113,
2,1,0,1,0,5208.29,0.189571,0.189275,0.316736,7,0.0180477,10,5.995e-05,-3.4993,-0.62118,-0.0949805,0.189135,
2,1,0,1,0,5212.08,0.208547,0.208247,0.299391,7,0.0192801,10,6.23473e-05,-3.52376,-0.737428,-0.0800078,0.208115,
2,1,0,1,0,5215.88,0.227524,0.227188,0.286708,7,0.0204586,10,6.51365e-05,-3.54256,-0.916111,-0.0644027,0.227062,
2,1,0,1,0,5219.67,0.246501,0.246203,0.279733,7,0.0216031,10,6.8871e-05,-3.55326,-0.678207,-0.0869941,0.24608,
2,1,0,1,0,5223.47,0.265479,0.265182,0.27402,7,0.0227231,10,7.26653e-05,-3.56222,-3.6993,-0.0159489,0.265062,
2,1,0,0,0,5227.27,0.284456,0.284141,0.269575,7,0.0238246,10,7.65975e-05,-3.56932,-1.87824,-0.0314123,0.284023,
2,1,0,1,0,5231.06,0.303433,0.303164,0.265796,7,0.0249095,10,8.05797e-05,-3.57545,-1.35481,-0.0435484,0.303047,
2,1,0,0,0,5234.86,0.32241,0.322136,0.260244,7,0.0259787,10,8.38338e-05,-3.58462,-6.05738,-0.00974018,0.322021,
2,1,0,1,0,5238.65,0.341387,0.341099,0.258076,7,0.0270327,10,8.80296e-05,-3.58825,8.80913,0.0066976,0.340986,
2,1,0,0,0,5242.45,0.360364,0.360059,0.25588,7,0.0280728,10,9.21319e-05,-3.59196,-5.36927,-0.0109885,0.359947,
2,1,0,1,0,5246.24,0.379342,0.379029,0.253617,7,0.0291025,10,9.61282e-05,-3.59582,-2.39238,-0.0246616,0.378918,
2,1,0,1,0,5250.04,0.398319,0.398024,0.249037,7,0.0301221,10,9.91228e-05,-3.60374,-9.40242,-0.00627498,0.397915,
2,1,0,1,0,5253.83,0.417295,0.417013,0.248312,7,0.0311336,10,0.000103549,-3.605,-6.74891,-0.00874216,0.416904,
2,1,0,1,0,5257.63,0.436272,0.436027,0.248382,7,0.0321409,10,0.000108301,-3.60488,-8.58039,-0.00687614,0.435918,
2,1,0,1,0,5261.42,0.455249,0.454941,0.249098,7,0.0331469,10,0.000113325,-3.60363,2.96225,0.0199173,0.454831,
2,1,0,1,0,5265.22,0.474226,0.4739,0.249596,7,0.0341555,10,0.000118284,-3.60276,0.941566,0.0626616,0.47379,
2,1,0,1,0,5269.01,0.493203,0.492957,0.252821,7,0.035171,10,0.00012463,-3.59719,1.03873,0.0568001,0.492846,
2,1,0,1,0,5272.81,0.512181,0.511869,0.25674,7,0.0362014,10,0.000131417,-3.59051,1.48174,0.039818,0.511756,
2,1,0,0,0,5276.61,0.531158,0.530872,0.265485,7,0.0372553,10,0.000140938,-3.57596,1.33821,0.0440888,0.530755,
2,1,0,1,0,5280.4,0.550135,0.549811,0.275865,7,0.0383446,10,0.000151674,-3.5593,0.799596,0.0737872,0.54969,
2,1,0,0,0,5284.2,0.569112,0.568862,0.297166,7,0.0394909,10,0.000169046,-3.527,0.484252,0.121837,0.568731,
2,1,0,1,0,5287.99,0.588089,0.587809,0.330864,7,0.0407368,10,0.000194485,-3.48035,0.328887,0.179393,0.587663,
2,1,0,0,0,5291.79,0.607066,0.606832,0.396773,7,0.042165,10,0.000240774,-3.40146,0.196145,0.300798,0.606657,
2,1,0,1,0,5295.58,0.626044,0.62577,0.531315,7,0.0439563,10,0.000332481,-3.27465,0.125396,0.470508,0.625536,
2,1,0,1,0,5299.38,0.64502,0.644722,0.823743,7,0.0465147,10,0.000531085,-3.08421,0.0850427,0.693769,0.64436,
2,1,0,1,0,5303.17,0.663997,0.663736,1.46857,7,0.0507748,10,0.000974743,-2.83311,0.0687939,0.857634,0.66309,
2,1,0,1,0,5306.97,0.682974,0.682695,2.7728,7,0.0586257,10,0.00189298,-2.55708,0.0660244,0.893608,0.681475,
2,1,0,1,0,5310.76,0.701951,0.701683,5.02205,7,0.0731581,10,0.00352388,-2.29912,0.0734531,0.803234,0.699473,
2,1,0,1,0,5314.56,0.720928,0.720658,8.25373,7,0.0981347,10,0.00594812,-2.08335,0.0897789,0.65717,0.717027,
2,1,0,1,0,5318.36,0.739905,0.739634,12.2604,7,0.136916,10,0.00906819,-1.9115,0.111105,0.531031,0.73424,
2,1,0,1,0,5322.15,0.758883,0.758615,17.1652,7,0.192445,10,0.0130218,-1.76535,0.11891,0.496173,0.751062,
2,1,0,0,0,5325.95,0.77786,0.777609,23.2862,7,0.268923,10,0.0181075,-1.6329,0.138568,0.425783,0.767363,
2,1,0,1,0,5329.74,0.796837,0.796597,30.1868,7,0.370177,10,0.0240467,-1.52018,0.156061,0.378057,0.783315,
2,1,0,0,0,5333.54,0.815814,0.815602,37.7048,7,0.499125,10,0.0307522,-1.4236,0.18244,0.323394,0.799012,
2,1,0,1,0,5337.33,0.834791,0.834574,45.0364,7,0.656368,10,0.0375862,-1.34644,0.224083,0.263295,0.814758,
2,1,0,1,0,5341.03,0.846727,0.846496,48.6212,7,0.834379,10,0.0411577,-1.31317,0.203263,0.290264,0.825103,
2,1,0,1,0,5344.82,0.827749,0.827507,40.7256,7,1.00361,10,0.0337007,-1.39013,0.185969,0.317257,0.809588,
2,1,0,1,0,5348.62,0.808772,0.808565,32.5309,7,1.14266,10,0.0263034,-1.4877,0.147429,0.400193,0.794252,
2,1,0,1,0,5352.41,0.789795,0.789512,24.9424,7,1.25147,10,0.0196923,-1.60306,0.127856,0.461457,0.778537,
2,1,0,1,0,5356.21,0.770818,0.770571,18.0295,7,1.33264,10,0.013893,-1.74402,0.106032,0.556434,0.762638,
2,1,0,1,0,5360.01,0.751841,0.751572,12.3068,7,1.38976,10,0.00924946,-1.90985,0.0916599,0.643684,0.746157,
2,1,0,1,0,5363.8,0.732865,0.732603,7.83515,7,1.42755,10,0.00574005,-2.10595,0.0783906,0.752641,0.729155,
2,1,0,1,0,5367.6,0.713887,0.713625,4.6224,7,1.45076,10,0.00329866,-2.33513,0.0715175,0.824972,0.711591,
2,1,0,0,0,5371.39,0.69491,0.694659,2.49166,7,1.4639,10,0.00173086,-2.60351,0.0617071,0.95613,0.693562,
2,1,0,1,0,5375.19,0.675933,0.675687,1.18416,7,1.47057,10,0.000800122,-2.92659,0.0523948,1.12607,0.675166,
2,1,0,0,0,5378.98,0.656956,0.656676,0.489529,7,1.47353,10,0.000321462,-3.31022,0.0445316,1.3249,0.656461,
2,1,0,1,0,5382.78,0.637979,0.637697,0.163898,7,1.47462,10,0.000104517,-3.78543,0.0331068,1.78211,0.637625,
2,1,0,0,0,5386.57,0.619002,0.618694,0.0213902,7,1.47487,10,1.3234e-05,-4.66979,0.0104155,5.66462,0.618685,
2,0,0,1,0,5390.37,0.600025,0.599759,-0.0385206,7,1.47476,10,-2.3103e-05,-4.41431,-0.0440022,-1.34084,0.599776,
2,0,0,1,0,5394.16,0.581047,0.580749,-0.0660837,7,1.47449,10,-3.8378e-05,-4.17991,-0.132363,-0.445743,0.580778,
2,0,0,1,0,5397.96,0.56207,0.561768,-0.0805964,7,1.47415,10,-4.52765e-05,-4.09368,-0.194575,-0.303225,0.561804,
2,0,0,1,0,5401.76,0.543093,0.542808,-0.0892894,7,1.47377,10,-4.8467e-05,-4.0492,-0.284353,-0.207489,0.542848,
2,0,0,1,0,5405.55,0.524116,0.523825,-0.0953375,7,1.47336,10,-4.99402e-05,-4.02074,-0.298457,-0.197683,0.523867,
2,0,0,1,0,5409.35,0.505139,0.504842,-0.100057,7,1.47293,10,-5.05132e-05,-3.99975,-1.30963,-0.0450509,0.504886,
2,0,0,1,0,5413.14,0.486162,0.485835,-0.103368,7,1.47248,10,-5.02197e-05,-3.98561,-0.543332,-0.108589,0.485881,
2,0,0,1,0,5416.94,0.467185,0.466857,-0.110629,7,1.472,10,-5.16478e-05,-3.95613,-0.623673,-0.0946009,0.466906,
2,0,0,0,0,5420.73,0.448208,0.447908,-0.11914,7,1.4715,10,-5.3364e-05,-3.92394,-0.71222,-0.0828396,0.447961,
2,0,0,1,0,5424.53,0.429231,0.42892,-0.125801,7,1.47096,10,-5.39586e-05,-3.90032,-7.17628,-0.00822153,0.428975,
2,0,0,0,0,5428.32,0.410254,0.409957,-0.135614,7,1.4704,10,-5.55959e-05,-3.8677,-0.647568,-0.0911101,0.410016,
2,0,0,1,0,5432.12,0.391277,0.390948,-0.146368,7,1.46979,10,-5.72221e-05,-3.83455,-0.665106,-0.0887076,0.391012,
2,0,0,0,0,5435.91,0.3723,0.372018,-0.156554,7,1.46915,10,-5.82408e-05,-3.80534,-0.34206,-0.172484,0.372087,
2,0,0,1,0,5439.71,0.353322,0.353016,-0.168203,7,1.46846,10,-5.93784e-05,-3.77417,-1.76009,-0.0335211,0.35309,
2,0,0,1,0,5443.5,0.334345,0.334058,-0.177897,7,1.46773,10,-5.94277e-05,-3.74983,-0.565998,-0.104241,0.334136,
2,0,0,1,0,5447.3,0.315368,0.315032,-0.190221,7,1.46696,10,-5.99258e-05,-3.72074,-0.499583,-0.118099,0.315116,
2,0,0,1,0,5451.1,0.296391,0.296105,-0.203263,7,1.46613,10,-6.01873e-05,-3.69194,-3.31426,-0.0178019,0.296194,
2,0,0,1,0,5454.89,0.277414,0.277114,-0.215392,7,1.46526,10,-5.96881e-05,-3.66677,-0.817863,-0.0721392,0.277209,
2,0,0,1,0,5458.69,0.258437,0.258122,-0.228513,7,1.46434,10,-5.89844e-05,-3.64109,-0.690708,-0.0854196,0.258223,
2,0,0,1,0,5462.48,0.239461,0.239151,-0.242188,7,1.46338,10,-5.79195e-05,-3.61585,-0.561193,-0.105133,0.239257,
2,0,0,1,0,5466.28,0.220483,0.220185,-0.255491,7,1.46236,10,-5.62554e-05,-3.59262,-0.582564,-0.101276,0.220298,
2,0,0,0,0,5470.07,0.201506,0.201218,-0.272545,7,1.46128,10,-5.48409e-05,-3.56456,-0.446731,-0.132071,0.201338,
2,0,0,1,0,5473.87,0.182529,0.182177,-0.299142,7,1.46013,10,-5.44968e-05,-3.52412,-0.279324,-0.211224,0.182309,
2,0,0,0,0,5477.66,0.163552,0.163248,-0.363936,7,1.45881,10,-5.94117e-05,-3.43897,-0.147313,-0.400508,0.163408,
2,0,0,1,0,5481.46,0.144575,0.144229,-0.569354,7,1.45703,10,-8.21175e-05,-3.24462,-0.0713513,-0.826895,0.14448,
2,0,0,0,0,5485.25,0.125598,0.125246,-0.808415,7,1.45423,10,-0.000101251,-3.09237,-0.653533,-0.0902786,0.125602,
2,0,0,1,0,5489.05,0.10662,0.106319,-0.765334,7,1.45113,10,-8.13698e-05,-3.11615,0.416875,0.141529,0.106656,
2,0,0,1,0,5492.85,0.0876433,0.0873308,-0.679863,7,1.44831,10,-5.9373e-05,-3.16758,0.394412,0.14959,0.08763,
2,0,0,1,0,5496.64,0.0686664,0.0683698,-0.627748,7,1.44576,10,-4.2919e-05,-3.20221,0.55933,0.105483,0.068646,
2,0,0,1,0,5500.44,0.0496895,0.0493292,-0.573865,7,1.44339,10,-2.83083e-05,-3.24119,0.421614,0.139939,0.0495817,
2,0,0,1,0,5504.23,0.0307126,0.0304045,-0.518677,7,1.44123,10,-1.57701e-05,-3.2851,0.502392,0.117438,0.0306327,
2,0,0,1,0,5508.03,0.0117356,0.0114096,-0.486212,7,1.43925,10,-5.54748e-06,-3.31317,2.15292,0.0274047,0.0116235,
2,0,0,1,0,5510.32,0.000274105,-8.7925e-05,-0.488972,7,1.43809,10,4.29928e-08,-3.31072, , ,0.000127223,