File: Figure_codes/Fig_3-5/workspace_calculate_alpha_eff/20221101_1-115_003_TrumpetPlot_ParaChange_from10_every3_16_CV_C01_74.csv
mode,ox/red,error,control changes,counter inc.,time/s,control/V,Ewe/V,<I>/mA,cycle number,(Q-Qo)/C,I Range,P/W,log(|I|),Tafel slope mV/dec,alpha_eff,E-IR/V,
2,0,0,0,0,49253.2,2.44065e-05,-0.000287149,-0.102574,75,0.0000000E+000,10,2.94541e-08,-3.98896, , ,-0.000242016,
2,1,0,1,0,49257,0.0187763,0.0184085,0.203263,75,0.000653124,10,3.74177e-06,-3.69194,0.151102,0.390466,0.0183191,
2,1,0,1,0,49260.8,0.0377538,0.0374124,0.267774,75,0.00159794,10,1.00181e-05,-3.57223,0.171185,0.344656,0.0372946,
2,1,0,0,0,49264.6,0.0567309,0.0563714,0.328218,75,0.00278803,10,1.85021e-05,-3.48384,0.303781,0.194219,0.056227,
2,1,0,1,0,49268.4,0.075708,0.0754142,0.37344,75,0.0041823,10,2.81627e-05,-3.42778,0.427823,0.137907,0.0752499,
2,1,0,0,0,49272.2,0.094685,0.0943552,0.427432,75,0.00574393,10,4.03304e-05,-3.36913,0.244147,0.241658,0.0941671,
2,1,0,1,0,49276,0.113662,0.113327,0.520868,75,0.00759232,10,5.90284e-05,-3.28327,0.311595,0.189349,0.113098,
2,1,0,0,0,49279.8,0.132639,0.132294,0.560942,75,0.00971939,10,7.42094e-05,-3.25108,-0.69503,-0.0848884,0.132048,
2,1,0,1,0,49283.6,0.151617,0.151254,0.373079,75,0.0116103,10,5.64296e-05,-3.4282,-0.0779049,-0.757334,0.15109,
2,1,0,1,0,49287.4,0.170594,0.170268,0.280229,75,0.0128424,10,4.77139e-05,-3.55249,-0.32282,-0.182764,0.170144,
2,1,0,1,0,49291.2,0.189571,0.189211,0.260016,75,0.0139065,10,4.91978e-05,-3.585,-0.630783,-0.0935345,0.189096,
2,1,0,1,0,49295,0.208547,0.208196,0.250765,75,0.0149209,10,5.22084e-05,-3.60073,-0.899188,-0.0656147,0.208086,
2,1,0,1,0,49298.7,0.227524,0.227205,0.244849,75,0.0159081,10,5.56309e-05,-3.6111,-2.89179,-0.0204026,0.227097,
2,1,0,1,0,49302.5,0.246501,0.246209,0.241652,75,0.0168762,10,5.9497e-05,-3.61681,-1.00286,-0.0588316,0.246103,
2,1,0,0,0,49306.3,0.265479,0.265135,0.237872,75,0.0178295,10,6.30682e-05,-3.62366,-1.48357,-0.0397689,0.26503,
2,1,0,1,0,49310.1,0.284456,0.284106,0.234125,75,0.0187682,10,6.65165e-05,-3.63055,-1.87789,-0.0314183,0.284003,
2,1,0,0,0,49313.9,0.303433,0.303117,0.229595,75,0.0196901,10,6.95942e-05,-3.63904,-3.12408,-0.0188856,0.303016,
2,1,0,1,0,49317.7,0.32241,0.322134,0.226516,75,0.0205971,10,7.29685e-05,-3.6449,-4.46104,-0.0132256,0.322034,
2,1,0,0,0,49321.5,0.341387,0.341093,0.223896,75,0.0214918,10,7.63692e-05,-3.64995,-2.38362,-0.0247523,0.340994,
2,1,0,1,0,49325.3,0.360364,0.360037,0.22236,75,0.022377,10,8.00578e-05,-3.65294,-1.77256,-0.0332851,0.359939,
2,1,0,1,0,49329.1,0.379342,0.378977,0.219557,75,0.0232522,10,8.3207e-05,-3.65845,-21.2431,-0.00277738,0.378881,
2,1,0,1,0,49332.9,0.398319,0.398028,0.218042,75,0.0241211,10,8.67868e-05,-3.66146,-2.56825,-0.0229728,0.397932,
2,1,0,1,0,49336.7,0.417295,0.416992,0.218253,75,0.0249852,10,9.10098e-05,-3.66104,4.31581,0.0136707,0.416896,
2,1,0,1,0,49340.5,0.436272,0.435957,0.218116,75,0.0258471,10,9.50891e-05,-3.66131,13.1572,0.00448422,0.435861,
2,1,0,1,0,49344.3,0.455249,0.454938,0.217906,75,0.0267064,10,9.91339e-05,-3.66173,1.1553,0.0510688,0.454842,
2,1,0,1,0,49348.1,0.474226,0.473899,0.219709,75,0.0275685,10,0.00010412,-3.65815,2.71804,0.0217068,0.473802,
2,1,0,1,0,49351.9,0.493203,0.492891,0.222063,75,0.0284378,10,0.000109453,-3.65352,1.95444,0.0301877,0.492793,
2,1,0,0,0,49355.7,0.512181,0.511866,0.226166,75,0.0293206,10,0.000115767,-3.64557,1.78775,0.0330025,0.511766,
2,1,0,1,0,49359.5,0.531158,0.530852,0.23212,75,0.0302209,10,0.000123221,-3.63429,1.40869,0.041883,0.53075,
2,1,0,0,0,49363.3,0.550135,0.549833,0.240636,75,0.0311472,10,0.000132309,-3.61864,1.11266,0.0530261,0.549727,
2,1,0,1,0,49367.1,0.569112,0.568813,0.253601,75,0.0321132,10,0.000144251,-3.59585,0.578721,0.101949,0.568701,
2,1,0,0,0,49370.9,0.588089,0.587773,0.273412,75,0.0331391,10,0.000160704,-3.56318,0.494887,0.119219,0.587653,
2,1,0,1,0,49374.7,0.607066,0.60677,0.305506,75,0.0342607,10,0.000185372,-3.51498,0.296447,0.199024,0.606636,
2,1,0,1,0,49378.5,0.626044,0.625763,0.36633,75,0.0355533,10,0.000229235,-3.43613,0.188415,0.313139,0.625601,
2,1,0,1,0,49382.2,0.64502,0.644745,0.490172,75,0.0371817,10,0.000316036,-3.30965,0.124511,0.473855,0.644529,
2,1,0,1,0,49386,0.663997,0.663704,0.74098,75,0.0394927,10,0.000491791,-3.13019,0.0909306,0.648847,0.663378,
2,1,0,1,0,49389.8,0.682974,0.682719,1.22653,75,0.0431668,10,0.000837379,-2.91132,0.0827295,0.713167,0.68218,
2,1,0,1,0,49393.6,0.701951,0.701654,2.04921,75,0.0492972,10,0.00143784,-2.68841,0.0851271,0.693081,0.700753,
2,1,0,1,0,49397.4,0.720928,0.720625,3.25827,75,0.0592757,10,0.00234799,-2.48701,0.0984768,0.599126,0.719191,
2,1,0,1,0,49401.2,0.739905,0.73963,4.86894,75,0.0745957,10,0.00360122,-2.31257,0.113442,0.52009,0.737488,
2,1,0,0,0,49405,0.758883,0.758599,6.93309,75,0.0968661,10,0.00525944,-2.15907,0.12313,0.479167,0.755549,
2,1,0,1,0,49408.8,0.77786,0.777589,9.57366,75,0.128009,10,0.00744437,-2.01892,0.130302,0.452794,0.773376,
2,1,0,0,0,49412.6,0.796837,0.796583,13.4466,75,0.17116,10,0.0107113,-1.87139,0.123644,0.477177,0.790666,
2,1,0,1,0,49416.4,0.815814,0.815508,18.1616,75,0.230846,10,0.0148109,-1.74085,0.134909,0.43733,0.807517,
2,1,0,0,0,49420.2,0.834791,0.834551,23.8601,75,0.31036,10,0.0199125,-1.62233,0.148322,0.397782,0.824052,
2,1,0,0,0,49423.9,0.846726,0.846496,26.9554,75,0.408511,10,0.0228176,-1.56935,0.103074,0.572406,0.834636,
2,1,0,1,0,49427.7,0.827749,0.827488,19.9992,75,0.496856,10,0.0165491,-1.69899,0.121976,0.4837,0.818689,
2,1,0,1,0,49431.5,0.808772,0.808526,14.6217,75,0.562147,10,0.011822,-1.835,0.118012,0.499948,0.802093,
2,1,0,1,0,49435.3,0.789795,0.78947,10.4763,75,0.609382,10,0.00827071,-1.97979,0.114574,0.514951,0.78486,
2,1,0,1,0,49439.1,0.770818,0.770529,7.33802,75,0.642834,10,0.00565415,-2.13442,0.112361,0.525095,0.7673,
2,1,0,1,0,49442.9,0.751841,0.751547,5.01738,75,0.66603,10,0.00377079,-2.29952,0.107824,0.54719,0.749339,
2,1,0,1,0,49446.7,0.732865,0.732592,3.2822,75,0.681592,10,0.00240451,-2.48384,0.0940695,0.627196,0.731148,
2,1,0,0,0,49450.5,0.713887,0.713594,2.00757,75,0.69147,10,0.00143259,-2.69733,0.0793529,0.743514,0.712711,
2,1,0,1,0,49454.3,0.69491,0.694672,1.10991,75,0.697246,10,0.000771023,-2.95471,0.0659228,0.894987,0.694184,
2,1,0,0,0,49458.1,0.675933,0.675656,0.522539,75,0.700222,10,0.000353057,-3.28188,0.0515716,1.14404,0.675426,
2,1,0,1,0,49461.9,0.656956,0.656716,0.185852,75,0.701468,10,0.000122052,-3.73083,0.0336435,1.75368,0.656635,
2,1,0,0,0,49465.6,0.637979,0.637688,0.0190404,75,0.701785,10,1.21418e-05,-4.72032,0.00629371,9.37444,0.63768,
2,0,0,1,0,49469.4,0.619002,0.618686,-0.0553474,75,0.701664,10,-3.42426e-05,-4.2569,-0.0500337,-1.17921,0.61871,
2,0,0,0,0,49473.2,0.600024,0.599716,-0.0884752,75,0.70135,10,-5.306e-05,-4.05318,-0.207883,-0.283814,0.599755,
2,0,0,1,0,49477,0.581047,0.580758,-0.104387,75,0.700947,10,-6.06233e-05,-3.98136,-0.385599,-0.153009,0.580804,
2,0,0,1,0,49480.8,0.56207,0.56178,-0.112462,75,0.7005,10,-6.31791e-05,-3.94899,-0.64038,-0.0921328,0.56183,
2,0,0,1,0,49484.6,0.543093,0.542766,-0.119319,75,0.700027,10,-6.47622e-05,-3.92329,-0.621518,-0.0949289,0.542818,
2,0,0,1,0,49488.4,0.524116,0.523829,-0.123882,75,0.699534,10,-6.48928e-05,-3.90699,-0.705546,-0.0836232,0.523883,
2,0,0,1,0,49492.2,0.505139,0.504864,-0.128436,75,0.699022,10,-6.48429e-05,-3.89131,-0.978262,-0.060311,0.504921,
2,0,0,1,0,49496,0.486162,0.485869,-0.13395,75,0.698491,10,-6.5082e-05,-3.87306,-0.979453,-0.0602377,0.485928,
2,0,0,1,0,49499.8,0.467185,0.46689,-0.139499,75,0.697939,10,-6.51309e-05,-3.85543,27.6805,0.00213146,0.466951,
2,0,0,1,0,49503.6,0.448208,0.447872,-0.146602,75,0.697361,10,-6.56589e-05,-3.83386,-0.87217,-0.0676473,0.447937,
2,0,0,0,0,49507.4,0.429231,0.428923,-0.153875,75,0.696754,10,-6.60005e-05,-3.81283,-5.17026,-0.0114114,0.428991,
2,0,0,1,0,49511.2,0.410254,0.409967,-0.163218,75,0.696115,10,-6.6914e-05,-3.78723,-1.38289,-0.0426643,0.410039,
2,0,0,0,0,49515,0.391277,0.390947,-0.172036,75,0.695441,10,-6.72568e-05,-3.76438,-0.663687,-0.0888974,0.391022,
2,0,0,1,0,49518.8,0.3723,0.371972,-0.182228,75,0.694729,10,-6.77838e-05,-3.73938,-1.21365,-0.0486139,0.372052,
2,0,0,1,0,49522.6,0.353322,0.353029,-0.191268,75,0.693979,10,-6.75232e-05,-3.71836,-0.672237,-0.0877666,0.353113,
2,0,0,1,0,49526.4,0.334345,0.334064,-0.202277,75,0.693189,10,-6.75736e-05,-3.69405,-0.905695,-0.0651433,0.334153,
2,0,0,1,0,49530.2,0.315368,0.315057,-0.213594,75,0.692357,10,-6.72943e-05,-3.67041,-0.858826,-0.0686984,0.315151,
2,0,0,1,0,49534,0.296391,0.2961,-0.226527,75,0.69148,10,-6.70744e-05,-3.64488,-0.787527,-0.0749181,0.296199,
2,0,0,1,0,49537.8,0.277414,0.2771,-0.238419,75,0.690557,10,-6.60659e-05,-3.62266,-0.691619,-0.0853071,0.277205,
2,0,0,1,0,49541.6,0.258437,0.258174,-0.250535,75,0.689586,10,-6.46817e-05,-3.60113,-0.843274,-0.0699654,0.258285,
2,0,0,1,0,49545.4,0.239461,0.239137,-0.260934,75,0.68857,10,-6.23989e-05,-3.58347,-0.791722,-0.0745211,0.239252,
2,0,0,0,0,49549.1,0.220483,0.2202,-0.273109,75,0.687511,10,-6.01386e-05,-3.56366,-0.727016,-0.0811536,0.22032,
2,0,0,1,0,49552.9,0.201506,0.201162,-0.285863,75,0.686404,10,-5.7505e-05,-3.54384,-0.50429,-0.116996,0.201288,
2,0,0,0,0,49556.7,0.182529,0.182214,-0.303924,75,0.685238,10,-5.53792e-05,-3.51724,-0.447543,-0.131831,0.182348,
2,0,0,1,0,49560.5,0.163552,0.163189,-0.334926,75,0.683982,10,-5.46564e-05,-3.47505,-0.330249,-0.178653,0.163337,
2,0,0,0,0,49564.3,0.144575,0.1443,-0.423025,75,0.682525,10,-6.10427e-05,-3.37363,-0.115181,-0.512236,0.144486,
2,0,0,1,0,49568.1,0.125598,0.125265,-0.629977,75,0.680479,10,-7.89141e-05,-3.20068,-0.166028,-0.355361,0.125542,
2,0,0,1,0,49571.9,0.10662,0.106276,-0.685997,75,0.67787,10,-7.2905e-05,-3.16368,2.81911,0.0209286,0.106578,
2,0,0,1,0,49575.7,0.0876433,0.0873394,-0.660661,75,0.675247,10,-5.77017e-05,-3.18002,0.757254,0.0779131,0.0876301,
2,0,0,1,0,49579.5,0.0686664,0.068373,-0.619277,75,0.672764,10,-4.23418e-05,-3.20812,0.676975,0.0871524,0.0686455,
2,0,0,1,0,49583.3,0.0496895,0.0492657,-0.57577,75,0.670437,10,-2.83657e-05,-3.23975,0.537047,0.10986,0.049519,
2,0,0,1,0,49587.1,0.0307126,0.0304372,-0.527261,75,0.668287,10,-1.60483e-05,-3.27797,0.584509,0.100939,0.0306692,
2,0,0,1,0,49590.9,0.0117356,0.0114116,-0.497758,75,0.666295,10,-5.68022e-06,-3.30298,1.5677,0.0376348,0.0116306,
2,0,0,0,0,49593.2,0.000274105,-7.71884e-05,-0.498974,75,0.665121,10,3.8515e-08,-3.30192, , ,0.00014236,