File: Figure_codes/Fig_3-5/workspace_calculate_alpha_eff/20221101_1-115_003_TrumpetPlot_ParaChange_from10_every3_16_CV_C01_76.csv
mode,ox/red,error,control changes,counter inc.,time/s,control/V,Ewe/V,<I>/mA,cycle number,(Q-Qo)/C,I Range,P/W,log(|I|),Tafel slope mV/dec,alpha_eff,E-IR/V,
2,0,0,0,0,50853.4,2.44065e-05,-0.000344411,-0.0949418,77,0.0000000E+000,10,3.2699e-08,-4.02254, , ,-0.000302636,
2,1,0,1,0,50857.1,0.0187763,0.0184297,0.213586,77,0.000698596,10,3.93633e-06,-3.67043,0.164367,0.358954,0.0183357,
2,1,0,1,0,50860.9,0.0377538,0.0374357,0.276465,77,0.00168831,10,1.03497e-05,-3.55836,0.190707,0.309374,0.0373141,
2,1,0,0,0,50864.7,0.0567309,0.0563948,0.337788,77,0.00292164,10,1.90495e-05,-3.47136,0.2856,0.206583,0.0562461,
2,1,0,1,0,50868.5,0.075708,0.0753686,0.384127,77,0.00435836,10,2.89511e-05,-3.41553,0.480268,0.122848,0.0751996,
2,1,0,0,0,50872.3,0.094685,0.0943944,0.437202,77,0.00596063,10,4.12694e-05,-3.35932,0.237602,0.248314,0.0942021,
2,1,0,1,0,50876.1,0.113662,0.113334,0.53085,77,0.00785397,10,6.01635e-05,-3.27503,0.325471,0.181276,0.113101,
2,1,0,0,0,50879.9,0.132639,0.132363,0.566502,77,0.0100194,10,7.49841e-05,-3.2468,-0.64356,-0.0916775,0.132114,
2,1,0,1,0,50883.7,0.151617,0.151243,0.375785,77,0.0119335,10,5.68349e-05,-3.42506,-0.0786911,-0.749767,0.151078,
2,1,0,1,0,50887.5,0.170594,0.170291,0.285179,77,0.0131896,10,4.85635e-05,-3.54488,-0.354767,-0.166306,0.170166,
2,1,0,1,0,50891.3,0.189571,0.189289,0.267199,77,0.0142842,10,5.0578e-05,-3.57316,-0.926398,-0.0636875,0.189172,
2,1,0,1,0,50895.1,0.208547,0.208212,0.259104,77,0.0153343,10,5.39486e-05,-3.58653,-1.00403,-0.0587632,0.208098,
2,1,0,1,0,50898.9,0.227524,0.227237,0.254085,77,0.0163595,10,5.77374e-05,-3.59502,-1.29315,-0.0456249,0.227125,
2,1,0,1,0,50902.7,0.246501,0.24617,0.249738,77,0.0173661,10,6.1478e-05,-3.60252,-2.42689,-0.024311,0.24606,
2,1,0,0,0,50906.5,0.265479,0.265159,0.24604,77,0.0183564,10,6.52399e-05,-3.60899,-1.25002,-0.0471994,0.265051,
2,1,0,1,0,50910.3,0.284456,0.284145,0.241974,77,0.0193293,10,6.87556e-05,-3.61623,6.25287,0.00943567,0.284038,
2,1,0,0,0,50914.1,0.303433,0.303111,0.238052,77,0.0202855,10,7.21561e-05,-3.62333,-2.92267,-0.020187,0.303006,
2,1,0,1,0,50917.9,0.32241,0.322138,0.234283,77,0.021227,10,7.54713e-05,-3.63026,-4.40306,-0.0133998,0.322035,
2,1,0,0,0,50921.7,0.341387,0.341046,0.231478,77,0.0221556,10,7.89446e-05,-3.63549,20.5263,0.00287436,0.340944,
2,1,0,1,0,50925.4,0.360364,0.360052,0.230249,77,0.0230733,10,8.29014e-05,-3.6378,5.88173,0.0100311,0.35995,
2,1,0,1,0,50929.2,0.379342,0.379079,0.227618,77,0.023981,10,8.62854e-05,-3.64279,-26.5519,-0.00222206,0.378979,
2,1,0,1,0,50933,0.398319,0.397985,0.225482,77,0.0248812,10,8.97383e-05,-3.64689,2.58979,0.0227818,0.397886,
2,1,0,1,0,50936.8,0.417295,0.416991,0.224507,77,0.0257758,10,9.36176e-05,-3.64877,3.51321,0.0167937,0.416893,
2,1,0,1,0,50940.6,0.436272,0.435947,0.224927,77,0.0266672,10,9.80562e-05,-3.64796,7.65237,0.00771003,0.435848,
2,1,0,1,0,50944.4,0.455249,0.454935,0.224711,77,0.0275562,10,0.000102229,-3.64838,1.61644,0.0364999,0.454836,
2,1,0,1,0,50948.2,0.474226,0.473921,0.226092,77,0.0284471,10,0.00010715,-3.64571,1.08171,0.0545434,0.473821,
2,1,0,1,0,50952,0.493203,0.492877,0.22778,77,0.0293437,10,0.000112267,-3.64248,1.70877,0.0345277,0.492777,
2,1,0,0,0,50955.8,0.512181,0.511879,0.231644,77,0.0302511,10,0.000118574,-3.63518,1.77238,0.0332886,0.511777,
2,1,0,1,0,50959.6,0.531158,0.530861,0.238785,77,0.0311763,10,0.000126762,-3.62199,1.90705,0.0309378,0.530756,
2,1,0,0,0,50963.4,0.550135,0.549827,0.246886,77,0.0321292,10,0.000135744,-3.6075,0.789749,0.0747073,0.549719,
2,1,0,1,0,50967.2,0.569112,0.568867,0.259095,77,0.0331224,10,0.000147391,-3.58654,0.56544,0.104344,0.568753,
2,1,0,0,0,50971,0.588089,0.587781,0.278273,77,0.0341734,10,0.000163564,-3.55553,0.46051,0.128119,0.587659,
2,1,0,1,0,50974.8,0.607066,0.606739,0.312831,77,0.0353214,10,0.000189807,-3.50469,0.31969,0.184554,0.606602,
2,1,0,1,0,50978.6,0.626044,0.625763,0.373205,77,0.0366416,10,0.000233538,-3.42805,0.185012,0.318898,0.625598,
2,1,0,1,0,50982.4,0.64502,0.644714,0.497301,77,0.0382992,10,0.000320617,-3.30338,0.122311,0.482375,0.644495,
2,1,0,1,0,50986.2,0.663997,0.663765,0.750174,77,0.0406424,10,0.000497939,-3.12484,0.0900053,0.655517,0.663435,
2,1,0,1,0,50990,0.682974,0.682687,1.24109,77,0.0443618,10,0.000847273,-2.9062,0.0807692,0.730476,0.682141,
2,1,0,1,0,50993.8,0.701951,0.701686,2.08014,77,0.0505753,10,0.00145961,-2.68191,0.0879712,0.670674,0.700771,
2,1,0,1,0,50997.6,0.720928,0.720698,3.32757,77,0.0607365,10,0.00239817,-2.47787,0.0946024,0.623663,0.719234,
2,1,0,1,0,51001.4,0.739905,0.739659,5.01158,77,0.0764497,10,0.00370686,-2.30002,0.108657,0.542995,0.737454,
2,1,0,0,0,51005.2,0.758883,0.758579,7.19606,77,0.0994767,10,0.00545878,-2.14291,0.120151,0.49105,0.755413,
2,1,0,1,0,51008.9,0.77786,0.777583,10.0022,77,0.131919,10,0.00777752,-1.99991,0.127504,0.462731,0.773182,
2,1,0,0,0,51012.7,0.796837,0.796553,13.7368,77,0.176634,10,0.0109421,-1.86211,0.125266,0.470997,0.790509,
2,1,0,1,0,51016.5,0.815814,0.81554,18.6999,77,0.237808,10,0.0152505,-1.72816,0.123863,0.476334,0.807312,
2,1,0,0,0,51020.3,0.834791,0.834531,24.4726,77,0.320038,10,0.0204232,-1.61132,0.186768,0.315901,0.823763,
2,1,0,0,0,51024,0.846726,0.84648,27.9904,77,0.421446,10,0.0236933,-1.55299,0.103849,0.568132,0.834164,
2,1,0,1,0,51027.8,0.827749,0.827538,20.6377,77,0.512958,10,0.0170785,-1.68534,0.118335,0.498585,0.818457,
2,1,0,1,0,51031.6,0.808772,0.808485,15.0442,77,0.580168,10,0.012163,-1.82263,0.115603,0.510367,0.801865,
2,1,0,1,0,51035.4,0.789795,0.789496,10.7024,77,0.628586,10,0.00844949,-1.97052,0.113776,0.518564,0.784787,
2,1,0,1,0,51039.2,0.770818,0.77054,7.47643,77,0.66273,10,0.00576089,-2.12631,0.114149,0.516869,0.767251,
2,1,0,1,0,51043,0.751841,0.751607,5.10042,77,0.686324,10,0.00383351,-2.29239,0.104088,0.56683,0.749363,
2,1,0,1,0,51046.8,0.732865,0.73259,3.34049,77,0.70214,10,0.00244721,-2.47619,0.0937828,0.629113,0.73112,
2,1,0,0,0,51050.6,0.713887,0.713576,2.04034,77,0.712183,10,0.00145594,-2.6903,0.0794331,0.742763,0.712679,
2,1,0,1,0,51054.4,0.69491,0.694688,1.123,77,0.718044,10,0.000780138,-2.94962,0.064289,0.91773,0.694194,
2,1,0,0,0,51058.2,0.675933,0.67565,0.531605,77,0.72106,10,0.000359179,-3.27441,0.0511913,1.15254,0.675416,
2,1,0,1,0,51062,0.656956,0.656667,0.192171,77,0.722333,10,0.000126192,-3.71631,0.0351119,1.68034,0.656582,
2,1,0,0,0,51065.8,0.637979,0.637666,0.0248692,77,0.72267,10,1.58583e-05,-4.60434,0.00878764,6.71398,0.637655,
2,0,0,1,0,51069.6,0.619002,0.618718,-0.0495023,77,0.72257,10,-3.0628e-05,-4.30537,-0.0463081,-1.27408,0.618739,
2,0,0,0,0,51073.4,0.600024,0.599684,-0.08325,77,0.722275,10,-4.99237e-05,-4.07962,-0.188264,-0.313389,0.599721,
2,0,0,1,0,51077.2,0.581047,0.58074,-0.0997194,77,0.721891,10,-5.7911e-05,-4.00122,-0.449303,-0.131314,0.580784,
2,0,0,1,0,51081,0.56207,0.561724,-0.107984,77,0.721461,10,-6.06574e-05,-3.96664,-0.640426,-0.0921262,0.561771,
2,0,0,1,0,51084.8,0.543093,0.542796,-0.114061,77,0.721005,10,-6.19116e-05,-3.94286,-1.94735,-0.0302975,0.542846,
2,0,0,1,0,51088.6,0.524116,0.523807,-0.118875,77,0.720529,10,-6.22678e-05,-3.92491,-1.19717,-0.049283,0.52386,
2,0,0,1,0,51092.3,0.505139,0.504858,-0.123481,77,0.720036,10,-6.23401e-05,-3.9084,-0.604438,-0.0976114,0.504912,
2,0,0,1,0,51096.1,0.486162,0.485861,-0.1287,77,0.719524,10,-6.25304e-05,-3.89042,-0.898153,-0.0656904,0.485917,
2,0,0,1,0,51099.9,0.467185,0.466827,-0.134568,77,0.718989,10,-6.28202e-05,-3.87106,-2.95769,-0.019948,0.466886,
2,0,0,1,0,51103.7,0.448208,0.447907,-0.141661,77,0.718428,10,-6.34509e-05,-3.84875,-1.11025,-0.0531412,0.44797,
2,0,0,0,0,51107.5,0.429231,0.428917,-0.14937,77,0.717838,10,-6.40671e-05,-3.82574,-9.12347,-0.00646684,0.428982,
2,0,0,1,0,51111.3,0.410254,0.409929,-0.157289,77,0.717216,10,-6.44774e-05,-3.8033,-1.04093,-0.0566802,0.409998,
2,0,0,0,0,51115.1,0.391277,0.390919,-0.167145,77,0.71656,10,-6.534e-05,-3.77691,-0.58613,-0.10066,0.390993,
2,0,0,1,0,51118.9,0.3723,0.372015,-0.176358,77,0.715866,10,-6.56078e-05,-3.75361,-0.627683,-0.0939964,0.372093,
2,0,0,1,0,51122.7,0.353322,0.353025,-0.186392,77,0.715133,10,-6.58011e-05,-3.72957,-0.823008,-0.0716883,0.353107,
2,0,0,1,0,51126.5,0.334345,0.334026,-0.197271,77,0.714358,10,-6.58937e-05,-3.70494,-0.45769,-0.128908,0.334113,
2,0,0,1,0,51130.3,0.315368,0.315064,-0.208659,77,0.71354,10,-6.57408e-05,-3.68056,-0.572518,-0.103054,0.315155,
2,0,0,1,0,51134.1,0.296391,0.296097,-0.221387,77,0.712678,10,-6.55521e-05,-3.65485,-0.761539,-0.0774747,0.296194,
2,0,0,1,0,51137.9,0.277414,0.277072,-0.232106,77,0.711769,10,-6.43101e-05,-3.63431,-0.967746,-0.0609664,0.277174,
2,0,0,1,0,51141.7,0.258437,0.258109,-0.245349,77,0.710812,10,-6.33266e-05,-3.61022,-0.90305,-0.0653342,0.258217,
2,0,0,1,0,51145.5,0.239461,0.239139,-0.256105,77,0.709811,10,-6.12449e-05,-3.59158,-0.756173,-0.0780245,0.239252,
2,0,0,0,0,51149.3,0.220483,0.220178,-0.268012,77,0.708766,10,-5.90102e-05,-3.57185,-0.551638,-0.106954,0.220296,
2,0,0,1,0,51153.1,0.201506,0.201183,-0.281292,77,0.707674,10,-5.6591e-05,-3.55084,-0.57339,-0.102897,0.201306,
2,0,0,0,0,51156.9,0.182529,0.182207,-0.299251,77,0.706523,10,-5.45255e-05,-3.52396,-0.435116,-0.135596,0.182338,
2,0,0,1,0,51160.7,0.163552,0.163228,-0.329401,77,0.705284,10,-5.37672e-05,-3.48228,-0.310951,-0.18974,0.163372,
2,0,0,0,0,51164.5,0.144575,0.144227,-0.415631,77,0.70385,10,-5.99453e-05,-3.38129,-0.112788,-0.523103,0.14441,
2,0,0,1,0,51168.3,0.125598,0.125262,-0.61809,77,0.701837,10,-7.74231e-05,-3.20895,-0.151819,-0.388621,0.125534,
2,0,0,1,0,51172,0.10662,0.106302,-0.681819,77,0.699254,10,-7.2479e-05,-3.16633,3.62073,0.0162951,0.106602,
2,0,0,1,0,51175.8,0.0876433,0.0873021,-0.656318,77,0.696648,10,-5.7298e-05,-3.18289,0.68179,0.0865369,0.0875909,
2,0,0,1,0,51179.6,0.0686664,0.0683263,-0.616806,77,0.694175,10,-4.21441e-05,-3.20985,0.591148,0.0998057,0.0685977,
2,0,0,1,0,51183.4,0.0496895,0.0493314,-0.574545,77,0.691851,10,-2.83431e-05,-3.24068,0.530468,0.111222,0.0495842,
2,0,0,1,0,51187.2,0.0307126,0.0303854,-0.528068,77,0.689697,10,-1.60456e-05,-3.27731,0.506901,0.116394,0.0306178,
2,0,0,1,0,51191,0.0117356,0.0114052,-0.497846,77,0.687699,10,-5.67802e-06,-3.30291,1.58058,0.037328,0.0116242,
2,0,0,0,0,51193.3,0.000274105,-5.8101e-05,-0.499278,77,0.686522,10,2.90085e-08,-3.30166, , ,0.000161581,