File: Figure_codes/Fig_3-5/workspace_calculate_alpha_eff/20221101_1-115_003_TrumpetPlot_ParaChange_from10_every3_16_CV_C01_38.csv
mode,ox/red,error,control changes,counter inc.,time/s,control/V,Ewe/V,<I>/mA,cycle number,(Q-Qo)/C,I Range,P/W,log(|I|),Tafel slope mV/dec,alpha_eff,E-IR/V,
2,0,0,0,0,25611.7,2.44065e-05,-0.000306236,-0.098122,39,0.0000000E+000,10,3.00485e-08,-4.00823, , ,-0.000263063,
2,1,0,1,0,25615.4,0.0187763,0.0184349,0.213807,39,0.000701735,10,3.94151e-06,-3.66998,0.147502,0.399994,0.0183408,
2,1,0,1,0,25619.2,0.0377538,0.0373965,0.282122,39,0.00170509,10,1.05504e-05,-3.54956,0.173442,0.340171,0.0372724,
2,1,0,0,0,25623,0.0567309,0.0564054,0.345557,39,0.00296458,10,1.94913e-05,-3.46148,0.298072,0.197939,0.0562533,
2,1,0,1,0,25626.8,0.075708,0.0754025,0.395458,39,0.00444036,10,2.98185e-05,-3.4029,0.44331,0.13309,0.0752285,
2,1,0,0,0,25630.6,0.0946851,0.0943456,0.451551,39,0.00609566,10,4.26019e-05,-3.34529,0.235336,0.250706,0.094147,
2,1,0,1,0,25634.4,0.113662,0.113347,0.554093,39,0.00806966,10,6.28049e-05,-3.25642,0.350366,0.168395,0.113103,
2,1,0,0,0,25638.2,0.132639,0.132349,0.607854,39,0.010352,10,8.04486e-05,-3.2162,-2.24872,-0.0262371,0.132081,
2,1,0,1,0,25642,0.151617,0.15125,0.40123,39,0.0124145,10,6.06859e-05,-3.39661,-0.07006,-0.842135,0.151073,
2,1,0,1,0,25645.8,0.170594,0.170286,0.289566,39,0.0137226,10,4.9309e-05,-3.53825,-0.234882,-0.25119,0.170158,
2,1,0,1,0,25649.6,0.189571,0.189252,0.263272,39,0.0148163,10,4.98248e-05,-3.57959,-0.605467,-0.0974455,0.189136,
2,1,0,1,0,25653.4,0.208547,0.208279,0.251501,39,0.0158458,10,5.23823e-05,-3.59946,-1.01521,-0.0581162,0.208168,
2,1,0,1,0,25657.2,0.227524,0.227245,0.243494,39,0.0168404,10,5.53329e-05,-3.61351,-1.12185,-0.0525917,0.227138,
2,1,0,1,0,25661,0.246501,0.246183,0.239049,39,0.0178116,10,5.88497e-05,-3.62151,-0.822526,-0.0717303,0.246078,
2,1,0,0,0,25664.8,0.265479,0.265188,0.234352,39,0.0187644,10,6.21473e-05,-3.63013,-1.15048,-0.0512831,0.265085,
2,1,0,1,0,25668.6,0.284456,0.284129,0.230141,39,0.0197005,10,6.53897e-05,-3.63801,40.614,0.0014527,0.284027,
2,1,0,0,0,25672.4,0.303433,0.303176,0.226756,39,0.0206218,10,6.8747e-05,-3.64444,-8.1301,-0.00725699,0.303076,
2,1,0,1,0,25676.2,0.32241,0.322145,0.223271,39,0.0215278,10,7.19258e-05,-3.65117,-1.57879,-0.0373704,0.322047,
2,1,0,0,0,25680,0.341387,0.341084,0.220552,39,0.0224224,10,7.52268e-05,-3.65649,8.74446,0.00674713,0.340987,
2,1,0,1,0,25683.8,0.360364,0.36011,0.22025,39,0.0233066,10,7.93143e-05,-3.65708,-8.20362,-0.00719195,0.360013,
2,1,0,1,0,25687.5,0.379342,0.379043,0.217381,39,0.0241817,10,8.23966e-05,-3.66278,-23.2858,-0.00253374,0.378947,
2,1,0,1,0,25691.3,0.398319,0.398058,0.215415,39,0.0250497,10,8.57477e-05,-3.66672,-2.58813,-0.0227964,0.397963,
2,1,0,1,0,25695.1,0.417295,0.417029,0.214733,39,0.0259125,10,8.955e-05,-3.6681,2.04542,0.0288449,0.416935,
2,1,0,1,0,25698.9,0.436272,0.435984,0.21522,39,0.0267721,10,9.38325e-05,-3.66712,2.87869,0.0204955,0.43589,
2,1,0,1,0,25702.7,0.455249,0.454956,0.21545,39,0.0276319,10,9.80204e-05,-3.66665,5.14334,0.0114712,0.454861,
2,1,0,1,0,25706.5,0.474226,0.473918,0.216165,39,0.0284949,10,0.000102444,-3.66522,1.10889,0.0532064,0.473823,
2,1,0,1,0,25710.3,0.493203,0.492913,0.220423,39,0.029367,10,0.000108649,-3.65674,1.42016,0.0415446,0.492816,
2,1,0,0,0,25714.1,0.512181,0.511883,0.224776,39,0.0302524,10,0.000115059,-3.64825,0.973682,0.0605948,0.511784,
2,1,0,1,0,25717.9,0.531158,0.530893,0.23185,39,0.0311587,10,0.000123088,-3.63479,0.978469,0.0602983,0.530791,
2,1,0,0,0,25721.7,0.550135,0.549867,0.239559,39,0.0320938,10,0.000131726,-3.62059,0.715305,0.0824823,0.549761,
2,1,0,1,0,25725.5,0.569112,0.568835,0.254154,39,0.0330739,10,0.000144572,-3.5949,0.562623,0.104866,0.568723,
2,1,0,0,0,25729.3,0.588089,0.587787,0.278756,39,0.0341232,10,0.000163849,-3.55478,0.391719,0.150618,0.587664,
2,1,0,1,0,25733.1,0.607066,0.606768,0.319798,39,0.0352907,10,0.000194043,-3.49512,0.268506,0.219735,0.606627,
2,1,0,1,0,25736.9,0.626044,0.625719,0.397923,39,0.0366737,10,0.000248988,-3.4002,0.153235,0.38503,0.625544,
2,1,0,1,0,25740.7,0.64502,0.644734,0.561562,39,0.0384975,10,0.000362058,-3.2506,0.104993,0.561944,0.644487,
2,1,0,1,0,25744.5,0.663997,0.663728,0.911722,39,0.0412539,10,0.000605136,-3.04014,0.080248,0.735221,0.663327,
2,1,0,1,0,25748.3,0.682974,0.682699,1.60377,39,0.0459338,10,0.00109489,-2.79486,0.0749303,0.787399,0.681994,
2,1,0,1,0,25752.1,0.701951,0.701652,2.8069,39,0.0541698,10,0.00196947,-2.55177,0.0790106,0.746735,0.700417,
2,1,0,1,0,25755.9,0.720928,0.720636,4.59348,39,0.0680696,10,0.00331023,-2.33786,0.0914875,0.644897,0.718615,
2,1,0,1,0,25759.7,0.739905,0.739611,6.96827,39,0.0898709,10,0.00515381,-2.15687,0.107747,0.547581,0.736545,
2,1,0,0,0,25763.5,0.758883,0.758609,9.95402,39,0.121821,10,0.00755121,-2.002,0.120072,0.491372,0.754229,
2,1,0,1,0,25767.3,0.77786,0.777587,13.7886,39,0.166567,10,0.0107218,-1.86048,0.121418,0.485924,0.77152,
2,1,0,0,0,25771,0.796837,0.796595,18.9033,39,0.228091,10,0.0150583,-1.72346,0.12089,0.488047,0.788277,
2,1,0,1,0,25774.8,0.815814,0.815527,25.2398,39,0.311641,10,0.0205837,-1.59791,0.15316,0.385217,0.804422,
2,1,0,0,0,25778.6,0.834791,0.834547,32.3229,39,0.420576,10,0.026975,-1.49049,0.169934,0.347194,0.820324,
2,1,0,0,0,25782.3,0.846727,0.846454,36.1861,39,0.552198,10,0.0306298,-1.44146,0.117786,0.50091,0.830532,
2,1,0,1,0,25786.1,0.827749,0.82751,27.8361,39,0.673056,10,0.0230347,-1.55539,0.130957,0.450529,0.815262,
2,1,0,1,0,25789.9,0.808772,0.80854,20.8344,39,0.765008,10,0.0168454,-1.68122,0.122854,0.480243,0.799373,
2,1,0,1,0,25793.7,0.789795,0.789516,15.0991,39,0.832802,10,0.011921,-1.82105,0.116728,0.505449,0.782873,
2,1,0,1,0,25797.5,0.770818,0.770588,10.6162,39,0.881192,10,0.0081807,-1.97403,0.109195,0.540317,0.765917,
2,1,0,1,0,25801.3,0.751841,0.751558,7.19545,39,0.914653,10,0.0054078,-2.14294,0.100465,0.587268,0.748392,
2,1,0,1,0,25805.1,0.732865,0.732623,4.69623,39,0.936925,10,0.00344057,-2.32825,0.0879038,0.671188,0.730556,
2,1,0,0,0,25808.9,0.713887,0.71357,2.81461,39,0.950925,10,0.00200842,-2.55058,0.075353,0.782981,0.712332,
2,1,0,1,0,25812.7,0.69491,0.694637,1.52562,39,0.958942,10,0.00105975,-2.81655,0.0638247,0.924407,0.693965,
2,1,0,0,0,25816.5,0.675933,0.675656,0.716142,39,0.96302,10,0.000483866,-3.145,0.0513251,1.14954,0.675341,
2,1,0,1,0,25820.3,0.656956,0.656687,0.271708,39,0.964759,10,0.000178427,-3.5659,0.0374885,1.57382,0.656567,
2,1,0,0,0,25824.1,0.637979,0.637678,0.0554179,39,0.965281,10,3.53388e-05,-4.25635,0.0160645,3.6727,0.637653,
2,0,0,1,0,25827.9,0.619002,0.618691,-0.0391698,39,0.96524,10,-2.4234e-05,-4.40705,-0.0280454,-2.10373,0.618708,
2,0,0,0,0,25831.7,0.600025,0.599697,-0.0806789,39,0.964955,10,-4.83829e-05,-4.09324,-0.118409,-0.498272,0.599733,
2,0,0,1,0,25835.5,0.581047,0.580723,-0.100673,39,0.964561,10,-5.8463e-05,-3.99709,-0.406478,-0.145149,0.580767,
2,0,0,1,0,25839.3,0.56207,0.561731,-0.11009,39,0.964115,10,-6.18413e-05,-3.95825,-0.582177,-0.101344,0.56178,
2,0,0,1,0,25843.1,0.543093,0.542787,-0.115923,39,0.963642,10,-6.29214e-05,-3.93583,-0.727883,-0.0810569,0.542838,
2,0,0,1,0,25846.9,0.524116,0.523792,-0.120752,39,0.963147,10,-6.32492e-05,-3.9181,7.49668,0.00787015,0.523845,
2,0,0,1,0,25850.7,0.505139,0.504828,-0.125343,39,0.962633,10,-6.32768e-05,-3.9019,-0.818476,-0.0720852,0.504883,
2,0,0,1,0,25854.4,0.486162,0.485829,-0.130409,39,0.962099,10,-6.33566e-05,-3.88469,-1.71704,-0.0343614,0.485886,
2,0,0,1,0,25858.2,0.467185,0.466886,-0.137847,39,0.961543,10,-6.43586e-05,-3.8606,-1.31805,-0.0447631,0.466947,
2,0,0,1,0,25862,0.448208,0.447874,-0.142313,39,0.960964,10,-6.37382e-05,-3.84676,-0.958103,-0.06158,0.447936,
2,0,0,0,0,25865.8,0.429231,0.428913,-0.150939,39,0.960356,10,-6.47398e-05,-3.8212,-0.935368,-0.0630768,0.42898,
2,0,0,1,0,25869.6,0.410254,0.409968,-0.160047,39,0.959715,10,-6.56141e-05,-3.79575,-2.35786,-0.0250227,0.410039,
2,0,0,0,0,25873.4,0.391277,0.390954,-0.169237,39,0.95904,10,-6.61638e-05,-3.77151,-0.96788,-0.060958,0.391029,
2,0,0,1,0,25877.2,0.3723,0.37197,-0.178791,39,0.958325,10,-6.65049e-05,-3.74765,-0.584584,-0.100926,0.372048,
2,0,0,1,0,25881,0.353322,0.353033,-0.189853,39,0.957571,10,-6.70246e-05,-3.72158,-0.568428,-0.103795,0.353117,
2,0,0,1,0,25884.8,0.334345,0.334029,-0.199143,39,0.956774,10,-6.65196e-05,-3.70083,-2.18681,-0.0269799,0.334117,
2,0,0,1,0,25888.6,0.315368,0.315081,-0.210886,39,0.955936,10,-6.6446e-05,-3.67595,-0.743603,-0.0793435,0.315174,
2,0,0,1,0,25892.4,0.296391,0.296146,-0.224221,39,0.955054,10,-6.64021e-05,-3.64932,-0.858352,-0.0687364,0.296245,
2,0,0,1,0,25896.2,0.277414,0.277099,-0.233981,39,0.954124,10,-6.48359e-05,-3.63082,-0.554622,-0.106379,0.277202,
2,0,0,1,0,25900,0.258437,0.258107,-0.247277,39,0.953148,10,-6.38238e-05,-3.60682,-0.83066,-0.0710279,0.258215,
2,0,0,1,0,25903.8,0.239461,0.239135,-0.258684,39,0.952126,10,-6.18603e-05,-3.58723,-0.932435,-0.0632752,0.239249,
2,0,0,0,0,25907.6,0.220483,0.220229,-0.270535,39,0.951061,10,-5.95796e-05,-3.56778,-0.596661,-0.0988836,0.220348,
2,0,0,1,0,25911.4,0.201506,0.201212,-0.284722,39,0.949945,10,-5.72896e-05,-3.54558,-0.827844,-0.0712694,0.201338,
2,0,0,0,0,25915.2,0.182529,0.182194,-0.305181,39,0.948763,10,-5.56022e-05,-3.51544,-0.423318,-0.139375,0.182328,
2,0,0,1,0,25919,0.163552,0.163237,-0.343504,39,0.947477,10,-5.60725e-05,-3.46407,-0.254955,-0.231413,0.163388,
2,0,0,0,0,25922.8,0.144575,0.144254,-0.462236,39,0.94593,10,-6.66792e-05,-3.33514,-0.0888208,-0.664259,0.144457,
2,0,0,1,0,25926.6,0.125598,0.125298,-0.699805,39,0.943632,10,-8.76841e-05,-3.15502,-0.203728,-0.289602,0.125606,
2,0,0,1,0,25930.4,0.10662,0.106289,-0.7284,39,0.94079,10,-7.74207e-05,-3.13763,0.92016,0.0641193,0.106609,
2,0,0,1,0,25934.2,0.0876433,0.0873478,-0.67789,39,0.938046,10,-5.92122e-05,-3.16884,0.512798,0.115055,0.087646,
2,0,0,1,0,25937.9,0.0686664,0.0683274,-0.63095,39,0.935498,10,-4.31112e-05,-3.20001,0.652935,0.0903612,0.068605,
2,0,0,1,0,25941.7,0.0496895,0.0493655,-0.583205,39,0.93312,10,-2.87902e-05,-3.23418,0.53555,0.110167,0.0496221,
2,0,0,1,0,25945.5,0.0307126,0.0303841,-0.532307,39,0.930929,10,-1.61737e-05,-3.27384,0.491889,0.119946,0.0306183,
2,0,0,1,0,25949.3,0.0117356,0.0114297,-0.499099,39,0.928908,10,-5.70453e-06,-3.30181,2.90191,0.0203314,0.0116493,
2,0,0,0,0,25951.6,0.000274105,-0.000117749,-0.499178,39,0.927723,10,5.87777e-08,-3.30174, , ,0.000101889,