File: Figure_codes/Fig_3-5/workspace_calculate_alpha_eff/20221101_1-115_003_TrumpetPlot_ParaChange_from10_every3_16_CV_C01_73.csv
mode,ox/red,error,control changes,counter inc.,time/s,control/V,Ewe/V,<I>/mA,cycle number,(Q-Qo)/C,I Range,P/W,log(|I|),Tafel slope mV/dec,alpha_eff,E-IR/V,
2,0,0,0,0,48883.2,2.44065e-05,-0.000344411,-0.0936697,74,0.0000000E+000,10,3.22609e-08,-4.0284, , ,-0.000303196,
2,1,0,1,0,48887,0.0187763,0.0184275,0.212922,74,0.000687435,10,3.92363e-06,-3.67178,0.145493,0.405518,0.0183339,
2,1,0,1,0,48890.8,0.0377538,0.0374124,0.277278,74,0.00166933,10,1.03736e-05,-3.55708,0.170558,0.345923,0.0372904,
2,1,0,0,0,48894.6,0.0567309,0.0564298,0.33664,74,0.00289432,10,1.89965e-05,-3.47283,0.334961,0.17614,0.0562816,
2,1,0,1,0,48898.4,0.075708,0.0753824,0.383472,74,0.00432303,10,2.8907e-05,-3.41627,0.419548,0.140628,0.0752137,
2,1,0,0,0,48902.2,0.094685,0.0943764,0.435962,74,0.00591896,10,4.11445e-05,-3.36055,0.263059,0.224285,0.0941846,
2,1,0,1,0,48906,0.113662,0.113314,0.530127,74,0.00780137,10,6.00709e-05,-3.27562,0.328589,0.179556,0.113081,
2,1,0,0,0,48909.8,0.132639,0.132276,0.570266,74,0.00996224,10,7.54328e-05,-3.24392,-0.832459,-0.0708744,0.132025,
2,1,0,1,0,48913.6,0.151617,0.151305,0.381971,74,0.0118916,10,5.7794e-05,-3.41797,-0.0771506,-0.764738,0.151136,
2,1,0,1,0,48917.4,0.170594,0.170283,0.288309,74,0.0131571,10,4.9094e-05,-3.54014,-0.309502,-0.190629,0.170156,
2,1,0,1,0,48921.2,0.189571,0.18922,0.269143,74,0.0142547,10,5.09274e-05,-3.57002,-0.847417,-0.0696234,0.189102,
2,1,0,1,0,48925,0.208547,0.208221,0.260423,74,0.015303,10,5.42255e-05,-3.58432,-1.24549,-0.0473708,0.208106,
2,1,0,1,0,48928.7,0.227524,0.227185,0.254608,74,0.0163242,10,5.78431e-05,-3.59413,-1.51655,-0.0389042,0.227073,
2,1,0,1,0,48932.5,0.246501,0.24617,0.248768,74,0.0173257,10,6.12392e-05,-3.60421,-1.04336,-0.0565483,0.24606,
2,1,0,0,0,48936.3,0.265479,0.265151,0.245338,74,0.0183106,10,6.50516e-05,-3.61023,-2.00008,-0.0294989,0.265043,
2,1,0,1,0,48940.1,0.284456,0.284144,0.241282,74,0.0192782,10,6.85587e-05,-3.61748,-3.93496,-0.0149938,0.284037,
2,1,0,0,0,48943.9,0.303433,0.303108,0.237666,74,0.0202283,10,7.20384e-05,-3.62403,-5.8805,-0.0100332,0.303003,
2,1,0,1,0,48947.7,0.32241,0.322053,0.234012,74,0.0211633,10,7.53642e-05,-3.63076,-14.3712,-0.00410543,0.32195,
2,1,0,0,0,48951.5,0.341387,0.341058,0.230827,74,0.0220859,10,7.87254e-05,-3.63671,-1.38882,-0.0424821,0.340956,
2,1,0,1,0,48955.3,0.360364,0.360033,0.229075,74,0.0229969,10,8.24745e-05,-3.64002,55.9736,0.00105407,0.359932,
2,1,0,1,0,48959.1,0.379342,0.37903,0.226848,74,0.0238989,10,8.59821e-05,-3.64427,-2.43128,-0.0242671,0.37893,
2,1,0,1,0,48962.9,0.398319,0.397981,0.225216,74,0.0247939,10,8.96317e-05,-3.6474,-5.61295,-0.0105114,0.397882,
2,1,0,1,0,48966.7,0.417295,0.416999,0.223841,74,0.025682,10,9.33413e-05,-3.65006,-3.4147,-0.0172782,0.4169,
2,1,0,1,0,48970.5,0.436272,0.435978,0.22332,74,0.0265649,10,9.73625e-05,-3.65107,4.64976,0.0126888,0.43588,
2,1,0,1,0,48974.3,0.455249,0.454938,0.223825,74,0.0274469,10,0.000101826,-3.65009,1.68661,0.0349814,0.454839,
2,1,0,1,0,48978.1,0.474226,0.473907,0.225134,74,0.0283315,10,0.000106693,-3.64756,1.17093,0.0503872,0.473808,
2,1,0,1,0,48981.9,0.493203,0.492899,0.228016,74,0.0292227,10,0.000112389,-3.64204,2.27478,0.0259366,0.492799,
2,1,0,0,0,48985.7,0.512181,0.511868,0.231777,74,0.0301257,10,0.000118639,-3.63493,0.996247,0.0592223,0.511766,
2,1,0,1,0,48989.5,0.531158,0.530826,0.237894,74,0.0310458,10,0.00012628,-3.62362,0.974953,0.0605157,0.530721,
2,1,0,0,0,48993.3,0.550135,0.549841,0.24633,74,0.0319926,10,0.000135443,-3.60848,0.86782,0.0679864,0.549733,
2,1,0,1,0,48997.1,0.569112,0.56877,0.257928,74,0.0329775,10,0.000146702,-3.5885,0.94517,0.0624226,0.568657,
2,1,0,0,0,49000.9,0.588089,0.58776,0.278446,74,0.0340214,10,0.000163659,-3.55526,0.435518,0.135471,0.587638,
2,1,0,1,0,49004.7,0.607066,0.606752,0.311299,74,0.0351622,10,0.000188881,-3.50682,0.331327,0.178072,0.606615,
2,1,0,1,0,49008.5,0.626044,0.625725,0.370816,74,0.0364709,10,0.000232029,-3.43084,0.19821,0.297664,0.625562,
2,1,0,1,0,49012.2,0.64502,0.644719,0.491382,74,0.0381091,10,0.000316803,-3.30858,0.125733,0.469247,0.644503,
2,1,0,1,0,49016,0.663997,0.663728,0.738513,74,0.0404172,10,0.000490172,-3.13164,0.0928403,0.6355,0.663403,
2,1,0,1,0,49019.8,0.682974,0.682676,1.21635,74,0.0440669,10,0.000830372,-2.91494,0.0830641,0.710295,0.682141,
2,1,0,1,0,49023.6,0.701951,0.701691,2.03054,74,0.05014,10,0.00142481,-2.69239,0.0861836,0.684585,0.700798,
2,1,0,1,0,49027.4,0.720928,0.720628,3.2313,74,0.0600285,10,0.00232856,-2.49062,0.0991033,0.595339,0.719206,
2,1,0,1,0,49031.2,0.739905,0.739647,4.83697,74,0.0752344,10,0.00357765,-2.31543,0.109896,0.536871,0.737519,
2,1,0,0,0,49035,0.758883,0.758623,6.89087,74,0.0973658,10,0.00522757,-2.16173,0.12383,0.476458,0.755591,
2,1,0,1,0,49038.8,0.77786,0.777593,9.49329,74,0.128285,10,0.00738192,-2.02258,0.132067,0.446742,0.773416,
2,1,0,0,0,49042.6,0.796837,0.796575,12.9169,74,0.170532,10,0.0102893,-1.88884,0.130915,0.450674,0.790892,
2,1,0,1,0,49046.4,0.815814,0.81554,17.3784,74,0.227671,10,0.0141728,-1.75999,0.131833,0.447537,0.807893,
2,1,0,0,0,49050.2,0.834791,0.834521,22.808,74,0.303781,10,0.0190337,-1.64191,0.151559,0.389286,0.824485,
2,1,0,0,0,49053.9,0.846726,0.846462,26.054,74,0.397992,10,0.0220537,-1.58413,0.109981,0.536456,0.834998,
2,1,0,1,0,49057.7,0.827749,0.82751,19.3137,74,0.483419,10,0.0159823,-1.71413,0.124173,0.475144,0.819012,
2,1,0,1,0,49061.5,0.808772,0.808516,14.1453,74,0.546495,10,0.0114367,-1.84939,0.120085,0.491319,0.802292,
2,1,0,1,0,49065.3,0.789795,0.789514,10.1344,74,0.59219,10,0.00800126,-1.9942,0.119077,0.495477,0.785055,
2,1,0,1,0,49069.1,0.770818,0.770581,7.14362,74,0.624695,10,0.00550474,-2.14608,0.11381,0.518406,0.767438,
2,1,0,1,0,49072.9,0.751841,0.751531,4.88706,74,0.647277,10,0.00367277,-2.31095,0.105278,0.560423,0.74938,
2,1,0,1,0,49076.7,0.732865,0.732604,3.20279,74,0.662442,10,0.00234638,-2.49447,0.0924794,0.63798,0.731195,
2,1,0,0,0,49080.5,0.713887,0.713591,1.95726,74,0.672081,10,0.00139668,-2.70835,0.0802448,0.73525,0.71273,
2,1,0,1,0,49084.3,0.69491,0.69464,1.07615,74,0.677699,10,0.000747536,-2.96813,0.0650932,0.906392,0.694166,
2,1,0,0,0,49088.1,0.675933,0.675664,0.506264,74,0.680583,10,0.000342064,-3.29562,0.051565,1.14419,0.675441,
2,1,0,1,0,49091.9,0.656956,0.656645,0.180906,74,0.68179,10,0.000118791,-3.74255,0.0341201,1.72918,0.656566,
2,1,0,0,0,49095.6,0.637979,0.637684,0.018344,74,0.682098,10,1.16977e-05,-4.73651,0.00599954,9.8341,0.637676,
2,0,0,1,0,49099.4,0.619002,0.618692,-0.0534201,74,0.681981,10,-3.30506e-05,-4.2723,-0.0513846,-1.1482,0.618716,
2,0,0,0,0,49103.2,0.600024,0.59975,-0.0859048,74,0.681677,10,-5.15214e-05,-4.06598,-0.174346,-0.338407,0.599788,
2,0,0,1,0,49107,0.581047,0.580692,-0.101399,74,0.681287,10,-5.88817e-05,-3.99397,-0.507419,-0.116275,0.580737,
2,0,0,1,0,49110.8,0.56207,0.561769,-0.109876,74,0.680855,10,-6.17249e-05,-3.9591,-0.59242,-0.0995915,0.561818,
2,0,0,1,0,49114.6,0.543093,0.542754,-0.114731,74,0.680398,10,-6.22709e-05,-3.94032,-2.42002,-0.0243799,0.542805,
2,0,0,1,0,49118.4,0.524116,0.523747,-0.119484,74,0.679921,10,-6.25795e-05,-3.92269,-0.920052,-0.0641268,0.523799,
2,0,0,1,0,49122.2,0.505139,0.50486,-0.124104,74,0.679426,10,-6.26554e-05,-3.90621,-0.725398,-0.0813347,0.504915,
2,0,0,1,0,49126,0.486162,0.485836,-0.130018,74,0.678912,10,-6.31676e-05,-3.886,-1.00447,-0.0587376,0.485894,
2,0,0,1,0,49129.8,0.467185,0.466898,-0.135728,74,0.678376,10,-6.33712e-05,-3.86733,-2.05203,-0.0287521,0.466957,
2,0,0,1,0,49133.6,0.448208,0.447893,-0.14241,74,0.677816,10,-6.37844e-05,-3.84646,-1.69956,-0.0347148,0.447955,
2,0,0,0,0,49137.4,0.429231,0.428889,-0.150313,74,0.677227,10,-6.44678e-05,-3.823,-1.92955,-0.0305771,0.428955,
2,0,0,1,0,49141.2,0.410254,0.409948,-0.158814,74,0.676605,10,-6.51057e-05,-3.79911,-1.00553,-0.0586756,0.410018,
2,0,0,0,0,49145,0.391277,0.390919,-0.168094,74,0.675949,10,-6.57113e-05,-3.77445,-0.971733,-0.0607163,0.390993,
2,0,0,1,0,49148.8,0.3723,0.372011,-0.177179,74,0.675256,10,-6.59125e-05,-3.75159,-1.01761,-0.0579788,0.372089,
2,0,0,1,0,49152.6,0.353322,0.352978,-0.187925,74,0.674522,10,-6.63333e-05,-3.72602,-0.770521,-0.0765716,0.353061,
2,0,0,1,0,49156.4,0.334345,0.334029,-0.199003,74,0.673748,10,-6.64728e-05,-3.70114,-0.662142,-0.0891048,0.334117,
2,0,0,1,0,49160.2,0.315368,0.315033,-0.210384,74,0.67293,10,-6.6278e-05,-3.67699,-0.523332,-0.112739,0.315126,
2,0,0,1,0,49164,0.296391,0.296079,-0.222626,74,0.672068,10,-6.59149e-05,-3.65242,-0.621395,-0.0949476,0.296177,
2,0,0,1,0,49167.8,0.277414,0.277073,-0.233355,74,0.671159,10,-6.46563e-05,-3.63198,-0.570829,-0.103358,0.277176,
2,0,0,1,0,49171.6,0.258437,0.2581,-0.24627,74,0.670203,10,-6.35624e-05,-3.60859,-0.748051,-0.0788717,0.258209,
2,0,0,1,0,49175.4,0.239461,0.239163,-0.257856,74,0.669202,10,-6.16695e-05,-3.58862,-0.833659,-0.0707724,0.239276,
2,0,0,0,0,49179.1,0.220483,0.220163,-0.268879,74,0.668159,10,-5.91972e-05,-3.57044,-0.220486,-0.267591,0.220281,
2,0,0,1,0,49182.9,0.201506,0.201218,-0.281576,74,0.667066,10,-5.6658e-05,-3.5504,-0.61793,-0.09548,0.201342,
2,0,0,0,0,49186.7,0.182529,0.182205,-0.300523,74,0.665916,10,-5.47567e-05,-3.52212,-0.495048,-0.11918,0.182337,
2,0,0,1,0,49190.5,0.163552,0.163224,-0.331895,74,0.664675,10,-5.41733e-05,-3.479,-0.306379,-0.192572,0.16337,
2,0,0,0,0,49194.3,0.144575,0.144225,-0.419205,74,0.663233,10,-6.04598e-05,-3.37757,-0.113944,-0.517796,0.144409,
2,0,0,1,0,49198.1,0.125598,0.125263,-0.62369,74,0.661209,10,-7.81252e-05,-3.20503,-0.170631,-0.345775,0.125537,
2,0,0,1,0,49201.9,0.10662,0.106317,-0.681625,74,0.658627,10,-7.24686e-05,-3.16645,385.603,0.000153007,0.106617,
2,0,0,1,0,49205.7,0.0876433,0.0873066,-0.656857,74,0.656024,10,-5.73479e-05,-3.18253,0.873073,0.0675774,0.0875956,
2,0,0,1,0,49209.5,0.0686664,0.0683412,-0.61612,74,0.653555,10,-4.21063e-05,-3.21034,0.750632,0.0786005,0.0686122,
2,0,0,1,0,49213.3,0.0496895,0.0493653,-0.574174,74,0.651237,10,-2.83443e-05,-3.24096,0.522605,0.112896,0.049618,
2,0,0,1,0,49217.1,0.0307126,0.0303876,-0.528622,74,0.649087,10,-1.60635e-05,-3.27685,0.531196,0.11107,0.0306202,
2,0,0,1,0,49220.9,0.0117356,0.0114159,-0.498755,74,0.647092,10,-5.69373e-06,-3.30211,1.31677,0.0448067,0.0116353,
2,0,0,0,0,49223.2,0.000274105,-8.31532e-05,-0.499793,74,0.645917,10,4.15593e-08,-3.30121, , ,0.000136756,