File: Figure_codes/Fig_3-5/workspace_calculate_alpha_eff/20221101_1-115_003_TrumpetPlot_ParaChange_from10_every3_16_CV_C01_93.csv
mode,ox/red,error,control changes,counter inc.,time/s,control/V,Ewe/V,<I>/mA,cycle number,(Q-Qo)/C,I Range,P/W,log(|I|),Tafel slope mV/dec,alpha_eff,E-IR/V,
2,0,0,1,0,62304.2,2.44065e-05,-0.000382585,-0.058052,94,0.0000000E+000,10,2.22098e-08,-4.23618, , ,-0.000357043,
2,1,0,1,0,62307.9,0.0187763,0.0184169,0.257806,94,0.000851978,10,4.74799e-06,-3.58871,0.169941,0.34718,0.0183035,
2,1,0,0,0,62311.7,0.0377538,0.037405,0.31992,94,0.00199943,10,1.19666e-05,-3.49496,0.224259,0.263088,0.0372642,
2,1,0,1,0,62315.5,0.0567309,0.0564022,0.375576,94,0.00337462,10,2.11833e-05,-3.4253,0.34512,0.170955,0.0562369,
2,1,0,0,0,62319.3,0.075708,0.075358,0.416677,94,0.00493499,10,3.13999e-05,-3.3802,0.581043,0.101542,0.0751747,
2,1,0,1,0,62323.1,0.094685,0.0943287,0.464706,94,0.00664371,10,4.38351e-05,-3.33282,0.270814,0.217862,0.0941242,
2,1,0,0,0,62326.9,0.113662,0.113349,0.553484,94,0.00863019,10,6.27369e-05,-3.2569,0.399771,0.147585,0.113106,
2,1,0,1,0,62330.7,0.132639,0.132256,0.57983,94,0.0108572,10,7.66861e-05,-3.2367,-0.542365,-0.108783,0.132001,
2,1,0,1,0,62334.5,0.151617,0.151295,0.392203,94,0.0128044,10,5.93385e-05,-3.40649,-0.0946965,-0.623043,0.151123,
2,1,0,1,0,62338.3,0.170594,0.170249,0.314254,94,0.0141427,10,5.35014e-05,-3.50272,-0.471858,-0.125038,0.170111,
2,1,0,1,0,62342.1,0.189571,0.189212,0.29704,94,0.0153401,10,5.62035e-05,-3.52718,-1.11327,-0.052997,0.189081,
2,1,0,1,0,62345.9,0.208547,0.208193,0.291488,94,0.0164989,10,6.06858e-05,-3.53538,-1.35025,-0.0436955,0.208065,
2,1,0,1,0,62349.7,0.227524,0.227224,0.286832,94,0.0176363,10,6.51751e-05,-3.54237,-1.7808,-0.0331312,0.227098,
2,1,0,1,0,62353.5,0.246501,0.246152,0.28288,94,0.0187583,10,6.96316e-05,-3.5484,-0.834191,-0.0707272,0.246027,
2,1,0,1,0,62357.3,0.265479,0.265127,0.279749,94,0.0198659,10,7.4169e-05,-3.55323,-1.76015,-0.0335198,0.265004,
2,1,0,0,0,62361,0.284456,0.284093,0.273985,94,0.0209576,10,7.7837e-05,-3.56227,-2.20296,-0.0267822,0.283972,
2,1,0,1,0,62364.8,0.303433,0.303098,0.271738,94,0.0220341,10,8.23633e-05,-3.56585,-2.24114,-0.0263259,0.302979,
2,1,0,0,0,62368.6,0.32241,0.322109,0.26782,94,0.0230964,10,8.62673e-05,-3.57216,19.0078,0.00310399,0.321991,
2,1,0,1,0,62372.4,0.341387,0.341075,0.264912,94,0.0241454,10,9.03549e-05,-3.5769,-1.77355,-0.0332666,0.340958,
2,1,0,0,0,62376.2,0.360364,0.36004,0.262931,94,0.0251817,10,9.46655e-05,-3.58016,20.1444,0.00292885,0.359924,
2,1,0,1,0,62380,0.379342,0.379023,0.260272,94,0.0262088,10,9.86489e-05,-3.58457,-2.4969,-0.0236293,0.378908,
2,1,0,1,0,62383.8,0.398319,0.397971,0.258662,94,0.0272269,10,0.00010294,-3.58727,-3.17368,-0.0185904,0.397857,
2,1,0,1,0,62387.6,0.417295,0.416991,0.256569,94,0.0282384,10,0.000106987,-3.5908,-10.6137,-0.00555884,0.416878,
2,1,0,1,0,62391.4,0.436272,0.435949,0.255319,94,0.0292418,10,0.000111306,-3.59292,4.61187,0.0127931,0.435837,
2,1,0,1,0,62395.2,0.455249,0.454945,0.254702,94,0.0302402,10,0.000115876,-3.59397,5.26519,0.0112057,0.454833,
2,1,0,1,0,62399,0.474226,0.473931,0.254632,94,0.0312381,10,0.000120678,-3.59409,-17.6075,-0.00335085,0.473819,
2,1,0,1,0,62402.8,0.493203,0.492867,0.257187,94,0.0322394,10,0.000126759,-3.58975,1.83269,0.0321932,0.492754,
2,1,0,1,0,62406.6,0.512181,0.511858,0.260841,94,0.0332497,10,0.000133514,-3.58362,1.42381,0.0414383,0.511744,
2,1,0,0,0,62410.4,0.531158,0.530833,0.26551,94,0.0342733,10,0.000140942,-3.57592,1.98332,0.029748,0.530716,
2,1,0,1,0,62414.2,0.550135,0.549836,0.272707,94,0.0353197,10,0.000149944,-3.5643,0.869344,0.0678672,0.549716,
2,1,0,0,0,62418,0.569112,0.568829,0.283257,94,0.0363991,10,0.000161125,-3.54782,0.701681,0.0840837,0.568704,
2,1,0,1,0,62421.8,0.588089,0.587755,0.300318,94,0.0375289,10,0.000176513,-3.52242,0.690968,0.0853875,0.587623,
2,1,0,0,0,62425.6,0.607066,0.606718,0.328388,94,0.038742,10,0.000199239,-3.48361,0.367835,0.160398,0.606574,
2,1,0,1,0,62429.4,0.626044,0.625771,0.379129,94,0.0400995,10,0.000237248,-3.42121,0.231799,0.254531,0.625604,
2,1,0,1,0,62433.2,0.64502,0.644714,0.480763,94,0.0417351,10,0.000309954,-3.31807,0.148642,0.396927,0.644502,
2,1,0,1,0,62437,0.663997,0.663709,0.68373,94,0.0439254,10,0.000453797,-3.16512,0.106587,0.55354,0.663408,
2,1,0,1,0,62440.8,0.682974,0.682692,1.07524,94,0.0472154,10,0.000734061,-2.96849,0.0909675,0.648584,0.682219,
2,1,0,1,0,62444.5,0.701951,0.701615,1.74293,94,0.0524895,10,0.00122287,-2.75872,0.0895399,0.658924,0.700848,
2,1,0,1,0,62448.3,0.720928,0.720645,2.73776,94,0.0609107,10,0.00197295,-2.5626,0.0990108,0.595894,0.71944,
2,1,0,1,0,62452.1,0.739905,0.739594,4.08343,94,0.0737631,10,0.00302008,-2.38897,0.112616,0.523906,0.737797,
2,1,0,1,0,62455.9,0.758883,0.75862,5.8257,94,0.0924533,10,0.0044195,-2.23465,0.125683,0.469437,0.756057,
2,1,0,0,0,62459.7,0.77786,0.777556,8.05353,94,0.118648,10,0.00626207,-2.09401,0.133416,0.442227,0.774012,
2,1,0,1,0,62463.5,0.796837,0.796485,10.9199,94,0.154445,10,0.00869751,-1.96178,0.133562,0.441742,0.791681,
2,1,0,0,0,62467.3,0.815814,0.815504,14.7187,94,0.202808,10,0.0120031,-1.83213,0.135221,0.436323,0.809028,
2,1,0,1,0,62471.1,0.834791,0.834524,19.467,94,0.267435,10,0.0162457,-1.7107,0.144318,0.408821,0.825959,
2,1,0,1,0,62474.8,0.846726,0.84646,22.2333,94,0.348163,10,0.0188196,-1.653,0.10568,0.55829,0.836677,
2,1,0,1,0,62478.6,0.827749,0.82745,16.2046,94,0.420466,10,0.0134085,-1.79036,0.121594,0.485222,0.82032,
2,1,0,1,0,62482.4,0.808772,0.808465,11.7644,94,0.473096,10,0.00951108,-1.92943,0.123069,0.479405,0.803288,
2,1,0,1,0,62486.2,0.789795,0.789512,8.57614,94,0.511545,10,0.00677096,-2.06671,0.117743,0.50109,0.785739,
2,1,0,1,0,62490,0.770818,0.770512,6.0416,94,0.539025,10,0.00465512,-2.21885,0.116039,0.508449,0.767854,
2,1,0,1,0,62493.8,0.751841,0.751536,4.14563,94,0.558151,10,0.00311559,-2.38241,0.106846,0.552195,0.749712,
2,1,0,1,0,62497.6,0.732865,0.732533,2.72979,94,0.571042,10,0.00199966,-2.56387,0.0937361,0.629427,0.731332,
2,1,0,1,0,62501.4,0.713887,0.713585,1.67449,94,0.57927,10,0.00119489,-2.77612,0.0798729,0.738673,0.712848,
2,1,0,0,0,62505.2,0.69491,0.694579,0.926209,94,0.58409,10,0.000643325,-3.03329,0.0653564,0.902742,0.694172,
2,1,0,1,0,62509,0.675933,0.675598,0.438808,94,0.586577,10,0.000296458,-3.35773,0.0510868,1.1549,0.675405,
2,1,0,0,0,62512.8,0.656956,0.656622,0.161008,94,0.58763,10,0.000105721,-3.79315,0.0348536,1.6928,0.656551,
2,1,0,1,0,62516.6,0.637979,0.637653,0.0201078,94,0.587911,10,1.28218e-05,-4.69664,0.00816379,7.22704,0.637645,
2,0,0,0,0,62520.4,0.619002,0.61872,-0.0415446,94,0.587826,10,-2.57045e-05,-4.38149,-0.0471605,-1.25105,0.618738,
2,0,0,1,0,62524.2,0.600024,0.599676,-0.0688286,94,0.587582,10,-4.12749e-05,-4.16223,-0.176784,-0.33374,0.599706,
2,0,0,1,0,62527.9,0.581047,0.580694,-0.0825721,94,0.587262,10,-4.79492e-05,-4.08317,-0.352186,-0.167525,0.580731,
2,0,0,1,0,62531.7,0.56207,0.561721,-0.0911429,94,0.586902,10,-5.11968e-05,-4.04028,-0.606209,-0.0973262,0.561761,
2,0,0,1,0,62535.5,0.543093,0.542736,-0.0964017,94,0.586518,10,-5.23207e-05,-4.01592,-2.77462,-0.0212642,0.542779,
2,0,0,1,0,62539.3,0.524116,0.523761,-0.101498,94,0.586114,10,-5.31608e-05,-3.99354,-0.951534,-0.0620051,0.523805,
2,0,0,1,0,62543.1,0.505139,0.504751,-0.106257,94,0.58569,10,-5.36335e-05,-3.97364,-0.571478,-0.103241,0.504798,
2,0,0,1,0,62546.9,0.486162,0.485842,-0.111561,94,0.585245,10,-5.42011e-05,-3.95249,-0.965692,-0.0610961,0.485891,
2,0,0,1,0,62550.7,0.467185,0.466868,-0.118688,94,0.584777,10,-5.54116e-05,-3.92559,-1.0083,-0.0585145,0.46692,
2,0,0,0,0,62554.5,0.448208,0.447874,-0.126849,94,0.584282,10,-5.68126e-05,-3.89671,-1.06533,-0.0553818,0.44793,
2,0,0,1,0,62558.3,0.429231,0.428944,-0.134466,94,0.583756,10,-5.76782e-05,-3.87139,-1.16749,-0.0505356,0.429003,
2,0,0,0,0,62562.1,0.410254,0.409909,-0.143713,94,0.583195,10,-5.89093e-05,-3.8425,-0.716572,-0.0823365,0.409972,
2,0,0,1,0,62565.9,0.391277,0.390899,-0.152721,94,0.5826,10,-5.96983e-05,-3.8161,-0.535937,-0.110088,0.390966,
2,0,0,0,0,62569.7,0.3723,0.37196,-0.163247,94,0.581965,10,-6.07215e-05,-3.78715,-0.555571,-0.106197,0.372032,
2,0,0,1,0,62573.5,0.353322,0.353023,-0.172888,94,0.581291,10,-6.10334e-05,-3.76224,-0.635487,-0.0928422,0.353099,
2,0,0,1,0,62577.3,0.334345,0.333994,-0.183873,94,0.580574,10,-6.14125e-05,-3.73548,-0.842096,-0.0700633,0.334075,
2,0,0,1,0,62581.1,0.315368,0.315055,-0.195731,94,0.579815,10,-6.16662e-05,-3.70834,-0.759144,-0.0777191,0.315141,
2,0,0,1,0,62584.9,0.296391,0.296034,-0.207475,94,0.579012,10,-6.14195e-05,-3.68304,-0.767261,-0.0768969,0.296125,
2,0,0,1,0,62588.7,0.277414,0.277079,-0.218828,94,0.57816,10,-6.06326e-05,-3.6599,-0.717958,-0.0821775,0.277176,
2,0,0,1,0,62592.5,0.258437,0.258078,-0.231415,94,0.57726,10,-5.97231e-05,-3.63561,-0.987138,-0.0597688,0.25818,
2,0,0,1,0,62596.3,0.239461,0.239116,-0.24318,94,0.576315,10,-5.81483e-05,-3.61407,-0.786987,-0.0749695,0.239223,
2,0,0,1,0,62600.1,0.220483,0.22017,-0.254726,94,0.575326,10,-5.6083e-05,-3.59393,-0.5882,-0.100306,0.220282,
2,0,0,0,0,62603.9,0.201506,0.201179,-0.2679,94,0.574288,10,-5.38959e-05,-3.57203,-0.509277,-0.11585,0.201297,
2,0,0,1,0,62607.6,0.182529,0.18219,-0.284914,94,0.573194,10,-5.19083e-05,-3.54529,-0.497114,-0.118685,0.182315,
2,0,0,0,0,62611.4,0.163552,0.16322,-0.31374,94,0.572018,10,-5.12086e-05,-3.50343,-0.355236,-0.166087,0.163358,
2,0,0,1,0,62615.2,0.144575,0.144175,-0.388789,94,0.570664,10,-5.60537e-05,-3.41029,-0.125673,-0.469473,0.144346,
2,0,0,0,0,62619,0.125598,0.125287,-0.575285,94,0.568799,10,-7.20758e-05,-3.24012,-0.142562,-0.413855,0.12554,
2,0,0,1,0,62622.8,0.10662,0.106283,-0.65215,94,0.56636,10,-6.93128e-05,-3.18565,-2.36119,-0.0249874,0.10657,
2,0,0,1,0,62626.6,0.0876433,0.0873033,-0.63746,94,0.563852,10,-5.56523e-05,-3.19555,0.968409,0.0609247,0.0875837,
2,0,0,1,0,62630.4,0.0686664,0.0683147,-0.603925,94,0.561443,10,-4.12569e-05,-3.21902,0.933135,0.0632277,0.0685804,
2,0,0,1,0,62634.2,0.0496895,0.0493686,-0.563931,94,0.559169,10,-2.78405e-05,-3.24877,0.566906,0.104074,0.0496167,
2,0,0,1,0,62638,0.0307126,0.0303758,-0.52131,94,0.557057,10,-1.58352e-05,-3.2829,0.577306,0.102199,0.0306052,
2,0,0,1,0,62641.8,0.0117356,0.0114042,-0.491285,94,0.555091,10,-5.60273e-06,-3.30867,1.9194,0.0307388,0.0116204,
2,0,0,1,0,62644.1,0.000274105,-9.50827e-05,-0.491446,94,0.553936,10,4.67281e-08,-3.30852, , ,0.000121154,