File: Figure_codes/Fig_3-5/workspace_calculate_alpha_eff/20221101_1-115_003_TrumpetPlot_ParaChange_from10_every3_16_CV_C01_58.csv
mode,ox/red,error,control changes,counter inc.,time/s,control/V,Ewe/V,<I>/mA,cycle number,(Q-Qo)/C,I Range,P/W,log(|I|),Tafel slope mV/dec,alpha_eff,E-IR/V,
2,0,0,0,0,39032.6,2.44065e-05,-0.00042076,-0.0892175,59,0.0000000E+000,10,3.75392e-08,-4.04955, , ,-0.000381504,
2,1,0,1,0,39036.3,0.0187763,0.0184042,0.216669,59,0.000705708,10,3.98761e-06,-3.6642,0.143083,0.412347,0.0183088,
2,1,0,1,0,39040.1,0.0377538,0.0374135,0.281311,59,0.00170949,10,1.05248e-05,-3.55081,0.186548,0.316272,0.0372897,
2,1,0,0,0,39043.9,0.0567309,0.0563799,0.343967,59,0.002962,10,1.93928e-05,-3.46348,0.286144,0.20619,0.0562286,
2,1,0,1,0,39047.7,0.075708,0.075375,0.390548,59,0.00442198,10,2.94375e-05,-3.40833,0.456881,0.129137,0.0752031,
2,1,0,0,0,39051.5,0.094685,0.0944209,0.444631,59,0.00605087,10,4.19825e-05,-3.352,0.249247,0.236713,0.0942253,
2,1,0,1,0,39055.3,0.113662,0.113341,0.540304,59,0.00797857,10,6.12384e-05,-3.26736,0.363085,0.162497,0.113103,
2,1,0,0,0,39059.1,0.132639,0.132341,0.584514,59,0.0101911,10,7.73552e-05,-3.23321,-0.769376,-0.0766855,0.132084,
2,1,0,1,0,39062.9,0.151617,0.151267,0.388717,59,0.0121681,10,5.87999e-05,-3.41037,-0.0764382,-0.771865,0.151096,
2,1,0,1,0,39066.7,0.170594,0.170276,0.290514,59,0.0134539,10,4.94678e-05,-3.53683,-0.323757,-0.182236,0.170149,
2,1,0,1,0,39070.5,0.189571,0.18924,0.269909,59,0.0145615,10,5.10777e-05,-3.56878,-0.557814,-0.10577,0.189122,
2,1,0,1,0,39074.3,0.208547,0.20825,0.259389,59,0.0156154,10,5.40177e-05,-3.58605,-6.15915,-0.00957924,0.208136,
2,1,0,1,0,39078.1,0.227524,0.22719,0.25348,59,0.0166397,10,5.75882e-05,-3.59606,-1.08985,-0.0541359,0.227078,
2,1,0,1,0,39081.9,0.246501,0.246214,0.248108,59,0.0176417,10,6.10875e-05,-3.60536,-1.14592,-0.051487,0.246104,
2,1,0,0,0,39085.7,0.265479,0.265157,0.244736,59,0.018626,10,6.48935e-05,-3.6113,-1.43933,-0.0409914,0.265049,
2,1,0,1,0,39089.5,0.284456,0.28416,0.240923,59,0.0195939,10,6.84607e-05,-3.61812,-6.79482,-0.00868308,0.284054,
2,1,0,0,0,39093.3,0.303433,0.303146,0.236175,59,0.020545,10,7.15954e-05,-3.62677,-3.97056,-0.0148594,0.303042,
2,1,0,1,0,39097.1,0.32241,0.322092,0.233178,59,0.0214808,10,7.5105e-05,-3.63231,-2.34911,-0.0251158,0.32199,
2,1,0,0,0,39100.9,0.341387,0.341084,0.229314,59,0.0224021,10,7.82153e-05,-3.63957,-2.7429,-0.0215101,0.340983,
2,1,0,1,0,39104.7,0.360364,0.360036,0.229346,59,0.0233133,10,8.25728e-05,-3.63951,3.53391,0.0166954,0.359935,
2,1,0,1,0,39108.5,0.379342,0.379069,0.225844,59,0.0242155,10,8.56104e-05,-3.64619,-6.86412,-0.00859543,0.37897,
2,1,0,1,0,39112.3,0.398319,0.39802,0.22367,59,0.0251089,10,8.90251e-05,-3.65039,10.7206,0.00550345,0.397921,
2,1,0,1,0,39116.1,0.417295,0.416999,0.22383,59,0.0259973,10,9.3337e-05,-3.65008,52.379,0.00112641,0.4169,
2,1,0,1,0,39119.8,0.436272,0.435955,0.2231,59,0.0268819,10,9.72616e-05,-3.6515,3.81827,0.015452,0.435857,
2,1,0,1,0,39123.6,0.455249,0.454952,0.223025,59,0.0277655,10,0.000101465,-3.65165,1.99521,0.0295708,0.454853,
2,1,0,1,0,39127.4,0.474226,0.473934,0.224186,59,0.0286507,10,0.000106249,-3.64939,2.02821,0.0290897,0.473835,
2,1,0,1,0,39131.2,0.493203,0.492921,0.226895,59,0.0295425,10,0.000111842,-3.64417,1.68025,0.0351138,0.492821,
2,1,0,0,0,39135,0.512181,0.511886,0.231259,59,0.0304467,10,0.000118378,-3.6359,1.81819,0.0324498,0.511784,
2,1,0,1,0,39138.8,0.531158,0.530857,0.237372,59,0.0313699,10,0.00012601,-3.62457,1.12199,0.0525852,0.530752,
2,1,0,0,0,39142.6,0.550135,0.549836,0.244919,59,0.0323198,10,0.000134665,-3.61098,0.793381,0.0743653,0.549728,
2,1,0,1,0,39146.4,0.569112,0.568781,0.258646,59,0.0333095,10,0.000147113,-3.58729,0.729641,0.0808617,0.568667,
2,1,0,0,0,39150.2,0.588089,0.587809,0.279947,59,0.0343619,10,0.000164556,-3.55292,0.494535,0.119304,0.587686,
2,1,0,1,0,39154,0.607066,0.606796,0.314919,59,0.0355176,10,0.000191091,-3.5018,0.294388,0.200416,0.606657,
2,1,0,1,0,39157.8,0.626044,0.625723,0.380278,59,0.0368573,10,0.000237949,-3.4199,0.189716,0.310991,0.625556,
2,1,0,1,0,39161.6,0.64502,0.644758,0.515957,59,0.0385625,10,0.000332667,-3.28739,0.114915,0.513421,0.644531,
2,1,0,1,0,39165.4,0.663997,0.663681,0.796028,59,0.0410204,10,0.000528309,-3.09907,0.0895982,0.658495,0.663331,
2,1,0,1,0,39169.2,0.682974,0.682723,1.34135,59,0.0450044,10,0.00091577,-2.87246,0.0792589,0.744396,0.682133,
2,1,0,1,0,39173,0.701951,0.701663,2.27942,59,0.0517704,10,0.00159938,-2.64218,0.0833356,0.707981,0.70066,
2,1,0,1,0,39176.8,0.720928,0.720672,3.66891,59,0.0629454,10,0.00264408,-2.43546,0.093982,0.62778,0.719058,
2,1,0,1,0,39180.6,0.739905,0.739653,5.53072,59,0.080285,10,0.00409082,-2.25722,0.109348,0.539562,0.73722,
2,1,0,0,0,39184.4,0.758883,0.758599,7.90223,59,0.105636,10,0.00599462,-2.10225,0.121928,0.483892,0.755122,
2,1,0,1,0,39188.2,0.77786,0.777605,10.9164,59,0.141137,10,0.00848867,-1.96192,0.128003,0.460925,0.772802,
2,1,0,0,0,39192,0.796837,0.796548,14.9272,59,0.189827,10,0.0118902,-1.82602,0.123398,0.478129,0.78998,
2,1,0,1,0,39195.8,0.815814,0.815535,20.2177,59,0.256214,10,0.0164883,-1.69427,0.129504,0.455583,0.80664,
2,1,0,0,0,39199.5,0.834791,0.834525,26.4465,59,0.344696,10,0.0220702,-1.57763,0.146201,0.403554,0.822889,
2,1,0,0,0,39203.2,0.846726,0.846446,30.1586,59,0.453897,10,0.0255276,-1.52059,0.114982,0.513122,0.833177,
2,1,0,1,0,39207,0.827749,0.827485,22.4971,59,0.553196,10,0.018616,-1.64787,0.127395,0.463127,0.817586,
2,1,0,1,0,39210.8,0.808772,0.808478,16.6225,59,0.627049,10,0.0134389,-1.7793,0.117831,0.500716,0.801165,
2,1,0,1,0,39214.6,0.789795,0.7895,11.9151,59,0.680699,10,0.00940694,-1.9239,0.113748,0.51869,0.784258,
2,1,0,1,0,39218.4,0.770818,0.770567,8.07459,59,0.718757,10,0.00622201,-2.09288,0.0764715,0.771529,0.767014,
2,1,0,1,0,39222.2,0.751841,0.751528,5.54804,59,0.744374,10,0.0041695,-2.25586,0.104749,0.563252,0.749086,
2,1,0,1,0,39226,0.732865,0.73261,3.63072,59,0.761581,10,0.0026599,-2.44001,0.0935016,0.631006,0.731012,
2,1,0,0,0,39229.8,0.713887,0.713599,2.21031,59,0.772489,10,0.00157728,-2.65555,0.0789877,0.746952,0.712626,
2,1,0,1,0,39233.6,0.69491,0.694638,1.20913,59,0.778822,10,0.00083991,-2.91753,0.063648,0.926974,0.694106,
2,1,0,0,0,39237.4,0.675933,0.675685,0.567077,59,0.782058,10,0.000383166,-3.24636,0.0515209,1.14517,0.675435,
2,1,0,1,0,39241.2,0.656956,0.656679,0.206898,59,0.78342,10,0.000135866,-3.68424,0.0358112,1.64753,0.656588,
2,1,0,0,0,39245,0.637979,0.637702,0.0289519,59,0.783789,10,1.84627e-05,-4.53832,0.00958207,6.15733,0.637689,
2,0,0,1,0,39248.8,0.619002,0.618685,-0.0494714,59,0.783695,10,-3.06072e-05,-4.30565,-0.0430483,-1.37056,0.618707,
2,0,0,0,0,39252.6,0.600024,0.599723,-0.0842438,59,0.783399,10,-5.05229e-05,-4.07446,-0.164086,-0.359568,0.59976,
2,0,0,1,0,39256.4,0.581047,0.580753,-0.100628,59,0.783011,10,-5.84397e-05,-3.99728,-0.364685,-0.161784,0.580797,
2,0,0,1,0,39260.2,0.56207,0.561748,-0.109697,59,0.782579,10,-6.16219e-05,-3.95981,-0.579427,-0.101825,0.561797,
2,0,0,1,0,39264,0.543093,0.542776,-0.115271,59,0.78212,10,-6.25662e-05,-3.93828,-0.806035,-0.0731978,0.542827,
2,0,0,1,0,39267.8,0.524116,0.523783,-0.119506,59,0.781642,10,-6.25951e-05,-3.92261,-0.98001,-0.0602035,0.523835,
2,0,0,1,0,39271.6,0.505139,0.504822,-0.124224,59,0.781146,10,-6.27108e-05,-3.9058,-1.57317,-0.0375039,0.504876,
2,0,0,1,0,39275.4,0.486162,0.485845,-0.12911,59,0.780631,10,-6.27275e-05,-3.88904,-1.28668,-0.0458543,0.485902,
2,0,0,1,0,39279.2,0.467185,0.466867,-0.135231,59,0.780093,10,-6.3135e-05,-3.86892,-1.96127,-0.0300825,0.466926,
2,0,0,1,0,39282.9,0.448208,0.447882,-0.141399,59,0.779531,10,-6.33299e-05,-3.84955,-1.21458,-0.0485764,0.447944,
2,0,0,0,0,39286.7,0.429231,0.428959,-0.149549,59,0.77894,10,-6.41505e-05,-3.82522,3.24262,0.0181952,0.429025,
2,0,0,1,0,39290.5,0.410254,0.409968,-0.158178,59,0.778316,10,-6.48481e-05,-3.80085,-1.12894,-0.0522614,0.410038,
2,0,0,0,0,39294.3,0.391277,0.390967,-0.168175,59,0.777656,10,-6.57509e-05,-3.77424,-0.736165,-0.0801451,0.391041,
2,0,0,1,0,39298.1,0.3723,0.371965,-0.177387,59,0.776961,10,-6.59819e-05,-3.75108,-0.573589,-0.102861,0.372043,
2,0,0,1,0,39301.9,0.353322,0.353047,-0.187989,59,0.776227,10,-6.63688e-05,-3.72587,-0.523724,-0.112655,0.35313,
2,0,0,1,0,39305.7,0.334345,0.333988,-0.198358,59,0.775451,10,-6.6249e-05,-3.70255,-0.798218,-0.0739146,0.334075,
2,0,0,1,0,39309.5,0.315368,0.31506,-0.210571,59,0.774631,10,-6.63423e-05,-3.6766,-0.983877,-0.0599668,0.315152,
2,0,0,1,0,39313.3,0.296391,0.296113,-0.223169,59,0.773767,10,-6.60834e-05,-3.65137,-0.844662,-0.0698504,0.296212,
2,0,0,1,0,39317.1,0.277414,0.277126,-0.233405,59,0.772857,10,-6.46826e-05,-3.63189,-0.725008,-0.0813784,0.277229,
2,0,0,1,0,39320.9,0.258437,0.258132,-0.245689,59,0.771899,10,-6.342e-05,-3.60962,-0.649316,-0.0908648,0.25824,
2,0,0,1,0,39324.7,0.239461,0.239127,-0.25837,59,0.770896,10,-6.17833e-05,-3.58776,-1.59948,-0.036887,0.23924,
2,0,0,0,0,39328.5,0.220483,0.220182,-0.269485,59,0.76985,10,-5.93358e-05,-3.56946,-0.782957,-0.0753553,0.220301,
2,0,0,1,0,39332.3,0.201506,0.201194,-0.282665,59,0.768756,10,-5.68707e-05,-3.54873,-0.456035,-0.129376,0.201319,
2,0,0,0,0,39336.1,0.182529,0.182212,-0.300988,59,0.7676,10,-5.48437e-05,-3.52145,-0.468041,-0.126057,0.182344,
2,0,0,1,0,39339.9,0.163552,0.163242,-0.334166,59,0.766352,10,-5.45501e-05,-3.47604,-0.300659,-0.196236,0.163389,
2,0,0,0,0,39343.7,0.144575,0.144301,-0.42949,59,0.764888,10,-6.1976e-05,-3.36705,-0.107409,-0.549301,0.14449,
2,0,0,1,0,39347.5,0.125598,0.125244,-0.644604,59,0.762796,10,-8.07327e-05,-3.19071,-0.177644,-0.332124,0.125527,
2,0,0,1,0,39351.3,0.10662,0.106307,-0.696118,59,0.760141,10,-7.40021e-05,-3.15732,6.41075,0.00920329,0.106613,
2,0,0,1,0,39355.1,0.0876433,0.0873224,-0.665249,59,0.757496,10,-5.80911e-05,-3.17702,0.758558,0.0777792,0.0876151,
2,0,0,1,0,39358.9,0.0686664,0.0683167,-0.623034,59,0.755001,10,-4.25636e-05,-3.20549,0.72249,0.0816621,0.0685909,
2,0,0,1,0,39362.7,0.0496895,0.0493792,-0.579742,59,0.75266,10,-2.86272e-05,-3.23677,0.50098,0.117769,0.0496343,
2,0,0,1,0,39366.4,0.0307126,0.030414,-0.532302,59,0.750491,10,-1.61894e-05,-3.27384,0.48953,0.120524,0.0306482,
2,0,0,1,0,39370.2,0.0117356,0.0114254,-0.500334,59,0.748482,10,-5.71652e-06,-3.30074,1.62565,0.0362933,0.0116456,
2,0,0,0,0,39372.5,0.000274105,-0.000111784,-0.501596,59,0.747303,10,5.60705e-08,-3.29965, , ,0.000108918,