File: Figure_codes/Fig_3-5/workspace_calculate_alpha_eff/20221101_1-115_003_TrumpetPlot_ParaChange_from10_every3_16_CV_C01_47.csv
mode,ox/red,error,control changes,counter inc.,time/s,control/V,Ewe/V,<I>/mA,cycle number,(Q-Qo)/C,I Range,P/W,log(|I|),Tafel slope mV/dec,alpha_eff,E-IR/V,
2,0,0,0,0,31522.1,2.44065e-05,-0.000287149,-0.102574,48,0.0000000E+000,10,2.94541e-08,-3.98896, , ,-0.000242016,
2,1,0,1,0,31525.8,0.0187763,0.0184329,0.212545,48,0.000699351,10,3.91782e-06,-3.67255,0.134738,0.437885,0.0183394,
2,1,0,1,0,31529.6,0.0377538,0.037405,0.278082,48,0.00169477,10,1.04017e-05,-3.55583,0.200464,0.294318,0.0372826,
2,1,0,0,0,31533.4,0.0567309,0.0564075,0.341239,48,0.00294227,10,1.92484e-05,-3.46694,0.27408,0.215265,0.0562573,
2,1,0,1,0,31537.2,0.075708,0.075358,0.389594,48,0.00440246,10,2.9359e-05,-3.40939,0.397814,0.14831,0.0751866,
2,1,0,0,0,31541,0.0946851,0.0943743,0.446209,48,0.00603851,10,4.21107e-05,-3.35046,0.233241,0.252958,0.0941779,
2,1,0,1,0,31544.8,0.113662,0.113341,0.546825,48,0.00800478,10,6.19775e-05,-3.26215,0.344777,0.171125,0.1131,
2,1,0,0,0,31548.6,0.132639,0.132346,0.597037,48,0.0102641,10,7.90157e-05,-3.224,-0.768592,-0.0767637,0.132084,
2,1,0,1,0,31552.4,0.151617,0.151302,0.386905,48,0.0122784,10,5.85397e-05,-3.4124,-0.0697708,-0.845627,0.151132,
2,1,0,1,0,31556.2,0.170594,0.170283,0.280011,48,0.0135486,10,4.7681e-05,-3.55283,-0.25102,-0.235041,0.17016,
2,1,0,1,0,31560,0.189571,0.189238,0.259197,48,0.0146259,10,4.90499e-05,-3.58637,-1.02628,-0.0574893,0.189124,
2,1,0,1,0,31563.8,0.208547,0.208258,0.248694,48,0.015648,10,5.17924e-05,-3.60434,-1.23942,-0.0476028,0.208148,
2,1,0,1,0,31567.6,0.227524,0.227247,0.242594,48,0.0166411,10,5.51288e-05,-3.61512,-0.98931,-0.0596375,0.22714,
2,1,0,1,0,31571.4,0.246501,0.246221,0.237928,48,0.0176136,10,5.85828e-05,-3.62356,-0.603886,-0.0977006,0.246116,
2,1,0,0,0,31575.2,0.265479,0.26519,0.233262,48,0.0185684,10,6.18588e-05,-3.63216,-0.982205,-0.060069,0.265087,
2,1,0,1,0,31579,0.284456,0.284135,0.230181,48,0.0195084,10,6.54025e-05,-3.63793,-8.27212,-0.00713239,0.284034,
2,1,0,0,0,31582.8,0.303433,0.30311,0.226126,48,0.0204323,10,6.85411e-05,-3.64565,8.31039,0.00709955,0.303011,
2,1,0,1,0,31586.6,0.32241,0.322097,0.221923,48,0.0213419,10,7.14806e-05,-3.6538,7.06617,0.00834965,0.321999,
2,1,0,0,0,31590.3,0.341387,0.341064,0.22072,48,0.0222379,10,7.52796e-05,-3.65616,-2.91483,-0.0202413,0.340967,
2,1,0,1,0,31594.1,0.360364,0.360044,0.217849,48,0.0231233,10,7.84353e-05,-3.66184,-5.13515,-0.0114895,0.359948,
2,1,0,1,0,31597.9,0.379342,0.379026,0.216743,48,0.024001,10,8.21511e-05,-3.66406,22.6596,0.00260375,0.378931,
2,1,0,1,0,31601.7,0.398319,0.398006,0.214929,48,0.0248725,10,8.5543e-05,-3.66771,12.3268,0.00478633,0.397912,
2,1,0,1,0,31605.5,0.417295,0.41701,0.215575,48,0.0257383,10,8.9897e-05,-3.6664,13.8762,0.00425188,0.416916,
2,1,0,1,0,31609.3,0.436272,0.435998,0.215434,48,0.0266008,10,9.39289e-05,-3.66669,1.87682,0.0314361,0.435903,
2,1,0,1,0,31613.1,0.455249,0.454987,0.216735,48,0.0274649,10,9.86114e-05,-3.66407,3.98542,0.014804,0.454891,
2,1,0,1,0,31616.9,0.474226,0.473932,0.217856,48,0.0283321,10,0.000103249,-3.66183,0.871902,0.0676682,0.473836,
2,1,0,1,0,31620.7,0.493203,0.492865,0.220334,48,0.0292063,10,0.000108595,-3.65692,1.72646,0.034174,0.492768,
2,1,0,0,0,31624.5,0.512181,0.511874,0.224707,48,0.0300931,10,0.000115022,-3.64838,6.71038,0.00879235,0.511775,
2,1,0,1,0,31628.3,0.531158,0.530845,0.23223,48,0.0310006,10,0.000123278,-3.63408,1.00758,0.0585562,0.530743,
2,1,0,0,0,31632.1,0.550135,0.54982,0.240712,48,0.0319368,10,0.000132348,-3.6185,1.10419,0.0534329,0.549714,
2,1,0,1,0,31635.9,0.569112,0.568804,0.255017,48,0.0329162,10,0.000145055,-3.59343,0.648646,0.0909587,0.568692,
2,1,0,0,0,31639.7,0.588089,0.587756,0.27748,48,0.0339624,10,0.00016309,-3.55677,0.477436,0.123577,0.587634,
2,1,0,1,0,31643.5,0.607066,0.606763,0.316428,48,0.035121,10,0.000191997,-3.49972,0.282268,0.209021,0.606623,
2,1,0,1,0,31647.3,0.626044,0.625795,0.389852,48,0.0364839,10,0.000243967,-3.4091,0.161418,0.365511,0.625624,
2,1,0,1,0,31651.1,0.64502,0.644739,0.543589,48,0.0382603,10,0.000350473,-3.26473,0.111974,0.526906,0.6445,
2,1,0,1,0,31654.9,0.663997,0.663737,0.866845,48,0.0409034,10,0.000575358,-3.06206,0.0848216,0.695578,0.663356,
2,1,0,1,0,31658.7,0.682974,0.682723,1.50855,48,0.0453263,10,0.00102992,-2.82144,0.0764873,0.77137,0.682059,
2,1,0,1,0,31662.5,0.701951,0.701667,2.61611,48,0.0530277,10,0.00183564,-2.58234,0.0804398,0.733468,0.700516,
2,1,0,1,0,31666.3,0.720928,0.72066,4.26688,48,0.0659536,10,0.00307497,-2.36989,0.0920165,0.641189,0.718782,
2,1,0,1,0,31670.1,0.739905,0.739627,6.47943,48,0.0862073,10,0.00479236,-2.18846,0.105304,0.560285,0.736776,
2,1,0,0,0,31673.8,0.758883,0.758644,9.29732,48,0.115982,10,0.00705335,-2.03164,0.118564,0.497621,0.754553,
2,1,0,1,0,31677.6,0.77786,0.777588,12.9431,48,0.157885,10,0.0100644,-1.88796,0.118404,0.498293,0.771893,
2,1,0,0,0,31681.4,0.796837,0.796601,17.8589,48,0.216031,10,0.0142264,-1.74815,0.128308,0.459833,0.788743,
2,1,0,1,0,31685.2,0.815814,0.815549,24.2869,48,0.295684,10,0.0198071,-1.61463,0.126934,0.464809,0.804863,
2,1,0,0,0,31689,0.834791,0.83452,31.6017,48,0.401625,10,0.0263723,-1.50029,0.153379,0.384667,0.820615,
2,1,0,0,0,31692.7,0.846727,0.846479,35.2058,48,0.530399,10,0.029801,-1.45339,0.114451,0.515503,0.830989,
2,1,0,1,0,31696.5,0.827749,0.827495,26.6574,48,0.647051,10,0.0220589,-1.57418,0.128091,0.46061,0.815766,
2,1,0,1,0,31700.3,0.808772,0.808464,19.7738,48,0.734552,10,0.0159865,-1.70391,0.121577,0.485289,0.799764,
2,1,0,1,0,31704.1,0.789795,0.78952,14.2068,48,0.798579,10,0.0112165,-1.84751,0.10945,0.539061,0.78327,
2,1,0,1,0,31707.9,0.770818,0.770528,9.93043,48,0.843973,10,0.00765167,-2.00303,0.109215,0.540219,0.766159,
2,1,0,1,0,31711.7,0.751841,0.751538,6.7249,48,0.87525,10,0.00505402,-2.17231,0.0984113,0.599525,0.748579,
2,1,0,1,0,31715.5,0.732865,0.732582,4.33982,48,0.895975,10,0.00317928,-2.36253,0.0881467,0.669338,0.730673,
2,1,0,0,0,31719.3,0.713887,0.71362,2.61047,48,0.908935,10,0.00186288,-2.58328,0.0775164,0.761129,0.712471,
2,1,0,1,0,31723.1,0.69491,0.694595,1.41672,48,0.916381,10,0.000984044,-2.84872,0.0625832,0.942745,0.693972,
2,1,0,0,0,31726.9,0.675933,0.67563,0.664828,48,0.920166,10,0.000449177,-3.17729,0.050124,1.17708,0.675337,
2,1,0,1,0,31730.7,0.656956,0.656662,0.246947,48,0.921768,10,0.000162161,-3.6074,0.0364287,1.6196,0.656554,
2,1,0,0,0,31734.5,0.637979,0.637689,0.0436763,48,0.922228,10,2.78519e-05,-4.35975,0.0140976,4.18511,0.637669,
2,0,0,1,0,31738.3,0.619002,0.6187,-0.0443037,48,0.92216,10,-2.74107e-05,-4.35356,-0.0376795,-1.56584,0.618719,
2,0,0,0,0,31742.1,0.600025,0.599745,-0.083548,48,0.921863,10,-5.01075e-05,-4.07806,0.932916,0.0632426,0.599782,
2,0,0,1,0,31745.9,0.581047,0.580743,-0.101856,48,0.921467,10,-5.91524e-05,-3.99201,-0.320255,-0.184228,0.580788,
2,0,0,1,0,31749.7,0.56207,0.561742,-0.11032,48,0.92102,10,-6.19712e-05,-3.95735,-1.57481,-0.0374649,0.56179,
2,0,0,1,0,31753.5,0.543093,0.542782,-0.11625,48,0.920546,10,-6.30985e-05,-3.93461,-1.40665,-0.0419436,0.542833,
2,0,0,1,0,31757.2,0.524116,0.523803,-0.120653,48,0.920052,10,-6.31983e-05,-3.91846,-1.48433,-0.0397486,0.523856,
2,0,0,1,0,31761,0.505139,0.504818,-0.12556,48,0.919539,10,-6.33853e-05,-3.90115,-17.0417,-0.00346209,0.504874,
2,0,0,1,0,31764.8,0.486162,0.485837,-0.130883,48,0.919006,10,-6.35881e-05,-3.88312,-1.47906,-0.0398903,0.485895,
2,0,0,1,0,31768.6,0.467185,0.466904,-0.136702,48,0.918451,10,-6.38269e-05,-3.86422,-1.25319,-0.0470798,0.466964,
2,0,0,1,0,31772.4,0.448208,0.447848,-0.14449,48,0.917871,10,-6.47098e-05,-3.84016,-0.939885,-0.0627736,0.447912,
2,0,0,0,0,31776.2,0.429231,0.428913,-0.151282,48,0.917263,10,-6.4887e-05,-3.82021,2.0321,0.029034,0.42898,
2,0,0,1,0,31780,0.410254,0.409964,-0.160147,48,0.916622,10,-6.56545e-05,-3.79548,-1.83339,-0.0321808,0.410034,
2,0,0,0,0,31783.8,0.391277,0.390953,-0.169019,48,0.915946,10,-6.60785e-05,-3.77206,-0.640472,-0.0921195,0.391027,
2,0,0,1,0,31787.6,0.3723,0.371987,-0.178676,48,0.915233,10,-6.6465e-05,-3.74793,-0.677795,-0.0870469,0.372065,
2,0,0,1,0,31791.4,0.353322,0.353023,-0.190235,48,0.914479,10,-6.71574e-05,-3.72071,-0.600168,-0.0983059,0.353107,
2,0,0,1,0,31795.2,0.334345,0.334023,-0.199954,48,0.913683,10,-6.67891e-05,-3.69907,-1.14081,-0.0517174,0.334111,
2,0,0,1,0,31799,0.315368,0.315034,-0.211442,48,0.912844,10,-6.66114e-05,-3.67481,-0.827894,-0.0712652,0.315127,
2,0,0,1,0,31802.8,0.296391,0.29609,-0.223824,48,0.911961,10,-6.62721e-05,-3.65009,-0.847442,-0.0696213,0.296189,
2,0,0,1,0,31806.6,0.277414,0.277107,-0.235057,48,0.911033,10,-6.51358e-05,-3.62883,-0.809818,-0.0728559,0.27721,
2,0,0,1,0,31810.4,0.258437,0.258105,-0.248333,48,0.910057,10,-6.40958e-05,-3.60497,-0.645649,-0.0913809,0.258214,
2,0,0,1,0,31814.2,0.239461,0.239122,-0.258148,48,0.909035,10,-6.1729e-05,-3.58813,-0.988575,-0.0596818,0.239236,
2,0,0,0,0,31818,0.220483,0.220206,-0.270977,48,0.90797,10,-5.96708e-05,-3.56707,-0.497518,-0.118589,0.220326,
2,0,0,1,0,31821.8,0.201506,0.201156,-0.284515,48,0.906857,10,-5.72319e-05,-3.5459,-0.535849,-0.110106,0.201281,
2,0,0,0,0,31825.6,0.182529,0.182202,-0.303843,48,0.90568,10,-5.53609e-05,-3.51735,-0.423095,-0.139449,0.182336,
2,0,0,1,0,31829.4,0.163552,0.163243,-0.339221,48,0.904403,10,-5.53756e-05,-3.46952,-0.258423,-0.228308,0.163393,
2,0,0,0,0,31833.2,0.144575,0.144236,-0.448056,48,0.902885,10,-6.46256e-05,-3.34867,-0.0965882,-0.610841,0.144433,
2,0,0,1,0,31837,0.125598,0.125238,-0.677553,48,0.900663,10,-8.48557e-05,-3.16906,-0.189846,-0.310778,0.125537,
2,0,0,1,0,31840.7,0.10662,0.106292,-0.716498,48,0.897887,10,-7.61579e-05,-3.14478,1.36682,0.043166,0.106607,
2,0,0,1,0,31844.5,0.0876433,0.0873192,-0.672145,48,0.895174,10,-5.86912e-05,-3.17254,0.51712,0.114093,0.087615,
2,0,0,1,0,31848.3,0.0686664,0.0683498,-0.627347,48,0.892645,10,-4.2879e-05,-3.20249,0.683983,0.0862594,0.0686258,
2,0,0,1,0,31852.1,0.0496895,0.0493475,-0.580779,48,0.890279,10,-2.866e-05,-3.23599,0.575257,0.102563,0.049603,
2,0,0,1,0,31855.9,0.0307126,0.0304128,-0.532585,48,0.888094,10,-1.61974e-05,-3.27361,0.505535,0.116708,0.0306472,
2,0,0,1,0,31859.7,0.0117356,0.0113947,-0.49853,48,0.886077,10,-5.6806e-06,-3.30231,1.09814,0.0537272,0.0116141,
2,0,0,0,0,31862,0.000274105,-0.000138029,-0.499872,48,0.884891,10,6.8997e-08,-3.30114, , ,8.19146e-05,