File: Figure_codes/Fig_3-5/workspace_calculate_alpha_eff/20221101_1-115_003_TrumpetPlot_ParaChange_from10_every3_16_CV_C01_95.csv
mode,ox/red,error,control changes,counter inc.,time/s,control/V,Ewe/V,<I>/mA,cycle number,(Q-Qo)/C,I Range,P/W,log(|I|),Tafel slope mV/dec,alpha_eff,E-IR/V,
2,0,0,0,0,63044.2,2.44065e-05,-0.00042076,-0.10321,96,0.0000000E+000,10,4.34267e-08,-3.98628, , ,-0.000375348,
2,1,0,1,0,63047.9,0.0187763,0.0183945,0.201655,96,0.000646124,10,3.70934e-06,-3.69539,0.142883,0.412924,0.0183058,
2,1,0,1,0,63051.7,0.0377538,0.0373594,0.263668,96,0.00158044,10,9.85049e-06,-3.57894,0.170394,0.346256,0.0372434,
2,1,0,0,0,63055.5,0.0567309,0.056346,0.322439,96,0.00275025,10,1.81682e-05,-3.49155,0.280635,0.210237,0.0562041,
2,1,0,1,0,63059.3,0.075708,0.0753198,0.366019,96,0.00411556,10,2.75685e-05,-3.4365,0.460909,0.128008,0.0751588,
2,1,0,0,0,63063.1,0.094685,0.0943467,0.41791,96,0.00564264,10,3.94285e-05,-3.37892,0.254737,0.231611,0.0941628,
2,1,0,1,0,63066.9,0.113662,0.113346,0.509608,96,0.0074544,10,5.7762e-05,-3.29276,0.301311,0.195811,0.113122,
2,1,0,0,0,63070.7,0.132639,0.132287,0.541004,96,0.00952556,10,7.15678e-05,-3.2668,-0.479383,-0.123075,0.132049,
2,1,0,1,0,63074.5,0.151617,0.151245,0.355133,96,0.0113332,10,5.37122e-05,-3.44961,-0.0809538,-0.728811,0.151089,
2,1,0,1,0,63078.3,0.170594,0.170261,0.27229,96,0.0125211,10,4.63604e-05,-3.56497,-0.344698,-0.171164,0.170142,
2,1,0,1,0,63082.1,0.189571,0.189214,0.255344,96,0.0135615,10,4.83145e-05,-3.59287,-0.771776,-0.0764471,0.189101,
2,1,0,1,0,63085.9,0.208547,0.208189,0.248635,96,0.0145616,10,5.17629e-05,-3.60444,-1.50053,-0.0393194,0.208079,
2,1,0,1,0,63089.7,0.227524,0.227172,0.244399,96,0.0155388,10,5.55205e-05,-3.6119,-1.25861,-0.0468772,0.227064,
2,1,0,1,0,63093.5,0.246501,0.246155,0.240469,96,0.0165002,10,5.91927e-05,-3.61894,-1.57593,-0.0374381,0.246049,
2,1,0,0,0,63097.3,0.265479,0.265139,0.236939,96,0.0174481,10,6.28217e-05,-3.62536,-1.7891,-0.0329775,0.265035,
2,1,0,1,0,63101,0.284456,0.284095,0.232606,96,0.0183798,10,6.60821e-05,-3.63338,-1.64193,-0.0359334,0.283992,
2,1,0,0,0,63104.8,0.303433,0.303103,0.228382,96,0.0192953,10,6.92231e-05,-3.64134,-3.61171,-0.0163357,0.303002,
2,1,0,1,0,63108.6,0.32241,0.322089,0.226098,96,0.0201957,10,7.28238e-05,-3.6457,-5.10476,-0.0115578,0.32199,
2,1,0,0,0,63112.4,0.341387,0.341039,0.223364,96,0.0210839,10,7.61758e-05,-3.65099,-2.25261,-0.0261918,0.34094,
2,1,0,1,0,63116.2,0.360364,0.360001,0.221419,96,0.0219614,10,7.97111e-05,-3.65478,5.9563,0.00990547,0.359903,
2,1,0,1,0,63120,0.379342,0.379025,0.218657,96,0.02283,10,8.28763e-05,-3.66024,10.9288,0.00539856,0.378929,
2,1,0,1,0,63123.8,0.398319,0.398006,0.216578,96,0.0236915,10,8.61994e-05,-3.66439,2.16676,0.0272296,0.397911,
2,1,0,1,0,63127.6,0.417295,0.416978,0.216154,96,0.0245485,10,9.01313e-05,-3.66524,-2.73875,-0.0215426,0.416882,
2,1,0,1,0,63131.4,0.436272,0.435972,0.215531,96,0.0254004,10,9.39653e-05,-3.66649,3.32089,0.0177663,0.435877,
2,1,0,1,0,63135.2,0.455249,0.454964,0.215844,96,0.0262502,10,9.82013e-05,-3.66586,3.91012,0.0150891,0.454869,
2,1,0,1,0,63139,0.474226,0.473859,0.217973,96,0.0271025,10,0.000103288,-3.6616,1.18845,0.0496444,0.473763,
2,1,0,1,0,63142.8,0.493203,0.492877,0.219517,96,0.0279611,10,0.000108195,-3.65853,1.37465,0.04292,0.49278,
2,1,0,0,0,63146.6,0.512181,0.511892,0.22278,96,0.0288302,10,0.000114039,-3.65212,5.83064,0.010119,0.511794,
2,1,0,1,0,63150.4,0.531158,0.530859,0.228744,96,0.029714,10,0.000121431,-3.64065,1.11765,0.0527896,0.530758,
2,1,0,0,0,63154.2,0.550135,0.549806,0.236216,96,0.0306229,10,0.000129873,-3.62669,1.41036,0.0418333,0.549702,
2,1,0,1,0,63158,0.569112,0.568799,0.247598,96,0.0315669,10,0.000140834,-3.60625,0.648739,0.0909456,0.56869,
2,1,0,0,0,63161.8,0.588089,0.587793,0.264786,96,0.0325629,10,0.000155639,-3.57711,0.537802,0.109706,0.587676,
2,1,0,1,0,63165.6,0.607066,0.606779,0.29423,96,0.033644,10,0.000178533,-3.53131,0.320914,0.18385,0.606649,
2,1,0,1,0,63169.4,0.626044,0.625672,0.344248,96,0.0348711,10,0.000215386,-3.46313,0.226929,0.259993,0.625521,
2,1,0,1,0,63173.2,0.64502,0.644716,0.443013,96,0.0363701,10,0.000285618,-3.35358,0.142957,0.412712,0.644521,
2,1,0,1,0,63177,0.663997,0.663675,0.643519,96,0.0384148,10,0.000427088,-3.19144,0.0995147,0.592877,0.663392,
2,1,0,1,0,63180.8,0.682974,0.682696,1.0314,96,0.0415448,10,0.00070413,-2.98657,0.0871541,0.676962,0.682243,
2,1,0,1,0,63184.5,0.701951,0.701657,1.69192,96,0.0466396,10,0.00118715,-2.77162,0.0875793,0.673675,0.700913,
2,1,0,1,0,63188.3,0.720928,0.720679,2.67966,96,0.0548552,10,0.00193118,-2.57192,0.0964475,0.611732,0.7195,
2,1,0,1,0,63192.1,0.739905,0.739636,4.0167,96,0.0674717,10,0.0029709,-2.39613,0.109729,0.537686,0.737869,
2,1,0,0,0,63195.9,0.758883,0.758597,5.75889,96,0.0859064,10,0.00436867,-2.23966,0.121857,0.484175,0.756063,
2,1,0,1,0,63199.7,0.77786,0.777551,8.00508,96,0.111871,10,0.00622436,-2.09663,0.130122,0.453422,0.774029,
2,1,0,0,0,63203.5,0.796837,0.796618,10.9293,96,0.147576,10,0.0087065,-1.96141,0.131355,0.449164,0.791809,
2,1,0,1,0,63207.3,0.815814,0.81557,14.8178,96,0.196118,10,0.0120849,-1.82922,0.131703,0.447976,0.809051,
2,1,0,0,0,63211.1,0.834791,0.834515,19.7417,96,0.261465,10,0.0164747,-1.70462,0.140549,0.419782,0.825828,
2,1,0,0,0,63214.8,0.846726,0.846455,22.6041,96,0.34341,10,0.0191334,-1.64581,0.10347,0.570216,0.836509,
2,1,0,1,0,63218.6,0.827749,0.827487,16.4698,96,0.416861,10,0.0136286,-1.78331,0.122191,0.482852,0.82024,
2,1,0,1,0,63222.4,0.808772,0.808456,11.9706,96,0.470388,10,0.00967767,-1.92189,0.119281,0.494629,0.803189,
2,1,0,1,0,63226.2,0.789795,0.789489,8.52905,96,0.508939,10,0.00673359,-2.0691,0.118113,0.49952,0.785736,
2,1,0,1,0,63230,0.770818,0.770505,5.98064,96,0.536204,10,0.00460812,-2.22325,0.114764,0.514101,0.767874,
2,1,0,1,0,63233.8,0.751841,0.751595,4.09452,96,0.555125,10,0.00307742,-2.3878,0.107351,0.549599,0.749794,
2,1,0,1,0,63237.6,0.732865,0.732574,2.68671,96,0.567838,10,0.00196821,-2.57078,0.0938072,0.628949,0.731392,
2,1,0,0,0,63241.4,0.713887,0.713642,1.6392,96,0.57592,10,0.0011698,-2.78537,0.0788301,0.748445,0.712921,
2,1,0,1,0,63245.2,0.69491,0.694652,0.896299,96,0.580616,10,0.000622616,-3.04755,0.0631772,0.933882,0.694258,
2,1,0,0,0,63249,0.675933,0.675623,0.411328,96,0.582993,10,0.000277903,-3.38581,0.0476274,1.23878,0.675442,
2,1,0,1,0,63252.8,0.656956,0.65667,0.133463,96,0.583944,10,8.7641e-05,-3.87464,0.0295204,1.99862,0.656611,
2,0,0,0,0,63256.6,0.637979,0.637653,-0.0051185,96,0.584127,10,-3.26383e-06,-5.29086,-0.0086432,-6.82618,0.637656,
2,0,0,1,0,63260.4,0.619002,0.618666,-0.066048,96,0.583948,10,-4.08616e-05,-4.18014,-0.0701383,-0.841196,0.618695,
2,0,0,0,0,63264.2,0.600024,0.599691,-0.0945599,96,0.583608,10,-5.67067e-05,-4.02429,-0.226711,-0.260243,0.599732,
2,0,0,1,0,63267.9,0.581047,0.580681,-0.107121,96,0.583194,10,-6.22029e-05,-3.97013,-0.82906,-0.0711649,0.580729,
2,0,0,1,0,63271.7,0.56207,0.561715,-0.115051,96,0.582744,10,-6.46261e-05,-3.93911,-1.56452,-0.0377113,0.561766,
2,0,0,1,0,63275.5,0.543093,0.542765,-0.11956,96,0.582271,10,-6.48932e-05,-3.92241,-3.23795,-0.0182214,0.542817,
2,0,0,1,0,63279.3,0.524116,0.523782,-0.124135,96,0.58178,10,-6.50198e-05,-3.9061,-1.3724,-0.0429903,0.523836,
2,0,0,1,0,63283.1,0.505139,0.504844,-0.127734,96,0.581273,10,-6.4486e-05,-3.89369,-10.2492,-0.00575654,0.5049,
2,0,0,1,0,63286.9,0.486162,0.485811,-0.133711,96,0.580746,10,-6.49581e-05,-3.87383,-2.3454,-0.0251557,0.48587,
2,0,0,1,0,63290.7,0.467185,0.466849,-0.13972,96,0.580198,10,-6.52281e-05,-3.85474,-0.772377,-0.0763875,0.46691,
2,0,0,1,0,63294.5,0.448208,0.447871,-0.146273,96,0.579625,10,-6.55117e-05,-3.83483,-0.946472,-0.0623368,0.447936,
2,0,0,0,0,63298.3,0.429231,0.428909,-0.153373,96,0.579023,10,-6.5783e-05,-3.81425,3.11873,0.0189179,0.428977,
2,0,0,1,0,63302.1,0.410254,0.409917,-0.161451,96,0.57839,10,-6.61817e-05,-3.79196,-12.396,-0.00475962,0.409988,
2,0,0,0,0,63305.9,0.391277,0.390948,-0.169988,96,0.577725,10,-6.64563e-05,-3.76958,-0.780669,-0.0755762,0.391022,
2,0,0,1,0,63309.7,0.3723,0.371942,-0.180375,96,0.577022,10,-6.7089e-05,-3.74382,-0.826516,-0.071384,0.372021,
2,0,0,1,0,63313.5,0.353322,0.352994,-0.190661,96,0.57628,10,-6.73022e-05,-3.71974,-0.902153,-0.0653991,0.353078,
2,0,0,1,0,63317.3,0.334345,0.333999,-0.201653,96,0.575497,10,-6.73519e-05,-3.6954,-1.19951,-0.0491868,0.334088,
2,0,0,1,0,63321.1,0.315368,0.315034,-0.212744,96,0.574672,10,-6.70215e-05,-3.67214,-0.6475,-0.0911197,0.315128,
2,0,0,1,0,63324.9,0.296391,0.29607,-0.224062,96,0.573803,10,-6.6338e-05,-3.64963,-0.647513,-0.0911179,0.296169,
2,0,0,1,0,63328.7,0.277414,0.277124,-0.239284,96,0.572887,10,-6.63113e-05,-3.62109,-0.906917,-0.0650555,0.277229,
2,0,0,1,0,63332.5,0.258437,0.258117,-0.247278,96,0.571924,10,-6.38268e-05,-3.60681,-0.90498,-0.0651948,0.258226,
2,0,0,1,0,63336.3,0.239461,0.239126,-0.257691,96,0.570918,10,-6.16207e-05,-3.5889,-0.809306,-0.072902,0.23924,
2,0,0,0,0,63340.1,0.220483,0.220169,-0.269503,96,0.56987,10,-5.93363e-05,-3.56944,-0.691628,-0.085306,0.220288,
2,0,0,1,0,63343.9,0.201506,0.20116,-0.282152,96,0.568774,10,-5.67577e-05,-3.54952,-0.489158,-0.120615,0.201285,
2,0,0,0,0,63347.7,0.182529,0.182196,-0.300108,96,0.567621,10,-5.46784e-05,-3.52272,-0.481792,-0.12246,0.182328,
2,0,0,1,0,63351.4,0.163552,0.163208,-0.329822,96,0.566385,10,-5.38297e-05,-3.48172,-0.388193,-0.151986,0.163354,
2,0,0,0,0,63355.2,0.144575,0.14418,-0.404999,96,0.564973,10,-5.83929e-05,-3.39255,-0.124357,-0.474442,0.144359,
2,0,0,1,0,63359,0.125598,0.125236,-0.591491,96,0.563043,10,-7.40762e-05,-3.22805,-0.146272,-0.403358,0.125497,
2,0,0,1,0,63362.8,0.10662,0.106269,-0.664693,96,0.560545,10,-7.06359e-05,-3.17738,-3.3111,-0.0178188,0.106561,
2,0,0,1,0,63366.6,0.0876433,0.0872991,-0.648932,96,0.557986,10,-5.66512e-05,-3.1878,0.965807,0.0610888,0.0875846,
2,0,0,1,0,63370.4,0.0686664,0.0683306,-0.611467,96,0.555538,10,-4.17819e-05,-3.21363,0.747817,0.0788963,0.0685996,
2,0,0,1,0,63374.2,0.0496895,0.0493497,-0.570441,96,0.553235,10,-2.81511e-05,-3.24379,0.571058,0.103317,0.0496007,
2,0,0,1,0,63378,0.0307126,0.0303716,-0.523584,96,0.551101,10,-1.59021e-05,-3.28101,0.490966,0.120171,0.030602,
2,0,0,1,0,63381.8,0.0117356,0.0113936,-0.495676,96,0.549118,10,-5.64755e-06,-3.3048,1.56807,0.0376258,0.0116117,
2,0,0,0,0,63384.1,0.000274105,-0.000105819,-0.495511,96,0.547951,10,5.24347e-08,-3.30495, , ,0.000112206,