File: Figure_codes/Fig_3-5/workspace_calculate_alpha_eff/20221101_1-115_003_TrumpetPlot_ParaChange_from10_every3_16_CV_C01_97.csv
mode,ox/red,error,control changes,counter inc.,time/s,control/V,Ewe/V,<I>/mA,cycle number,(Q-Qo)/C,I Range,P/W,log(|I|),Tafel slope mV/dec,alpha_eff,E-IR/V,
2,0,0,0,0,64644.3,2.44065e-05,-0.000287149,-0.107662,98,0.0000000E+000,10,3.09151e-08,-3.96794, , ,-0.000239777,
2,1,0,1,0,64648,0.0187763,0.0184105,0.21122,98,0.000680164,10,3.88866e-06,-3.67527,0.161322,0.365728,0.0183176,
2,1,0,1,0,64651.8,0.0377538,0.0373838,0.273069,98,0.0016493,10,1.02083e-05,-3.56373,0.191851,0.307531,0.0372636,
2,1,0,0,0,64655.6,0.0567309,0.0563598,0.33099,98,0.0028533,10,1.86545e-05,-3.48018,0.278985,0.211481,0.0562141,
2,1,0,1,0,64659.4,0.075708,0.0753898,0.374885,98,0.00425153,10,2.82625e-05,-3.4261,0.421063,0.140122,0.0752249,
2,1,0,0,0,64663.2,0.094685,0.09437,0.425658,98,0.00580913,10,4.01693e-05,-3.37094,0.247001,0.238865,0.0941827,
2,1,0,1,0,64667,0.113662,0.113325,0.515864,98,0.00764441,10,5.84601e-05,-3.28747,0.294197,0.200546,0.113098,
2,1,0,0,0,64670.8,0.132639,0.132348,0.547753,98,0.00973766,10,7.24943e-05,-3.26142,-0.501208,-0.117716,0.132107,
2,1,0,1,0,64674.6,0.151617,0.151279,0.36464,98,0.0115737,10,5.51624e-05,-3.43814,-0.0826214,-0.714101,0.151119,
2,1,0,1,0,64678.4,0.170594,0.170255,0.281322,98,0.012797,10,4.78965e-05,-3.5508,-0.390133,-0.15123,0.170131,
2,1,0,1,0,64682.2,0.189571,0.189242,0.264755,98,0.0138727,10,5.01027e-05,-3.57716,-1.32897,-0.0443953,0.189125,
2,1,0,1,0,64686,0.208547,0.208207,0.258325,98,0.0149089,10,5.37849e-05,-3.58783,-2.39822,-0.0246016,0.208093,
2,1,0,1,0,64689.8,0.227524,0.227183,0.253752,98,0.0159228,10,5.76481e-05,-3.59559,-1.73945,-0.0339188,0.227071,
2,1,0,1,0,64693.6,0.246501,0.24619,0.249749,98,0.0169213,10,6.14857e-05,-3.6025,-1.18247,-0.0498954,0.24608,
2,1,0,0,0,64697.4,0.265479,0.26517,0.246342,98,0.0179041,10,6.53225e-05,-3.60846,-1.41973,-0.0415572,0.265061,
2,1,0,1,0,64701.2,0.284456,0.284169,0.241397,98,0.0188704,10,6.85975e-05,-3.61727,-3.10024,-0.0190308,0.284063,
2,1,0,0,0,64705,0.303433,0.303117,0.237819,98,0.0198203,10,7.20871e-05,-3.62375,-1.15878,-0.0509157,0.303013,
2,1,0,1,0,64708.8,0.32241,0.322106,0.234863,98,0.0207548,10,7.56507e-05,-3.62919,-1.7654,-0.0334201,0.322003,
2,1,0,0,0,64712.6,0.341387,0.341046,0.23168,98,0.0216765,10,7.90134e-05,-3.63511,-4.71855,-0.0125038,0.340944,
2,1,0,1,0,64716.4,0.360364,0.360009,0.229732,98,0.0225875,10,8.27056e-05,-3.63878,-3.43901,-0.0171561,0.359908,
2,1,0,1,0,64720.2,0.379342,0.379031,0.227473,98,0.0234908,10,8.62196e-05,-3.64307,-3.28615,-0.0179541,0.378931,
2,1,0,1,0,64724,0.398319,0.397973,0.226235,98,0.024386,10,9.00357e-05,-3.64544,-8.63976,-0.00682889,0.397874,
2,1,0,1,0,64727.7,0.417295,0.417018,0.225129,98,0.025274,10,9.38827e-05,-3.64757,-5.37976,-0.010967,0.416919,
2,1,0,1,0,64731.5,0.436272,0.435977,0.22367,98,0.0261574,10,9.75147e-05,-3.65039,-19.3934,-0.00304228,0.435878,
2,1,0,1,0,64735.3,0.455249,0.454935,0.224375,98,0.0270392,10,0.000102076,-3.64902,2.34932,0.0251136,0.454836,
2,1,0,1,0,64739.1,0.474226,0.473936,0.224955,98,0.0279216,10,0.000106614,-3.6479,1.83125,0.0322184,0.473837,
2,1,0,1,0,64742.9,0.493203,0.492918,0.227903,98,0.0288094,10,0.000112338,-3.64225,2.05587,0.0286983,0.492818,
2,1,0,0,0,64746.7,0.512181,0.51188,0.231431,98,0.0297074,10,0.000118465,-3.63558,1.1939,0.049418,0.511778,
2,1,0,1,0,64750.5,0.531158,0.530819,0.236391,98,0.0306221,10,0.000125481,-3.62637,1.57117,0.0375515,0.530715,
2,1,0,0,0,64754.3,0.550135,0.549862,0.244151,98,0.0315614,10,0.00013425,-3.61234,1.25226,0.0471149,0.549755,
2,1,0,1,0,64758.1,0.569112,0.568838,0.255708,98,0.0325358,10,0.000145456,-3.59226,0.748144,0.0788619,0.568726,
2,1,0,0,0,64761.9,0.588089,0.58777,0.272989,98,0.0335649,10,0.000160455,-3.56385,0.623102,0.0946876,0.58765,
2,1,0,1,0,64765.7,0.607066,0.606765,0.302798,98,0.0346788,10,0.000183727,-3.51885,0.360829,0.163512,0.606632,
2,1,0,1,0,64769.5,0.626044,0.625727,0.353048,98,0.0359399,10,0.000220912,-3.45217,0.217866,0.270809,0.625572,
2,1,0,1,0,64773.3,0.64502,0.644744,0.455621,98,0.0374801,10,0.000293759,-3.3414,0.146841,0.401794,0.644543,
2,1,0,1,0,64777.1,0.663997,0.663704,0.660487,98,0.0395786,10,0.000438368,-3.18014,0.10042,0.587531,0.663413,
2,1,0,1,0,64780.9,0.682974,0.682692,1.05409,98,0.0427827,10,0.000719622,-2.97712,0.0899009,0.656278,0.682228,
2,1,0,1,0,64784.7,0.701951,0.701666,1.72108,98,0.0479757,10,0.00120762,-2.7642,0.0881687,0.669172,0.700908,
2,1,0,1,0,64788.5,0.720928,0.720619,2.71689,98,0.056318,10,0.00195785,-2.56593,0.0986468,0.598093,0.719424,
2,1,0,1,0,64792.3,0.739905,0.73965,4.063,98,0.0690922,10,0.0030052,-2.39115,0.110104,0.535856,0.737863,
2,1,0,0,0,64796.1,0.758883,0.7586,5.81559,98,0.087722,10,0.00441171,-2.23541,0.121349,0.486203,0.756041,
2,1,0,1,0,64799.9,0.77786,0.777621,8.07617,98,0.113931,10,0.00628019,-2.09279,0.129041,0.457218,0.774067,
2,1,0,0,0,64803.7,0.796837,0.796548,11.0096,98,0.149925,10,0.0087697,-1.95823,0.132123,0.446554,0.791704,
2,1,0,1,0,64807.4,0.815814,0.815486,14.829,98,0.19869,10,0.0120928,-1.82889,0.133441,0.442143,0.808961,
2,1,0,0,0,64811.2,0.834791,0.834573,19.705,98,0.263992,10,0.0164452,-1.70542,0.147255,0.400665,0.825903,
2,1,0,0,0,64814.9,0.846726,0.846488,22.4857,98,0.345676,10,0.0190339,-1.64809,0.100717,0.585801,0.836594,
2,1,0,1,0,64818.7,0.827749,0.827526,16.3827,98,0.418822,10,0.0135571,-1.78561,0.118811,0.496585,0.820318,
2,1,0,1,0,64822.5,0.808772,0.808528,11.8402,98,0.471925,10,0.00957317,-1.92664,0.120116,0.491191,0.803318,
2,1,0,1,0,64826.3,0.789795,0.789497,8.44992,98,0.510084,10,0.00667119,-2.07315,0.117824,0.500746,0.785779,
2,1,0,1,0,64830.1,0.770818,0.770531,5.91996,98,0.537082,10,0.00456151,-2.22768,0.113592,0.519401,0.767926,
2,1,0,1,0,64833.9,0.751841,0.751571,4.0546,98,0.555801,10,0.00304732,-2.39205,0.106705,0.552924,0.749787,
2,1,0,1,0,64837.7,0.732865,0.732593,2.70631,98,0.568409,10,0.00198262,-2.56762,0.116953,0.504477,0.731402,
2,1,0,0,0,64841.5,0.713887,0.713604,1.67829,98,0.57663,10,0.00119763,-2.77513,0.0783989,0.752562,0.712865,
2,1,0,1,0,64845.3,0.69491,0.694689,0.926509,98,0.581459,10,0.000643636,-3.03315,0.0644045,0.916086,0.694282,
2,1,0,0,0,64849.1,0.675933,0.675655,0.433,98,0.583935,10,0.000292559,-3.36351,0.0497892,1.185,0.675465,
2,1,0,1,0,64852.9,0.656956,0.656674,0.148707,98,0.584955,10,9.7652e-05,-3.82767,0.0301635,1.956,0.656608,
2,1,0,0,0,64856.7,0.637979,0.637649,0.00598997,98,0.585185,10,3.8195e-06,-5.22258,0.00776311,7.60005,0.637646,
2,0,0,1,0,64860.5,0.619002,0.61871,-0.058451,98,0.585042,10,-3.61642e-05,-4.23321,-0.0615093,-0.959205,0.618736,
2,0,0,0,0,64864.3,0.600024,0.599711,-0.0867222,98,0.584729,10,-5.20083e-05,-4.06187,-0.271884,-0.217004,0.599749,
2,0,0,1,0,64868.1,0.581047,0.58074,-0.102342,98,0.584339,10,-5.94342e-05,-3.98995,-0.6805,-0.086701,0.580785,
2,0,0,1,0,64871.9,0.56207,0.561779,-0.109255,98,0.583909,10,-6.13773e-05,-3.96156,-1.96117,-0.0300841,0.561827,
2,0,0,1,0,64875.7,0.543093,0.542796,-0.114738,98,0.583456,10,-6.22793e-05,-3.94029,-0.690908,-0.0853949,0.542846,
2,0,0,1,0,64879.5,0.524116,0.5238,-0.119505,98,0.582983,10,-6.25969e-05,-3.92261,-1.65793,-0.0355865,0.523852,
2,0,0,1,0,64883.3,0.505139,0.504815,-0.123056,98,0.582491,10,-6.21207e-05,-3.9099,-0.846081,-0.0697333,0.50487,
2,0,0,1,0,64887.1,0.486162,0.485837,-0.129217,98,0.581981,10,-6.27783e-05,-3.88868,-7.92811,-0.00744187,0.485894,
2,0,0,1,0,64890.8,0.467185,0.466852,-0.134628,98,0.581448,10,-6.28513e-05,-3.87087,-1.57416,-0.0374804,0.466911,
2,0,0,1,0,64894.6,0.448208,0.447936,-0.141724,98,0.58089,10,-6.34833e-05,-3.84856,-0.923797,-0.0638668,0.447998,
2,0,0,0,0,64898.4,0.429231,0.42888,-0.149867,98,0.580303,10,-6.4275e-05,-3.82429,-0.740115,-0.0797174,0.428945,
2,0,0,1,0,64902.2,0.410254,0.40992,-0.159074,98,0.579682,10,-6.52075e-05,-3.7984,-1.58282,-0.0372753,0.40999,
2,0,0,0,0,64906,0.391277,0.390951,-0.167834,98,0.579027,10,-6.56147e-05,-3.77512,-0.798896,-0.0738519,0.391025,
2,0,0,1,0,64909.8,0.3723,0.371962,-0.177655,98,0.578334,10,-6.60811e-05,-3.75042,-1.17594,-0.0501728,0.37204,
2,0,0,1,0,64913.6,0.353322,0.35297,-0.188128,98,0.577603,10,-6.64036e-05,-3.72555,-1.04091,-0.056681,0.353053,
2,0,0,1,0,64917.4,0.334345,0.334024,-0.198435,98,0.57683,10,-6.62819e-05,-3.70238,-0.571076,-0.103314,0.334111,
2,0,0,1,0,64921.2,0.315368,0.315032,-0.209747,98,0.576014,10,-6.6077e-05,-3.6783,-0.776187,-0.0760126,0.315124,
2,0,0,1,0,64925,0.296391,0.296069,-0.221275,98,0.575153,10,-6.55126e-05,-3.65507,-0.542236,-0.108809,0.296166,
2,0,0,1,0,64928.8,0.277414,0.277106,-0.232289,98,0.574247,10,-6.43686e-05,-3.63397,-0.852596,-0.0692005,0.277208,
2,0,0,1,0,64932.6,0.258437,0.258101,-0.245505,98,0.573294,10,-6.33652e-05,-3.60994,-0.707906,-0.0833444,0.258209,
2,0,0,1,0,64936.4,0.239461,0.239127,-0.257695,98,0.572296,10,-6.16217e-05,-3.58889,-0.753231,-0.0783292,0.23924,
2,0,0,0,0,64940.2,0.220483,0.220188,-0.268696,98,0.571254,10,-5.91638e-05,-3.57074,-0.783383,-0.0753144,0.220307,
2,0,0,1,0,64944,0.201506,0.201186,-0.280342,98,0.570166,10,-5.64009e-05,-3.55231,-0.816306,-0.0722768,0.201309,
2,0,0,0,0,64947.8,0.182529,0.182209,-0.297204,98,0.569021,10,-5.41532e-05,-3.52694,-0.50757,-0.11624,0.18234,
2,0,0,1,0,64951.6,0.163552,0.163239,-0.326692,98,0.567791,10,-5.33289e-05,-3.48586,-0.329566,-0.179024,0.163383,
2,0,0,0,0,64955.4,0.144575,0.144219,-0.403634,98,0.566381,10,-5.82115e-05,-3.39401,-0.132312,-0.445914,0.144396,
2,0,0,1,0,64959.2,0.125598,0.125254,-0.592639,98,0.564451,10,-7.42306e-05,-3.22721,-0.149272,-0.395251,0.125515,
2,0,0,1,0,64963,0.10662,0.106335,-0.663535,98,0.561954,10,-7.05571e-05,-3.17814,-5.1659,-0.0114211,0.106627,
2,0,0,1,0,64966.8,0.0876433,0.0872863,-0.648376,98,0.559399,10,-5.65943e-05,-3.18817,0.924932,0.0637884,0.0875715,
2,0,0,1,0,64970.6,0.0686664,0.0683188,-0.611844,98,0.556955,10,-4.18005e-05,-3.21336,0.644356,0.0915642,0.068588,
2,0,0,1,0,64974.3,0.0496895,0.0493676,-0.570195,98,0.554653,10,-2.81492e-05,-3.24398,0.602422,0.097938,0.0496185,
2,0,0,1,0,64978.1,0.0307126,0.0304279,-0.524653,98,0.552516,10,-1.59641e-05,-3.28013,0.564631,0.104493,0.0306587,
2,0,0,1,0,64981.9,0.0117356,0.0114116,-0.496776,98,0.550528,10,-5.669e-06,-3.30384,1.29111,0.045697,0.0116302,
2,0,0,0,0,64984.2,0.000274105,-8.43461e-05,-0.498327,98,0.549357,10,4.20319e-08,-3.30249, , ,0.000134918,