File: Figure_codes/Fig_3-5/workspace_calculate_alpha_eff/20221101_1-115_003_TrumpetPlot_ParaChange_from10_every3_16_CV_C01_49.csv
mode,ox/red,error,control changes,counter inc.,time/s,control/V,Ewe/V,<I>/mA,cycle number,(Q-Qo)/C,I Range,P/W,log(|I|),Tafel slope mV/dec,alpha_eff,E-IR/V,
2,0,0,0,0,33122.2,2.44065e-05,-0.000363498,-0.0873094,50,0.0000000E+000,10,3.17368e-08,-4.05894, , ,-0.000325082,
2,1,0,1,0,33126,0.0187763,0.0184211,0.218532,50,0.000728726,10,4.0256e-06,-3.66048,0.153198,0.385122,0.018325,
2,1,0,1,0,33129.8,0.0377538,0.0373997,0.286499,50,0.00175683,10,1.0715e-05,-3.54288,0.180273,0.327281,0.0372736,
2,1,0,0,0,33133.5,0.0567309,0.0564096,0.348125,50,0.00303601,10,1.96376e-05,-3.45826,0.275018,0.214532,0.0562564,
2,1,0,1,0,33137.3,0.075708,0.0753707,0.395882,50,0.00452464,10,2.98379e-05,-3.40243,0.536981,0.109873,0.0751965,
2,1,0,0,0,33141.1,0.094685,0.0943796,0.451092,50,0.00618489,10,4.25738e-05,-3.34574,0.247012,0.238854,0.0941811,
2,1,0,1,0,33144.9,0.113662,0.113321,0.550882,50,0.00815782,10,6.24263e-05,-3.25894,0.330164,0.178699,0.113078,
2,1,0,0,0,33148.7,0.132639,0.13228,0.597994,50,0.0104267,10,7.91024e-05,-3.2233,-0.763253,-0.0773007,0.132016,
2,1,0,1,0,33152.5,0.151617,0.151293,0.392985,50,0.0124508,10,5.94559e-05,-3.40562,-0.0752107,-0.784463,0.15112,
2,1,0,1,0,33156.3,0.170594,0.170299,0.289188,50,0.0137488,10,4.92483e-05,-3.53882,-0.302689,-0.194919,0.170171,
2,1,0,1,0,33160.1,0.189571,0.189273,0.267316,50,0.0148604,10,5.05958e-05,-3.57298,-0.755851,-0.0780577,0.189156,
2,1,0,1,0,33163.9,0.208547,0.208245,0.258752,50,0.0159173,10,5.38838e-05,-3.58712,-2.3295,-0.0253273,0.208131,
2,1,0,1,0,33167.7,0.227524,0.227201,0.250298,50,0.0169436,10,5.6868e-05,-3.60154,-0.694981,-0.0848944,0.227091,
2,1,0,1,0,33171.5,0.246501,0.246201,0.247047,50,0.017948,10,6.08232e-05,-3.60722,-0.953279,-0.0618917,0.246092,
2,1,0,0,0,33175.3,0.265479,0.265207,0.242828,50,0.0189352,10,6.43996e-05,-3.6147,-0.913107,-0.0646146,0.2651,
2,1,0,1,0,33179.1,0.284456,0.284171,0.238798,50,0.0199054,10,6.78596e-05,-3.62197,-7.48574,-0.00788165,0.284066,
2,1,0,0,0,33182.9,0.303433,0.303143,0.234789,50,0.0208576,10,7.11747e-05,-3.62932,-1.221,-0.0483209,0.30304,
2,1,0,1,0,33186.7,0.32241,0.322073,0.230082,50,0.0217933,10,7.41033e-05,-3.63812,7.40745,0.00796495,0.321972,
2,1,0,0,0,33190.5,0.341387,0.341054,0.227478,50,0.0227158,10,7.75823e-05,-3.64306,7.7522,0.00761074,0.340954,
2,1,0,1,0,33194.3,0.360364,0.360093,0.226206,50,0.023628,10,8.14551e-05,-3.6455,12.444,0.00474125,0.359993,
2,1,0,1,0,33198.1,0.379342,0.379041,0.224418,50,0.0245311,10,8.50636e-05,-3.64894,-1.85865,-0.0317434,0.378942,
2,1,0,1,0,33201.9,0.398319,0.397976,0.221987,50,0.0254268,10,8.83455e-05,-3.65367,16.1939,0.00364334,0.397879,
2,1,0,1,0,33205.7,0.417295,0.417019,0.22121,50,0.0263173,10,9.22488e-05,-3.6552,-2.04722,-0.0288196,0.416921,
2,1,0,1,0,33209.5,0.436272,0.435942,0.221699,50,0.0272049,10,9.66478e-05,-3.65424,4.86053,0.0121386,0.435844,
2,1,0,1,0,33213.3,0.455249,0.45496,0.22128,50,0.0280907,10,0.000100673,-3.65506,1.46641,0.0402344,0.454863,
2,1,0,1,0,33217,0.474226,0.473907,0.222962,50,0.0289798,10,0.000105663,-3.65177,1.93771,0.0304484,0.473809,
2,1,0,1,0,33220.8,0.493203,0.492919,0.226981,50,0.0298771,10,0.000111884,-3.64401,3.55177,0.0166114,0.492819,
2,1,0,0,0,33224.6,0.512181,0.511885,0.230481,50,0.030787,10,0.00011798,-3.63736,1.65009,0.0357557,0.511784,
2,1,0,1,0,33228.4,0.531158,0.530827,0.237213,50,0.0317164,10,0.000125919,-3.62486,1.23642,0.0477184,0.530723,
2,1,0,0,0,33232.2,0.550135,0.549846,0.245831,50,0.032673,10,0.000135169,-3.60936,0.798521,0.0738866,0.549738,
2,1,0,1,0,33236,0.569112,0.5688,0.260051,50,0.0336727,10,0.000147917,-3.58494,0.680604,0.0866877,0.568686,
2,1,0,0,0,33239.8,0.588089,0.58777,0.281748,50,0.0347383,10,0.000165603,-3.55014,0.503203,0.117249,0.587646,
2,1,0,1,0,33243.6,0.607066,0.606714,0.319644,50,0.0359136,10,0.000193933,-3.49533,0.276872,0.213095,0.606573,
2,1,0,1,0,33247.4,0.626044,0.625718,0.391974,50,0.0372892,10,0.000245265,-3.40674,0.162584,0.362889,0.625546,
2,1,0,1,0,33251.2,0.64502,0.644673,0.541036,50,0.0390674,10,0.000348791,-3.26677,0.113159,0.521389,0.644435,
2,1,0,1,0,33255,0.663997,0.663726,0.853946,50,0.0416839,10,0.000566786,-3.06857,0.084328,0.699649,0.66335,
2,1,0,1,0,33258.8,0.682974,0.682715,1.47313,50,0.0460188,10,0.00100573,-2.83176,0.0763526,0.77273,0.682067,
2,1,0,1,0,33262.6,0.701951,0.701699,2.54599,50,0.0535262,10,0.00178652,-2.59414,0.0806583,0.731481,0.700579,
2,1,0,1,0,33266.4,0.720928,0.720678,4.15176,50,0.0661051,10,0.00299208,-2.38177,0.0919357,0.641753,0.718851,
2,1,0,1,0,33270.2,0.739905,0.739618,6.31418,50,0.085826,10,0.00467008,-2.19968,0.10664,0.553265,0.73684,
2,1,0,0,0,33274,0.758883,0.758605,9.07508,50,0.114865,10,0.00688441,-2.04215,0.118435,0.498163,0.754612,
2,1,0,1,0,33277.8,0.77786,0.777592,12.6507,50,0.155806,10,0.00983706,-1.89789,0.117512,0.502077,0.772026,
2,1,0,0,0,33281.6,0.796837,0.796561,17.4724,50,0.212548,10,0.0139178,-1.75765,0.118711,0.497006,0.788873,
2,1,0,1,0,33285.4,0.815814,0.815597,23.7707,50,0.290468,10,0.0193873,-1.62396,0.13134,0.449216,0.805138,
2,1,0,0,0,33289.2,0.834791,0.834543,31.1994,50,0.394554,10,0.0260372,-1.50585,0.140811,0.419001,0.820815,
2,1,0,0,0,33292.9,0.846726,0.846461,34.8121,50,0.521868,10,0.0294671,-1.45827,0.116648,0.505794,0.831144,
2,1,0,1,0,33296.7,0.827749,0.827461,26.6343,50,0.63845,10,0.0220389,-1.57456,0.124882,0.472444,0.815742,
2,1,0,1,0,33300.4,0.808772,0.808486,19.6379,50,0.725713,10,0.0158769,-1.70691,0.118454,0.498082,0.799845,
2,1,0,1,0,33304.2,0.789795,0.789483,14.067,50,0.789213,10,0.0111057,-1.8518,0.111333,0.529939,0.783294,
2,1,0,1,0,33308,0.770818,0.770564,9.79217,50,0.834071,10,0.00754549,-2.00912,0.104908,0.562399,0.766255,
2,1,0,1,0,33311.8,0.751841,0.751568,6.60916,50,0.864837,10,0.00496723,-2.17985,0.10104,0.58393,0.74866,
2,1,0,1,0,33315.6,0.732865,0.73264,4.25783,50,0.885199,10,0.00311946,-2.37081,0.0876403,0.673206,0.730766,
2,1,0,0,0,33319.4,0.713887,0.713599,2.55267,50,0.897892,10,0.00182158,-2.593,0.0762206,0.774069,0.712475,
2,1,0,1,0,33323.2,0.69491,0.694642,1.38396,50,0.905169,10,0.000961355,-2.85888,0.0635637,0.928203,0.694033,
2,1,0,0,0,33327,0.675933,0.675664,0.647397,50,0.90886,10,0.000437423,-3.18883,0.0502598,1.1739,0.675379,
2,1,0,1,0,33330.8,0.656956,0.656682,0.241434,50,0.910419,10,0.000158545,-3.6172,0.0372281,1.58483,0.656576,
2,1,0,0,0,33334.6,0.637979,0.63771,0.0432361,50,0.910868,10,2.75721e-05,-4.36415,0.0137217,4.29976,0.637691,
2,0,0,1,0,33338.4,0.619002,0.618671,-0.0427445,50,0.910802,10,-2.64448e-05,-4.36912,-0.0364665,-1.61792,0.61869,
2,0,0,0,0,33342.2,0.600024,0.599727,-0.0802702,50,0.910515,10,-4.81402e-05,-4.09545,-0.150655,-0.391624,0.599762,
2,0,0,1,0,33346,0.581047,0.580761,-0.0988208,50,0.910129,10,-5.73913e-05,-4.00515,-0.344569,-0.171229,0.580805,
2,0,0,1,0,33349.8,0.56207,0.56179,-0.107339,50,0.909695,10,-6.03022e-05,-3.96924,-0.433996,-0.135946,0.561837,
2,0,0,1,0,33353.6,0.543093,0.542786,-0.112992,50,0.909234,10,-6.13307e-05,-3.94695,-0.588983,-0.100173,0.542836,
2,0,0,1,0,33357.4,0.524116,0.523826,-0.118846,50,0.908753,10,-6.22548e-05,-3.92501,-1.39785,-0.0422076,0.523879,
2,0,0,1,0,33361.2,0.505139,0.504833,-0.121797,50,0.908255,10,-6.14872e-05,-3.91436,-1.8985,-0.0310772,0.504887,
2,0,0,1,0,33365,0.486162,0.485854,-0.127192,50,0.907738,10,-6.17966e-05,-3.89554,-1.63567,-0.0360708,0.48591,
2,0,0,1,0,33368.8,0.467185,0.466827,-0.132345,50,0.9072,10,-6.17822e-05,-3.87829,-0.885706,-0.0666135,0.466885,
2,0,0,1,0,33372.6,0.448208,0.447905,-0.140342,50,0.906636,10,-6.28597e-05,-3.85281,-0.950952,-0.0620431,0.447967,
2,0,0,0,0,33376.4,0.429231,0.428919,-0.147538,50,0.906043,10,-6.32819e-05,-3.8311,-3.74575,-0.0157512,0.428984,
2,0,0,1,0,33380.1,0.410254,0.409919,-0.156808,50,0.905417,10,-6.42785e-05,-3.80463,-1.95277,-0.0302136,0.409988,
2,0,0,0,0,33383.9,0.391277,0.390988,-0.165823,50,0.904757,10,-6.48346e-05,-3.78036,-0.950707,-0.0620591,0.391061,
2,0,0,1,0,33387.7,0.3723,0.371999,-0.175453,50,0.904059,10,-6.52683e-05,-3.75584,-0.804186,-0.0733661,0.372076,
2,0,0,1,0,33391.5,0.353322,0.352997,-0.185436,50,0.903321,10,-6.54583e-05,-3.73181,-0.650633,-0.0906809,0.353078,
2,0,0,1,0,33395.3,0.334345,0.334074,-0.197141,50,0.902543,10,-6.58596e-05,-3.70522,-0.687567,-0.0858098,0.33416,
2,0,0,1,0,33399.1,0.315368,0.31504,-0.208581,50,0.90172,10,-6.57113e-05,-3.68072,-0.986393,-0.0598139,0.315131,
2,0,0,1,0,33402.9,0.296391,0.296085,-0.220158,50,0.900852,10,-6.51854e-05,-3.65727,-0.90558,-0.0651516,0.296182,
2,0,0,1,0,33406.7,0.277414,0.277085,-0.232222,50,0.899937,10,-6.43453e-05,-3.6341,-1.02117,-0.0577771,0.277187,
2,0,0,1,0,33410.5,0.258437,0.258114,-0.244078,50,0.898975,10,-6.29999e-05,-3.61247,-0.737261,-0.0800259,0.258221,
2,0,0,1,0,33414.3,0.239461,0.239156,-0.25577,50,0.897968,10,-6.11689e-05,-3.59215,-1.18584,-0.0497536,0.239269,
2,0,0,0,0,33418.1,0.220483,0.220173,-0.267725,50,0.896916,10,-5.89458e-05,-3.57231,-0.790742,-0.0746135,0.220291,
2,0,0,1,0,33421.9,0.201506,0.20122,-0.280822,50,0.895815,10,-5.6507e-05,-3.55157,-0.579406,-0.101828,0.201343,
2,0,0,0,0,33425.7,0.182529,0.182227,-0.301293,50,0.894651,10,-5.49037e-05,-3.52101,-0.338202,-0.174452,0.182359,
2,0,0,1,0,33429.5,0.163552,0.163241,-0.335774,50,0.893389,10,-5.48122e-05,-3.47395,-0.28075,-0.210152,0.163389,
2,0,0,0,0,33433.3,0.144575,0.144269,-0.441068,50,0.891891,10,-6.36323e-05,-3.35549,-0.101071,-0.583749,0.144463,
2,0,0,1,0,33437.1,0.125598,0.125273,-0.666729,50,0.88971,10,-8.35235e-05,-3.17605,-0.194845,-0.302805,0.125567,
2,0,0,1,0,33440.9,0.10662,0.106351,-0.70978,50,0.886969,10,-7.54859e-05,-3.14888,1.77953,0.0331549,0.106663,
2,0,0,1,0,33444.7,0.0876433,0.087298,-0.669143,50,0.884278,10,-5.84148e-05,-3.17448,0.551753,0.106932,0.0875924,
2,0,0,1,0,33448.5,0.0686664,0.0683529,-0.623891,50,0.881762,10,-4.26448e-05,-3.20489,0.593087,0.0994795,0.0686274,
2,0,0,1,0,33452.3,0.0496895,0.0493474,-0.579603,50,0.879406,10,-2.86019e-05,-3.23687,0.56371,0.104664,0.0496024,
2,0,0,1,0,33456.1,0.0307126,0.030377,-0.531279,50,0.877227,10,-1.61387e-05,-3.27468,0.486657,0.121235,0.0306108,
2,0,0,1,0,33459.9,0.0117356,0.0113936,-0.499126,50,0.875212,10,-5.68684e-06,-3.30179,1.02891,0.0573424,0.0116132,
2,0,0,0,0,33462.1,0.000274105,-0.000112977,-0.499996,50,0.87403,10,5.64881e-08,-3.30103, , ,0.000107021,