File: Figure_codes/Fig_3-5/workspace_calculate_alpha_eff/20221101_1-115_002_TrumpetPlot_ParaChange_18_CV_C01_0.csv
mode,ox/red,error,control changes,counter inc.,time/s,control/V,Ewe/V,<I>/mA,cycle number,(Q-Qo)/C,I Range,P/W,log(|I|),Tafel slope mV/dec,alpha_eff,E-IR/V,
2,1,0,1,0,1250.29,2.44065e-05,-0.000363498,0.120037,1,0.0000000E+000,10,-4.36332e-08,-3.92068, , ,-0.000459528,
2,1,0,1,0,1253.94,0.0182777,0.0179606,0.263867,1,0.000979391,10,4.73922e-06,-3.57861,0.367392,0.160592,0.0177495,
2,1,0,1,0,1257.64,0.036755,0.0364199,0.286989,1,0.00208998,10,1.04521e-05,-3.54213,0.456983,0.129108,0.0361903,
2,1,0,1,0,1261.33,0.0552323,0.054915,0.32034,1,0.00329116,10,1.75915e-05,-3.49439,0.310644,0.189928,0.0546587,
2,1,0,1,0,1265.03,0.0737106,0.0734271,0.382,1,0.00466133,10,2.80492e-05,-3.41794,0.264575,0.223,0.0731215,
2,1,0,0,0,1268.72,0.0921881,0.0918897,0.463914,1,0.00630937,10,4.26289e-05,-3.33356,0.214057,0.275628,0.0915186,
2,1,0,1,0,1272.42,0.110665,0.110383,0.575073,1,0.00829357,10,6.34782e-05,-3.24028,0.137001,0.430653,0.109923,
2,1,0,1,0,1276.11,0.129144,0.128803,0.861056,1,0.0109785,10,0.000110906,-3.06497,0.0944307,0.624797,0.128114,
2,1,0,1,0,1279.81,0.147621,0.147327,0.999988,1,0.0146643,10,0.000147325,-3.00001,-0.329344,-0.179144,0.146527,
2,1,0,1,0,1283.5,0.166099,0.16583,0.629735,1,0.0178498,10,0.000104429,-3.20084,-0.0709274,-0.831836,0.165326,
2,1,0,1,0,1287.2,0.184576,0.184329,0.402292,1,0.0197727,10,7.41539e-05,-3.39546,-0.148619,-0.396988,0.184007,
2,1,0,0,0,1290.9,0.203054,0.202745,0.335215,1,0.0212057,10,6.79631e-05,-3.47468,-0.326895,-0.180486,0.202476,
2,1,0,0,0,1294.59,0.221532,0.22124,0.301056,1,0.022461,10,6.66056e-05,-3.52135,-0.413563,-0.142663,0.220999,
2,1,0,1,0,1298.29,0.240009,0.239728,0.286587,1,0.023635,10,6.87031e-05,-3.54274,-0.491462,-0.12005,0.239499,
2,1,0,1,0,1301.98,0.258488,0.25822,0.278304,1,0.0247675,10,7.18638e-05,-3.55548,-1.24066,-0.0475555,0.257998,
2,1,0,1,0,1305.68,0.276965,0.276678,0.271697,1,0.025873,10,7.51726e-05,-3.56592,-1.82162,-0.0323887,0.276461,
2,1,0,1,0,1309.37,0.295442,0.29519,0.26674,1,0.0269587,10,7.87389e-05,-3.57391,-0.917626,-0.0642963,0.294976,
2,1,0,1,0,1313.07,0.313921,0.313674,0.263523,1,0.0280282,10,8.26604e-05,-3.57918,7.34239,0.00803553,0.313463,
2,1,0,0,0,1316.76,0.332398,0.332131,0.259939,1,0.0290837,10,8.63338e-05,-3.58513,-5.38291,-0.0109606,0.331923,
2,1,0,1,0,1320.46,0.350875,0.350568,0.253998,1,0.0301264,10,8.90435e-05,-3.59517,-5.63068,-0.0104783,0.350365,
2,1,0,1,0,1324.16,0.369354,0.369095,0.252682,1,0.0311564,10,9.32636e-05,-3.59743,-1.25518,-0.0470051,0.368893,
2,1,0,1,0,1327.85,0.387831,0.387568,0.249093,1,0.0321726,10,9.65403e-05,-3.60364,-2.84301,-0.0207526,0.387369,
2,1,0,1,0,1331.55,0.406308,0.406007,0.245935,1,0.0331782,10,9.98512e-05,-3.60918,-3.54274,-0.0166538,0.40581,
2,1,0,1,0,1335.24,0.424786,0.42453,0.245502,1,0.0341775,10,0.000104223,-3.60994,-1.17874,-0.0500534,0.424334,
2,1,0,0,0,1338.94,0.443264,0.442935,0.246046,1,0.0351729,10,0.000108983,-3.60898,2.16045,0.0273092,0.442738,
2,1,0,1,0,1342.63,0.461741,0.461461,0.246425,1,0.0361687,10,0.000113715,-3.60832,28.7162,0.00205459,0.461264,
2,1,0,1,0,1346.33,0.480219,0.479926,0.248141,1,0.0371706,10,0.00011909,-3.6053,2.46515,0.0239336,0.479728,
2,1,0,1,0,1350.02,0.498697,0.498428,0.253854,1,0.0381877,10,0.000126528,-3.59542,1.88437,0.0313102,0.498225,
2,1,0,1,0,1353.72,0.517174,0.516926,0.2639,1,0.0392335,10,0.000136417,-3.57856,0.910201,0.0648208,0.516715,
2,1,0,1,0,1357.42,0.535652,0.53536,0.281762,1,0.0403271,10,0.000150844,-3.55012,0.712464,0.0828112,0.535135,
2,1,0,0,0,1361.11,0.55413,0.553919,0.310399,1,0.0415047,10,0.000171936,-3.50808,0.42884,0.137581,0.553671,
2,1,0,0,0,1364.81,0.572608,0.57233,0.357926,1,0.0428197,10,0.000204852,-3.44621,0.285002,0.207016,0.572044,
2,1,0,1,0,1368.5,0.591085,0.590857,0.444227,1,0.0443686,10,0.000262475,-3.35239,0.148477,0.397367,0.590501,
2,1,0,1,0,1372.2,0.609563,0.609311,0.625927,1,0.0463914,10,0.000381384,-3.20348,0.0975367,0.604901,0.60881,
2,1,0,1,0,1375.89,0.628041,0.6278,1.01515,1,0.0494225,10,0.00063731,-2.99347,0.0751767,0.784818,0.626988,
2,1,0,1,0,1379.59,0.646518,0.646305,1.84396,1,0.0546042,10,0.00119176,-2.73425,0.063916,0.923087,0.64483,
2,1,0,0,0,1383.28,0.664996,0.664721,3.55403,1,0.0643134,10,0.00236244,-2.44928,0.0591302,0.997798,0.661878,
2,1,0,0,0,1386.98,0.683474,0.683228,6.7018,1,0.0828548,10,0.00457885,-2.17381,0.0594163,0.992993,0.677866,
2,1,0,1,0,1390.68,0.701951,0.701698,11.4427,1,0.116056,10,0.00802933,-1.94147,0.0701655,0.840869,0.692544,
2,1,0,1,0,1394.37,0.720429,0.720232,17.1718,1,0.168802,10,0.0123677,-1.76518,0.0904426,0.652348,0.706494,
2,1,0,1,0,1398.07,0.738907,0.738658,23.9965,1,0.24455,10,0.0177252,-1.61985,0.0901815,0.654236,0.719461,
2,1,0,1,0,1401.76,0.757384,0.757149,31.8901,1,0.347809,10,0.0241455,-1.49634,0.120551,0.48942,0.731637,
2,1,0,1,0,1405.46,0.775862,0.775624,40.8127,1,0.481659,10,0.0316553,-1.3892,0.136269,0.432968,0.742974,
2,1,0,0,0,1409.15,0.79434,0.794085,48.4542,1,0.647063,10,0.0384767,-1.31467,0.195607,0.301625,0.755321,
2,1,0,1,0,1412.85,0.812817,0.812632,54.7804,1,0.838416,10,0.0445163,-1.26137,0.313879,0.18797,0.768808,
2,1,0,1,0,1416.54,0.831295,0.831072,60.298,1,1.051,10,0.050112,-1.2197,0.383453,0.153865,0.782833,
2,1,0,1,0,1420.23,0.849748,0.849561,63.5174,1,1.28011,10,0.0539619,-1.19711,-0.436986,-0.135016,0.798747,
2,1,0,1,0,1423.84,0.832244,0.831978,57.8298,1,1.49783,10,0.0481132,-1.23785,0.423863,0.139196,0.785715,
2,1,0,1,0,1427.53,0.813766,0.813519,52.039,1,1.70056,10,0.0423347,-1.28367,0.459921,0.128283,0.771888,
2,1,0,1,0,1431.23,0.795288,0.795034,44.9973,1,1.88118,10,0.0357744,-1.34681,0.151283,0.389997,0.759036,
2,1,0,1,0,1434.92,0.776811,0.77658,36.4613,1,2.03197,10,0.0283152,-1.43817,0.108372,0.54442,0.747411,
2,1,0,1,0,1438.62,0.758333,0.758095,27.6593,1,2.15032,10,0.0209684,-1.55816,0.0822802,0.717062,0.735968,
2,1,0,0,0,1442.31,0.739855,0.739587,19.4978,1,2.23695,10,0.0144203,-1.71001,0.072222,0.816925,0.723989,
2,1,0,0,0,1446.01,0.721378,0.72115,12.7235,1,2.29558,10,0.00917557,-1.89539,0.0669181,0.881674,0.710971,
2,1,0,1,0,1449.7,0.7029,0.702653,7.47523,1,2.33226,10,0.0052525,-2.12638,0.060066,0.982253,0.696673,
2,1,0,1,0,1453.4,0.684422,0.684201,3.94284,1,2.35277,10,0.0026977,-2.40419,0.0545962,1.08066,0.681047,
2,1,0,1,0,1457.1,0.665945,0.66567,1.88172,1,2.36306,10,0.0012526,-2.72545,0.051461,1.1465,0.664165,
2,1,0,1,0,1460.79,0.647467,0.647202,0.83343,1,2.36776,10,0.000539398,-3.07913,0.0476853,1.23728,0.646536,
2,1,0,0,0,1464.49,0.62899,0.628779,0.33824,1,2.36972,10,0.000212678,-3.47078,0.043312,1.36221,0.628508,
2,1,0,0,0,1468.18,0.610512,0.610278,0.112045,1,2.37041,10,6.83788e-05,-3.95061,0.0310347,1.9011,0.610188,
2,1,0,1,0,1471.88,0.592034,0.591781,0.00713269,1,2.37052,10,4.22099e-06,-5.14675,0.00199589,29.5607,0.591776,
2,0,0,1,0,1475.57,0.573556,0.573291,-0.0418163,1,2.37036,10,-2.39729e-05,-4.37865,-0.0517023,-1.14115,0.573324,
2,0,0,1,0,1479.27,0.555079,0.554828,-0.064639,1,2.37007,10,-3.58635e-05,-4.18951,-0.251375,-0.234709,0.55488,
2,0,0,1,0,1482.96,0.536601,0.536302,-0.0800832,1,2.36971,10,-4.29488e-05,-4.09646,-0.284464,-0.207408,0.536366,
2,0,0,1,0,1486.66,0.518123,0.517836,-0.0884847,1,2.36931,10,-4.58205e-05,-4.05313,1.81393,0.0325261,0.517906,
2,0,0,0,0,1490.36,0.499646,0.499377,-0.0939922,1,2.36889,10,-4.69376e-05,-4.02691,-1.12255,-0.0525587,0.499453,
2,0,0,1,0,1494.05,0.481168,0.480917,-0.10036,1,2.36844,10,-4.82647e-05,-3.99844,-0.358315,-0.16466,0.480997,
2,0,0,1,0,1497.75,0.46269,0.462392,-0.108626,1,2.36796,10,-5.02277e-05,-3.96407,-0.715558,-0.0824532,0.462479,
2,0,0,1,0,1501.44,0.444213,0.443938,-0.116009,1,2.36746,10,-5.15008e-05,-3.93551,-0.378562,-0.155853,0.444031,
2,0,0,1,0,1505.14,0.425735,0.425468,-0.124839,1,2.36693,10,-5.3115e-05,-3.90365,-0.326654,-0.180619,0.425567,
2,0,0,1,0,1508.83,0.407257,0.407003,-0.134877,1,2.36636,10,-5.48955e-05,-3.87006,-0.295754,-0.19949,0.407111,
2,0,0,0,0,1512.53,0.38878,0.388461,-0.144161,1,2.36576,10,-5.60008e-05,-3.84115,-0.589383,-0.100105,0.388576,
2,0,0,1,0,1516.22,0.370302,0.36999,-0.15685,1,2.36511,10,-5.80329e-05,-3.80452,-0.43346,-0.136114,0.370116,
2,0,0,1,0,1519.92,0.351824,0.351561,-0.169255,1,2.36441,10,-5.95033e-05,-3.77146,-1.33076,-0.0443357,0.351696,
2,0,0,1,0,1523.61,0.333347,0.333038,-0.181582,1,2.36368,10,-6.04737e-05,-3.74093,-1.24617,-0.047345,0.333183,
2,0,0,1,0,1527.31,0.314869,0.314572,-0.19317,1,2.36289,10,-6.0766e-05,-3.71406,-0.396477,-0.148811,0.314726,
2,0,0,1,0,1531.01,0.296391,0.296119,-0.207581,1,2.36206,10,-6.14685e-05,-3.68281,-0.355937,-0.16576,0.296285,
2,0,0,0,0,1534.7,0.277914,0.277637,-0.218862,1,2.36119,10,-6.07642e-05,-3.65983,-0.551673,-0.106947,0.277812,
2,0,0,0,0,1538.4,0.259436,0.259181,-0.230344,1,2.36027,10,-5.97008e-05,-3.63762,-1.10168,-0.0535548,0.259365,
2,0,0,1,0,1542.09,0.240958,0.240709,-0.245168,1,2.3593,10,-5.90141e-05,-3.61054,-0.549122,-0.107444,0.240905,
2,0,0,1,0,1545.79,0.222481,0.222188,-0.263816,1,2.35827,10,-5.86169e-05,-3.5787,-0.607521,-0.097116,0.222399,
2,0,0,1,0,1549.48,0.204003,0.203695,-0.291386,1,2.35716,10,-5.93538e-05,-3.53553,-0.330581,-0.178474,0.203928,
2,0,0,1,0,1553.18,0.185526,0.185228,-0.350299,1,2.35589,10,-6.48853e-05,-3.45556,-0.190227,-0.310156,0.185508,
2,0,0,1,0,1556.87,0.167047,0.166779,-0.499505,1,2.35428,10,-8.33072e-05,-3.30146,-0.0915763,-0.644271,0.167179,
2,0,0,0,0,1560.57,0.14857,0.148293,-0.879524,1,2.3517,10,-0.000130427,-3.05575,-0.0938906,-0.628391,0.148996,
2,0,0,1,0,1564.27,0.130092,0.129793,-1.03003,1,2.34791,10,-0.00013369,-2.98715,0.302986,0.194729,0.130617,
2,0,0,1,0,1567.96,0.111614,0.111351,-0.775642,1,2.34447,10,-8.63685e-05,-3.11034,0.158136,0.373098,0.111972,
2,0,0,1,0,1571.66,0.0931369,0.0928123,-0.646591,1,2.3418,10,-6.00116e-05,-3.18937,0.438247,0.134627,0.0933296,
2,0,0,1,0,1575.35,0.0746596,0.0743668,-0.576761,1,2.33944,10,-4.28919e-05,-3.239,0.288452,0.20454,0.0748282,
2,0,0,1,0,1579.05,0.0561813,0.0558676,-0.511578,1,2.33735,10,-2.85807e-05,-3.29109,0.392286,0.150401,0.0562769,
2,0,0,0,0,1582.74,0.0377039,0.0374114,-0.480486,1,2.33543,10,-1.79756e-05,-3.31832,2.3386,0.0252287,0.0377957,
2,0,0,1,0,1586.44,0.0192267,0.0189131,-0.479445,1,2.33358,10,-9.06778e-06,-3.31926,-0.960545,-0.0614234,0.0192966,
2,0,0,1,0,1590.13,0.00074842,0.000411472,-0.496147,1,2.33169,10,-2.04151e-07,-3.30439, , ,0.00080839,
2,0,0,1,0,1590.23,0.000274105,-6.0487e-05,-0.49599,1,2.33164,10,3.00009e-08,-3.30453, , ,0.000336305,