File: Figure_codes/Fig_3-5/workspace_calculate_alpha_eff/20221101_1-115_003_TrumpetPlot_ParaChange_from10_every3_16_CV_C01_27.csv
mode,ox/red,error,control changes,counter inc.,time/s,control/V,Ewe/V,<I>/mA,cycle number,(Q-Qo)/C,I Range,P/W,log(|I|),Tafel slope mV/dec,alpha_eff,E-IR/V,
2,0,0,1,0,18961.3,2.44065e-05,-0.000497109,-0.059324,28,0.0000000E+000,10,2.94905e-08,-4.22677, , ,-0.000471007,
2,1,0,1,0,18965,0.0187763,0.018416,0.27822,28,0.000940877,10,5.12369e-06,-3.55561,0.18152,0.325033,0.0182936,
2,1,0,0,0,18968.8,0.0377538,0.037422,0.344362,28,0.00218867,10,1.28867e-05,-3.46298,0.226737,0.260213,0.0372704,
2,1,0,1,0,18972.6,0.0567309,0.0563926,0.407473,28,0.00368707,10,2.29785e-05,-3.3899,0.323251,0.182521,0.0562134,
2,1,0,0,0,18976.4,0.075708,0.0754025,0.451848,28,0.00539223,10,3.40705e-05,-3.34501,0.444252,0.132807,0.0752037,
2,1,0,1,0,18980.2,0.0946851,0.0943753,0.509508,28,0.00726637,10,4.8085e-05,-3.29285,0.236293,0.24969,0.0941512,
2,1,0,0,0,18984,0.113662,0.113352,0.612161,28,0.00946426,10,6.93899e-05,-3.21313,0.339918,0.173571,0.113083,
2,1,0,1,0,18987.8,0.132639,0.132309,0.672265,28,0.0119798,10,8.89469e-05,-3.17246,-1.7414,-0.0338808,0.132013,
2,1,0,1,0,18991.6,0.151617,0.151281,0.457527,28,0.0142746,10,6.92153e-05,-3.33958,-0.0798436,-0.738945,0.15108,
2,1,0,1,0,18995.4,0.170594,0.170262,0.336441,28,0.0157807,10,5.72833e-05,-3.47309,-0.268312,-0.219894,0.170114,
2,1,0,1,0,18999.2,0.189571,0.189236,0.308768,28,0.0170547,10,5.843e-05,-3.51037,-0.701014,-0.0841638,0.1891,
2,1,0,1,0,19003,0.208547,0.208225,0.295055,28,0.0182559,10,6.14377e-05,-3.5301,-1.29484,-0.0455654,0.208095,
2,1,0,1,0,19006.8,0.227524,0.2272,0.286939,28,0.0194183,10,6.51924e-05,-3.54221,-1.56851,-0.0376152,0.227073,
2,1,0,1,0,19010.6,0.246501,0.246191,0.280927,28,0.0205563,10,6.91617e-05,-3.55141,-0.648316,-0.0910049,0.246068,
2,1,0,1,0,19014.4,0.265479,0.265219,0.277961,28,0.0216759,10,7.37205e-05,-3.55602,-1.61114,-0.03662,0.265096,
2,1,0,0,0,19018.2,0.284456,0.284149,0.273153,28,0.0227782,10,7.76161e-05,-3.56359,4.28646,0.0137643,0.284029,
2,1,0,1,0,19022,0.303433,0.30312,0.269387,28,0.0238635,10,8.16564e-05,-3.56962,-3.80148,-0.0155203,0.303001,
2,1,0,0,0,19025.8,0.32241,0.322063,0.265595,28,0.0249337,10,8.55384e-05,-3.57578,32.7798,0.00179989,0.321946,
2,1,0,1,0,19029.6,0.341387,0.341064,0.262122,28,0.0259916,10,8.94005e-05,-3.5815,-2.72646,-0.0216397,0.340949,
2,1,0,0,0,19033.4,0.360364,0.360078,0.259734,28,0.0270366,10,9.35246e-05,-3.58547,-1.99747,-0.0295374,0.359964,
2,1,0,1,0,19037.2,0.379342,0.379029,0.256739,28,0.0280716,10,9.73115e-05,-3.59051,-3.25391,-0.018132,0.378916,
2,1,0,1,0,19041,0.398319,0.39802,0.254912,28,0.0290975,10,0.00010146,-3.59361,147.356,0.00040039,0.397907,
2,1,0,1,0,19044.7,0.417295,0.416981,0.253933,28,0.0301163,10,0.000105885,-3.59528,63.7653,0.000925268,0.416869,
2,1,0,1,0,19048.5,0.436272,0.436006,0.254129,28,0.0311298,10,0.000110802,-3.59495,2.14503,0.0275054,0.435895,
2,1,0,1,0,19052.3,0.455249,0.454963,0.253072,28,0.0321416,10,0.000115138,-3.59676,13.0606,0.00451739,0.454852,
2,1,0,1,0,19056.1,0.474226,0.473907,0.254326,28,0.0331541,10,0.000120527,-3.59461,1.63852,0.0360081,0.473795,
2,1,0,1,0,19059.9,0.493203,0.492927,0.257179,28,0.0341724,10,0.00012677,-3.58977,1.29383,0.045601,0.492813,
2,1,0,1,0,19063.7,0.512181,0.51185,0.260712,28,0.0352023,10,0.000133445,-3.58384,4.23027,0.0139471,0.511735,
2,1,0,0,0,19067.5,0.531158,0.530846,0.267278,28,0.0362515,10,0.000141884,-3.57304,1.28205,0.0460201,0.530728,
2,1,0,1,0,19071.3,0.550135,0.549806,0.277511,28,0.0373312,10,0.000152577,-3.55672,1.34933,0.0437255,0.549684,
2,1,0,0,0,19075.1,0.569112,0.568865,0.293127,28,0.0384574,10,0.00016675,-3.53294,0.745648,0.0791258,0.568736,
2,1,0,1,0,19078.9,0.588089,0.587792,0.318953,28,0.0396589,10,0.000187478,-3.49627,0.472838,0.124779,0.587652,
2,1,0,0,0,19082.7,0.607066,0.606749,0.363738,28,0.0409896,10,0.000220697,-3.43921,0.261627,0.225512,0.606589,
2,1,0,1,0,19086.5,0.626044,0.625801,0.454499,28,0.0425696,10,0.000284426,-3.34247,0.164312,0.359072,0.625601,
2,1,0,1,0,19090.3,0.64502,0.644746,0.644629,28,0.0446577,10,0.000415622,-3.19069,0.102154,0.57756,0.644462,
2,1,0,1,0,19094.1,0.663997,0.663735,1.05219,28,0.0478325,10,0.000698375,-2.97791,0.0810068,0.728334,0.663272,
2,1,0,1,0,19097.9,0.682974,0.682675,1.86021,28,0.0532445,10,0.00126992,-2.73044,0.0727791,0.810672,0.681856,
2,1,0,1,0,19101.7,0.701951,0.701646,3.26075,28,0.0628011,10,0.00228789,-2.48668,0.0789333,0.747467,0.700211,
2,1,0,1,0,19105.5,0.720928,0.720646,5.33827,28,0.078952,10,0.003847,-2.2726,0.0913032,0.646198,0.718297,
2,1,0,1,0,19109.3,0.739905,0.739623,8.06767,28,0.104243,10,0.00596703,-2.09325,0.109045,0.541061,0.736073,
2,1,0,1,0,19113.1,0.758883,0.758631,11.4212,28,0.141066,10,0.00866451,-1.94229,0.124125,0.475328,0.753606,
2,1,0,0,0,19116.9,0.77786,0.777598,15.6772,28,0.192163,10,0.0121905,-1.80473,0.126181,0.467581,0.770701,
2,1,0,1,0,19120.7,0.796837,0.79658,21.1468,28,0.261708,10,0.0168451,-1.67476,0.131822,0.447572,0.787275,
2,1,0,0,0,19124.4,0.815814,0.81558,27.6738,28,0.354146,10,0.0225702,-1.55793,0.142241,0.414788,0.803404,
2,1,0,1,0,19128.2,0.834791,0.834557,34.9271,28,0.473064,10,0.0291486,-1.45684,0.180171,0.327467,0.819189,
2,1,0,1,0,19131.9,0.846727,0.846452,38.6898,28,0.614144,10,0.032749,-1.4124,0.135274,0.43615,0.829428,
2,1,0,1,0,19135.7,0.827749,0.827484,30.4245,28,0.744806,10,0.0251758,-1.51678,0.140545,0.419795,0.814097,
2,1,0,1,0,19139.5,0.808772,0.808497,22.196,28,0.843959,10,0.0179454,-1.65373,0.131916,0.447254,0.798731,
2,1,0,1,0,19143.3,0.789795,0.789532,16.4163,28,0.916914,10,0.0129612,-1.78472,0.116843,0.504953,0.782309,
2,1,0,1,0,19147.1,0.770818,0.770576,11.8277,28,0.969993,10,0.00911414,-1.9271,0.108719,0.542681,0.765372,
2,1,0,1,0,19150.9,0.751841,0.751576,8.0303,28,1.00731,10,0.00603538,-2.09527,0.098931,0.596375,0.748043,
2,1,0,1,0,19154.7,0.732865,0.732635,5.17512,28,1.03204,10,0.00379147,-2.28608,0.0872103,0.676526,0.730357,
2,1,0,1,0,19158.5,0.713887,0.713627,3.09898,28,1.04747,10,0.00221152,-2.50878,0.075492,0.78154,0.712264,
2,1,0,0,0,19162.3,0.69491,0.694648,1.68802,28,1.05632,10,0.00117258,-2.77262,0.0637166,0.925975,0.693905,
2,1,0,1,0,19166.1,0.675933,0.675677,0.810252,28,1.06087,10,0.000547469,-3.09138,0.0517451,1.1402,0.675321,
2,1,0,0,0,19169.9,0.656956,0.656674,0.326839,28,1.06288,10,0.000214626,-3.48567,0.0422319,1.39705,0.65653,
2,1,0,1,0,19173.7,0.637979,0.637731,0.0925168,28,1.06357,10,5.90008e-05,-4.03378,0.0269199,2.19169,0.63769,
2,0,0,0,0,19177.5,0.619002,0.618739,-0.0107044,28,1.06365,10,-6.62323e-06,-4.97044,-0.00646388,-9.12764,0.618744,
2,0,0,1,0,19181.3,0.600025,0.599724,-0.0552024,28,1.06347,10,-3.31062e-05,-4.25804,-0.0836563,-0.705267,0.599748,
2,0,0,1,0,19185.1,0.581047,0.580725,-0.0754019,28,1.06317,10,-4.37878e-05,-4.12262,-0.222473,-0.265201,0.580758,
2,0,0,1,0,19188.9,0.56207,0.561813,-0.0876559,28,1.06281,10,-4.92462e-05,-4.05722,-0.480879,-0.122692,0.561852,
2,0,0,1,0,19192.7,0.543093,0.542742,-0.0939466,28,1.06242,10,-5.09887e-05,-4.02712,-1.72205,-0.0342614,0.542783,
2,0,0,1,0,19196.5,0.524116,0.523784,-0.100303,28,1.06201,10,-5.25371e-05,-3.99869,9.92991,0.00594165,0.523828,
2,0,0,1,0,19200.3,0.505139,0.504845,-0.104752,28,1.06158,10,-5.28835e-05,-3.97984,-0.631349,-0.0934506,0.504891,
2,0,0,1,0,19204.1,0.486162,0.485841,-0.109995,28,1.06112,10,-5.344e-05,-3.95863,-0.786065,-0.0750574,0.485889,
2,0,0,1,0,19207.8,0.467185,0.466888,-0.116955,28,1.06064,10,-5.46049e-05,-3.93198,-0.772091,-0.0764159,0.466939,
2,0,0,0,0,19211.6,0.448208,0.447912,-0.123955,28,1.06014,10,-5.55208e-05,-3.90674,-1.59308,-0.0370352,0.447966,
2,0,0,1,0,19215.4,0.429231,0.428912,-0.132381,28,1.0596,10,-5.67798e-05,-3.87817,-1.34281,-0.0439378,0.428971,
2,0,0,0,0,19219.2,0.410254,0.409942,-0.141039,28,1.05903,10,-5.78179e-05,-3.85066,-1.44244,-0.0409028,0.410004,
2,0,0,1,0,19223,0.391277,0.390973,-0.150754,28,1.05843,10,-5.89406e-05,-3.82173,-0.534016,-0.110484,0.391039,
2,0,0,0,0,19226.8,0.3723,0.372008,-0.161525,28,1.05778,10,-6.00887e-05,-3.79176,-0.537256,-0.109817,0.372079,
2,0,0,1,0,19230.6,0.353322,0.353009,-0.171879,28,1.05709,10,-6.06748e-05,-3.76478,-0.446714,-0.132075,0.353085,
2,0,0,1,0,19234.4,0.334345,0.334061,-0.183209,28,1.05636,10,-6.12029e-05,-3.73705,-0.87465,-0.0674556,0.334141,
2,0,0,1,0,19238.2,0.315368,0.315029,-0.195342,28,1.05559,10,-6.15383e-05,-3.70921,-0.860602,-0.0685566,0.315115,
2,0,0,1,0,19242,0.296391,0.29608,-0.207871,28,1.05477,10,-6.15465e-05,-3.68221,-0.774549,-0.0761733,0.296172,
2,0,0,1,0,19245.8,0.277414,0.277111,-0.219934,28,1.0539,10,-6.09462e-05,-3.65771,-0.704216,-0.0837811,0.277208,
2,0,0,1,0,19249.6,0.258437,0.25813,-0.234448,28,1.05298,10,-6.0518e-05,-3.62995,-1.02699,-0.0574496,0.258233,
2,0,0,1,0,19253.4,0.239461,0.239182,-0.245234,28,1.05201,10,-5.86555e-05,-3.61042,-0.812048,-0.0726558,0.239289,
2,0,0,1,0,19257.2,0.220483,0.220164,-0.258278,28,1.05099,10,-5.68636e-05,-3.58791,-0.532425,-0.110814,0.220278,
2,0,0,0,0,19261,0.201506,0.201206,-0.272701,28,1.04993,10,-5.48691e-05,-3.56431,-0.525222,-0.112333,0.201326,
2,0,0,1,0,19264.8,0.182529,0.182215,-0.294363,28,1.0488,10,-5.36374e-05,-3.53112,-0.382009,-0.154447,0.182345,
2,0,0,0,0,19268.6,0.163552,0.163203,-0.337348,28,1.04755,10,-5.50563e-05,-3.47192,-0.227218,-0.259662,0.163352,
2,0,0,1,0,19272.4,0.144575,0.144267,-0.470925,28,1.046,10,-6.79392e-05,-3.32705,-0.0837315,-0.704634,0.144475,
2,0,0,0,0,19276.2,0.125598,0.125252,-0.719354,28,1.04365,10,-9.01007e-05,-3.14306,-0.222861,-0.264738,0.125569,
2,0,0,1,0,19280,0.10662,0.106331,-0.73148,28,1.04077,10,-7.77789e-05,-3.1358,0.784032,0.075252,0.106653,
2,0,0,1,0,19283.8,0.0876433,0.0873054,-0.675153,28,1.03803,10,-5.89445e-05,-3.1706,0.570302,0.103454,0.0876025,
2,0,0,1,0,19287.6,0.0686664,0.0683006,-0.627807,28,1.0355,10,-4.28796e-05,-3.20217,0.847464,0.0696195,0.0685768,
2,0,0,1,0,19291.3,0.0496895,0.0493474,-0.581143,28,1.03313,10,-2.86779e-05,-3.23572,0.585624,0.100747,0.0496031,
2,0,0,1,0,19295.1,0.0307126,0.0303831,-0.532334,28,1.03095,10,-1.6174e-05,-3.27382,0.513848,0.11482,0.0306173,
2,0,0,1,0,19298.9,0.0117356,0.0113852,-0.497644,28,1.02894,10,-5.66578e-06,-3.30308,1.16377,0.0506972,0.0116042,
2,0,0,1,0,19301.2,0.000274105,-8.07672e-05,-0.49707,28,1.02776,10,4.0147e-08,-3.30358, , ,0.000137943,