File: Figure_codes/Fig_3-5/workspace_calculate_alpha_eff/20221101_1-115_003_TrumpetPlot_ParaChange_from10_every3_16_CV_C01_77.csv
mode,ox/red,error,control changes,counter inc.,time/s,control/V,Ewe/V,<I>/mA,cycle number,(Q-Qo)/C,I Range,P/W,log(|I|),Tafel slope mV/dec,alpha_eff,E-IR/V,
2,0,0,0,0,51223.4,2.44065e-05,-0.000306236,-0.108935,78,0.0000000E+000,10,3.33597e-08,-3.96283, , ,-0.000258305,
2,1,0,1,0,51227.1,0.0187763,0.0184149,0.203534,78,0.000663541,10,3.74805e-06,-3.69136,0.142836,0.413062,0.0183253,
2,1,0,1,0,51230.9,0.0377538,0.0374039,0.267766,78,0.00161682,10,1.00155e-05,-3.57225,0.163532,0.360785,0.0372861,
2,1,0,0,0,51234.7,0.0567309,0.0563375,0.329324,78,0.00281412,10,1.85533e-05,-3.48238,0.256416,0.230095,0.0561926,
2,1,0,1,0,51238.5,0.075708,0.075341,0.374863,78,0.00421674,10,2.82426e-05,-3.42613,0.390608,0.151047,0.0751761,
2,1,0,0,0,51242.3,0.094685,0.0943255,0.42859,78,0.00578772,10,4.0427e-05,-3.36796,0.246401,0.239447,0.0941369,
2,1,0,1,0,51246.1,0.113662,0.113362,0.523101,78,0.00765377,10,5.92998e-05,-3.28141,0.331004,0.178245,0.113132,
2,1,0,0,0,51249.9,0.132639,0.132332,0.556876,78,0.00978737,10,7.36922e-05,-3.25424,-0.596577,-0.0988976,0.132086,
2,1,0,1,0,51253.7,0.151617,0.151287,0.363129,78,0.0116574,10,5.49365e-05,-3.43994,-0.0795639,-0.741542,0.151127,
2,1,0,1,0,51257.5,0.170594,0.170276,0.274132,78,0.0128695,10,4.66781e-05,-3.56204,-0.368367,-0.160166,0.170156,
2,1,0,1,0,51261.3,0.189571,0.189177,0.256025,78,0.0139239,10,4.8434e-05,-3.59172,-1.26717,-0.0465605,0.189064,
2,1,0,1,0,51265.1,0.208547,0.208224,0.249805,78,0.0149347,10,5.20154e-05,-3.6024,-1.35659,-0.0434914,0.208114,
2,1,0,1,0,51268.9,0.227524,0.227197,0.243447,78,0.0159194,10,5.53105e-05,-3.6136,-1.80331,-0.0327176,0.22709,
2,1,0,1,0,51272.7,0.246501,0.246154,0.240054,78,0.0168878,10,5.90903e-05,-3.61969,-0.801719,-0.0735919,0.246049,
2,1,0,0,0,51276.5,0.265479,0.265174,0.236674,78,0.0178415,10,6.27597e-05,-3.62585,-1.27522,-0.0462665,0.26507,
2,1,0,1,0,51280.3,0.284456,0.284088,0.231809,78,0.0187793,10,6.58543e-05,-3.63487,-2.45052,-0.0240765,0.283986,
2,1,0,0,0,51284.1,0.303433,0.303098,0.228592,78,0.0197,10,6.92859e-05,-3.64094,-1.92043,-0.0307223,0.302998,
2,1,0,1,0,51287.9,0.32241,0.322068,0.226055,78,0.0206074,10,7.28052e-05,-3.64578,-1.71947,-0.0343128,0.321968,
2,1,0,0,0,51291.7,0.341387,0.341032,0.222721,78,0.0215027,10,7.5955e-05,-3.65224,-5.31366,-0.0111035,0.340934,
2,1,0,1,0,51295.4,0.360364,0.360043,0.221138,78,0.0223867,10,7.96192e-05,-3.65534,-10.8354,-0.00544513,0.359946,
2,1,0,1,0,51299.2,0.379342,0.37904,0.219371,78,0.0232622,10,8.31505e-05,-3.65882,5.11743,0.0115292,0.378943,
2,1,0,1,0,51303,0.398319,0.397959,0.218053,78,0.0241312,10,8.67761e-05,-3.66144,2.53286,0.0232938,0.397863,
2,1,0,1,0,51306.8,0.417295,0.416983,0.216273,78,0.0249941,10,9.01821e-05,-3.665,-4.21698,-0.0139911,0.416888,
2,1,0,1,0,51310.6,0.436272,0.435967,0.215992,78,0.0258518,10,9.41656e-05,-3.66556,2.82022,0.0209204,0.435872,
2,1,0,1,0,51314.4,0.455249,0.454899,0.216135,78,0.0267082,10,9.83195e-05,-3.66528,1.57331,0.0375005,0.454804,
2,1,0,1,0,51318.2,0.474226,0.473891,0.21787,78,0.0275666,10,0.000103246,-3.6618,2.28631,0.0258058,0.473795,
2,1,0,1,0,51322,0.493203,0.492909,0.219808,78,0.0284314,10,0.000108345,-3.65796,1.21808,0.048437,0.492812,
2,1,0,0,0,51325.8,0.512181,0.511841,0.224449,78,0.0293075,10,0.000114882,-3.64888,1.06877,0.0552037,0.511743,
2,1,0,1,0,51329.6,0.531158,0.530882,0.230452,78,0.0302017,10,0.000122343,-3.63742,7.22143,0.00817013,0.530781,
2,1,0,0,0,51333.4,0.550135,0.54979,0.238479,78,0.0311223,10,0.000131113,-3.62255,0.62025,0.095123,0.549685,
2,1,0,1,0,51337.2,0.569112,0.568826,0.251155,78,0.0320804,10,0.000142863,-3.60006,0.824788,0.0715335,0.568715,
2,1,0,0,0,51341,0.588089,0.587776,0.269815,78,0.0330957,10,0.000158591,-3.56893,0.46682,0.126387,0.587657,
2,1,0,1,0,51344.8,0.607066,0.606788,0.302318,78,0.0342049,10,0.000183443,-3.51954,0.31103,0.189692,0.606655,
2,1,0,1,0,51348.6,0.626044,0.625755,0.360167,78,0.0354793,10,0.000225376,-3.4435,0.192499,0.306495,0.625597,
2,1,0,1,0,51352.4,0.64502,0.644719,0.477063,78,0.037073,10,0.000307572,-3.32142,0.126143,0.467723,0.644509,
2,1,0,1,0,51356.2,0.663997,0.663705,0.716776,78,0.0393178,10,0.000475727,-3.14462,0.0940249,0.627493,0.663389,
2,1,0,1,0,51360,0.682974,0.682697,1.18421,78,0.0428696,10,0.000808456,-2.92657,0.0823868,0.716134,0.682176,
2,1,0,1,0,51363.8,0.701951,0.701662,1.98356,78,0.0487948,10,0.00139179,-2.70255,0.0867523,0.680097,0.700789,
2,1,0,1,0,51367.6,0.720928,0.720628,3.17424,78,0.058488,10,0.00228744,-2.49836,0.0956701,0.616703,0.719231,
2,1,0,1,0,51371.4,0.739905,0.739625,4.80303,78,0.0735236,10,0.00355244,-2.31848,0.10923,0.540145,0.737512,
2,1,0,0,0,51375.2,0.758883,0.758596,6.90964,78,0.0956105,10,0.00524163,-2.16054,0.118935,0.496071,0.755556,
2,1,0,1,0,51378.9,0.77786,0.777552,9.64331,78,0.126823,10,0.00749817,-2.01577,0.125072,0.47173,0.773309,
2,1,0,0,0,51382.7,0.796837,0.796565,13.287,78,0.170024,10,0.010584,-1.87657,0.1232,0.478895,0.790719,
2,1,0,1,0,51386.5,0.815814,0.815533,18.2132,78,0.229421,10,0.0148535,-1.73961,0.124066,0.475552,0.807519,
2,1,0,0,0,51390.3,0.834791,0.834485,24.2909,78,0.309845,10,0.0202704,-1.61456,0.140158,0.420952,0.823797,
2,1,0,0,0,51394,0.846726,0.846469,27.8858,78,0.410739,10,0.0236044,-1.55462,0.103005,0.572788,0.834199,
2,1,0,1,0,51397.8,0.827749,0.82747,20.4126,78,0.501561,10,0.0168908,-1.6901,0.122961,0.479826,0.818488,
2,1,0,1,0,51401.6,0.808772,0.808479,14.0057,78,0.565149,10,0.0113233,-1.8537,0.122026,0.483505,0.802317,
2,1,0,1,0,51405.4,0.789795,0.789494,10.0605,78,0.610454,10,0.00794267,-1.99738,0.122341,0.482258,0.785067,
2,1,0,1,0,51409.2,0.770818,0.77051,7.09315,78,0.642733,10,0.00546534,-2.14916,0.112911,0.522536,0.767389,
2,1,0,1,0,51413,0.751841,0.75151,4.86064,78,0.665184,10,0.00365282,-2.31331,0.105524,0.559113,0.749372,
2,1,0,1,0,51416.8,0.732865,0.732552,3.18853,78,0.680276,10,0.00233576,-2.49641,0.0930841,0.633836,0.731149,
2,1,0,0,0,51420.6,0.713887,0.713624,1.94922,78,0.689873,10,0.00139101,-2.71014,0.0799054,0.738373,0.712766,
2,1,0,1,0,51424.4,0.69491,0.694621,1.07025,78,0.695466,10,0.00074342,-2.97051,0.0632608,0.932647,0.69415,
2,1,0,0,0,51428.2,0.675933,0.675615,0.500324,78,0.698326,10,0.000338026,-3.30075,0.0496253,1.18891,0.675395,
2,1,0,1,0,51432,0.656956,0.656668,0.174812,78,0.699512,10,0.000114794,-3.75743,0.0320934,1.83839,0.656591,
2,1,0,0,0,51435.8,0.637979,0.637663,0.0126933,78,0.699799,10,8.09407e-06,-4.89642,0.00364304,16.1953,0.637657,
2,0,0,1,0,51439.6,0.619002,0.618699,-0.058766,78,0.699664,10,-3.63585e-05,-4.23087,-0.0567199,-1.0402,0.618724,
2,0,0,0,0,51443.4,0.600024,0.599734,-0.0906177,78,0.699342,10,-5.43465e-05,-4.04279,-0.2083,-0.283245,0.599774,
2,0,0,1,0,51447.2,0.581047,0.580727,-0.106202,78,0.698934,10,-6.16745e-05,-3.97387,-0.582051,-0.101366,0.580774,
2,0,0,1,0,51451,0.56207,0.56174,-0.113554,78,0.698485,10,-6.3788e-05,-3.9448,-0.939334,-0.0628105,0.56179,
2,0,0,1,0,51454.8,0.543093,0.542794,-0.118615,78,0.698013,10,-6.43836e-05,-3.92586,-0.744797,-0.0792163,0.542846,
2,0,0,1,0,51458.6,0.524116,0.523786,-0.123706,78,0.697521,10,-6.47955e-05,-3.90761,-2.72126,-0.0216811,0.523841,
2,0,0,1,0,51462.3,0.505139,0.504803,-0.129002,78,0.69701,10,-6.51207e-05,-3.8894,-0.790194,-0.0746652,0.50486,
2,0,0,1,0,51466.1,0.486162,0.485794,-0.133953,78,0.696481,10,-6.50735e-05,-3.87305,-0.917612,-0.0642973,0.485853,
2,0,0,1,0,51469.9,0.467185,0.466868,-0.139486,78,0.69593,10,-6.51215e-05,-3.85547,-2.11084,-0.027951,0.466929,
2,0,0,1,0,51473.7,0.448208,0.447881,-0.146132,78,0.695354,10,-6.54498e-05,-3.83525,-1.05004,-0.0561882,0.447945,
2,0,0,0,0,51477.5,0.429231,0.428893,-0.154034,78,0.694749,10,-6.60641e-05,-3.81238,-1.09842,-0.0537133,0.428961,
2,0,0,1,0,51481.3,0.410254,0.409875,-0.162413,78,0.694111,10,-6.65689e-05,-3.78938,-1.66444,-0.0354473,0.409946,
2,0,0,0,0,51485.1,0.391277,0.390951,-0.17183,78,0.693439,10,-6.71769e-05,-3.7649,-1.53214,-0.0385083,0.391026,
2,0,0,1,0,51488.9,0.3723,0.371954,-0.181083,78,0.69273,10,-6.73546e-05,-3.74212,-1.10761,-0.0532677,0.372033,
2,0,0,1,0,51492.7,0.353322,0.352984,-0.191406,78,0.691982,10,-6.75633e-05,-3.71804,-0.596634,-0.0988881,0.353068,
2,0,0,1,0,51496.5,0.334345,0.334027,-0.203206,78,0.691192,10,-6.78761e-05,-3.69206,-1.29178,-0.0456733,0.334116,
2,0,0,1,0,51500.3,0.315368,0.315026,-0.212995,78,0.690361,10,-6.7099e-05,-3.67163,-0.676933,-0.0871578,0.31512,
2,0,0,1,0,51504.1,0.296391,0.296074,-0.225644,78,0.689484,10,-6.68075e-05,-3.64658,-0.534448,-0.110394,0.296173,
2,0,0,1,0,51507.9,0.277414,0.27707,-0.236692,78,0.688563,10,-6.55803e-05,-3.62582,-0.71601,-0.0824011,0.277174,
2,0,0,1,0,51511.7,0.258437,0.258114,-0.24892,78,0.687595,10,-6.42498e-05,-3.60394,-0.901574,-0.0654411,0.258224,
2,0,0,1,0,51515.5,0.239461,0.239088,-0.260463,78,0.686583,10,-6.22737e-05,-3.58425,-0.930786,-0.0633873,0.239203,
2,0,0,0,0,51519.3,0.220483,0.220162,-0.271286,78,0.685528,10,-5.97268e-05,-3.56657,-0.671072,-0.0879191,0.220281,
2,0,0,1,0,51523.1,0.201506,0.201152,-0.284641,78,0.684424,10,-5.72561e-05,-3.5457,-0.601601,-0.0980717,0.201277,
2,0,0,0,0,51526.9,0.182529,0.182232,-0.302653,78,0.683261,10,-5.51532e-05,-3.51905,-0.488731,-0.120721,0.182365,
2,0,0,1,0,51530.7,0.163552,0.163214,-0.334308,78,0.68201,10,-5.45636e-05,-3.47585,-0.320755,-0.183941,0.163361,
2,0,0,0,0,51534.5,0.144575,0.144218,-0.418847,78,0.680563,10,-6.04051e-05,-3.37794,-0.115066,-0.512747,0.144402,
2,0,0,1,0,51538.3,0.125598,0.125261,-0.623724,78,0.678535,10,-7.81281e-05,-3.20501,-0.163284,-0.361333,0.125535,
2,0,0,1,0,51542.1,0.10662,0.106307,-0.682829,78,0.675943,10,-7.25893e-05,-3.16569,4.43827,0.0132935,0.106607,
2,0,0,1,0,51545.8,0.0876433,0.0873266,-0.657781,78,0.673331,10,-5.74418e-05,-3.18192,0.6219,0.0948706,0.0876161,
2,0,0,1,0,51549.6,0.0686664,0.0683114,-0.616953,78,0.670856,10,-4.21449e-05,-3.20975,0.647804,0.0910769,0.0685829,
2,0,0,1,0,51553.4,0.0496895,0.0493602,-0.573256,78,0.668534,10,-2.8296e-05,-3.24165,0.535663,0.110144,0.0496124,
2,0,0,1,0,51557.2,0.0307126,0.0303587,-0.526238,78,0.666388,10,-1.59759e-05,-3.27882,0.585531,0.100763,0.0305903,
2,0,0,1,0,51561,0.0117356,0.0113883,-0.49746,78,0.664397,10,-5.6652e-06,-3.30324,1.56684,0.0376553,0.0116071,
2,0,0,0,0,51563.3,0.000274105,-0.000145187,-0.500434,78,0.663223,10,7.26564e-08,-3.30065, , ,7.50039e-05,