File: Figure_codes/Fig_3-5/workspace_calculate_alpha_eff/20221101_1-115_003_TrumpetPlot_ParaChange_from10_every3_16_CV_C01_104.csv
mode,ox/red,error,control changes,counter inc.,time/s,control/V,Ewe/V,<I>/mA,cycle number,(Q-Qo)/C,I Range,P/W,log(|I|),Tafel slope mV/dec,alpha_eff,E-IR/V,
2,0,0,0,0,68954.6,2.44065e-05,-0.000306236,-0.10003,105,0.0000000E+000,10,3.06328e-08,-3.99987, , ,-0.000262223,
2,1,0,1,0,68958.3,0.0187763,0.0184306,0.199363,105,0.000639885,10,3.67438e-06,-3.70036,0.147939,0.398813,0.0183429,
2,1,0,1,0,68962.1,0.0377538,0.0374315,0.260307,105,0.00156235,10,9.74368e-06,-3.58451,0.128497,0.459155,0.037317,
2,1,0,0,0,68965.9,0.0567309,0.0563926,0.321019,105,0.00272143,10,1.81031e-05,-3.49347,0.284731,0.207213,0.0562514,
2,1,0,1,0,68969.7,0.075708,0.0753835,0.364712,105,0.00407881,10,2.74932e-05,-3.43805,0.393215,0.150045,0.075223,
2,1,0,0,0,68973.5,0.094685,0.0943828,0.415812,105,0.0055974,10,3.92455e-05,-3.3811,0.263451,0.223951,0.0941998,
2,1,0,1,0,68977.3,0.113662,0.113354,0.505081,105,0.0073903,10,5.72532e-05,-3.29664,0.315642,0.18692,0.113132,
2,1,0,0,0,68981.1,0.132639,0.132309,0.535467,105,0.0094392,10,7.08472e-05,-3.27127,-0.569963,-0.103515,0.132074,
2,1,0,1,0,68984.9,0.151617,0.15132,0.354088,105,0.0112308,10,5.35807e-05,-3.45089,-0.0846194,-0.697239,0.151165,
2,1,0,1,0,68988.7,0.170594,0.170292,0.272357,105,0.012415,10,4.63802e-05,-3.56486,-0.341631,-0.172701,0.170172,
2,1,0,1,0,68992.5,0.189571,0.189246,0.257084,105,0.0134544,10,4.8652e-05,-3.58993,-1.11657,-0.0528404,0.189133,
2,1,0,1,0,68996.3,0.208547,0.208272,0.249875,105,0.0144562,10,5.2042e-05,-3.60228,-1.17647,-0.0501499,0.208163,
2,1,0,1,0,69000.1,0.227524,0.227231,0.245732,105,0.015438,10,5.5838e-05,-3.60954,-1.51391,-0.0389718,0.227123,
2,1,0,1,0,69003.8,0.246501,0.246184,0.24244,105,0.0164044,10,5.96848e-05,-3.6154,-1.26916,-0.0464874,0.246077,
2,1,0,0,0,69007.6,0.265479,0.265163,0.238869,105,0.0173574,10,6.33393e-05,-3.62184,-3.28474,-0.0179619,0.265058,
2,1,0,1,0,69011.4,0.284456,0.284118,0.234745,105,0.0182951,10,6.66953e-05,-3.6294,-2.75746,-0.0213965,0.284015,
2,1,0,0,0,69015.2,0.303433,0.303186,0.230964,105,0.0192175,10,7.00252e-05,-3.63646,-17.2671,-0.00341691,0.303085,
2,1,0,1,0,69019,0.32241,0.322062,0.228324,105,0.0201252,10,7.35345e-05,-3.64145,-21.1507,-0.00278951,0.321961,
2,1,0,0,0,69022.8,0.341387,0.341085,0.225474,105,0.0210209,10,7.69058e-05,-3.6469,-40.694,-0.00144985,0.340986,
2,1,0,1,0,69026.6,0.360364,0.360076,0.224094,105,0.0219059,10,8.0691e-05,-3.64957,37.0703,0.00159157,0.359977,
2,1,0,1,0,69030.4,0.379342,0.379076,0.221978,105,0.0227834,10,8.41465e-05,-3.65369,-4.75077,-0.012419,0.378978,
2,1,0,1,0,69034.2,0.398319,0.398034,0.220042,105,0.0236544,10,8.7584e-05,-3.65749,16.0128,0.00368455,0.397937,
2,1,0,1,0,69038,0.417295,0.417003,0.219305,105,0.0245199,10,9.14507e-05,-3.65895,-6.44846,-0.00914948,0.416907,
2,1,0,1,0,69041.8,0.436272,0.436,0.219798,105,0.0253831,10,9.5832e-05,-3.65798,2.09178,0.0282057,0.435904,
2,1,0,1,0,69045.6,0.455249,0.454957,0.219699,105,0.026245,10,9.99535e-05,-3.65817,1.73538,0.0339984,0.45486,
2,1,0,1,0,69049.4,0.474226,0.473941,0.219953,105,0.0271078,10,0.000104245,-3.65767,2.62803,0.0224503,0.473844,
2,1,0,1,0,69053.2,0.493203,0.492927,0.223022,105,0.0279769,10,0.000109934,-3.65165,1.91716,0.0307746,0.492829,
2,1,0,0,0,69057,0.512181,0.511841,0.227124,105,0.0288569,10,0.000116252,-3.64374,1.10541,0.0533741,0.511741,
2,1,0,1,0,69060.8,0.531158,0.530905,0.232956,105,0.029755,10,0.000123678,-3.63273,0.822971,0.0716915,0.530803,
2,1,0,0,0,69064.6,0.550135,0.549838,0.241116,105,0.0306769,10,0.000132575,-3.61777,1.14156,0.0516836,0.549732,
2,1,0,1,0,69068.4,0.569112,0.568832,0.252324,105,0.0316348,10,0.00014353,-3.59804,0.610436,0.0966522,0.568721,
2,1,0,0,0,69072.2,0.588089,0.587807,0.270754,105,0.0326496,10,0.000159151,-3.56742,0.534067,0.110473,0.587688,
2,1,0,1,0,69076,0.607066,0.606768,0.300585,105,0.0337544,10,0.000182385,-3.52203,0.332305,0.177548,0.606636,
2,1,0,1,0,69079.8,0.626043,0.625715,0.354917,105,0.035013,10,0.000222077,-3.44987,0.20972,0.281327,0.625559,
2,1,0,1,0,69083.6,0.64502,0.644733,0.463185,105,0.036567,10,0.00029863,-3.33425,0.136831,0.431187,0.644529,
2,1,0,1,0,69087.3,0.663997,0.663731,0.679913,105,0.0387133,10,0.000451279,-3.16755,0.0996469,0.592091,0.663432,
2,1,0,1,0,69091.1,0.682974,0.682678,1.0928,105,0.0420262,10,0.000746032,-2.96146,0.0864243,0.682679,0.682197,
2,1,0,1,0,69094.9,0.701951,0.701692,1.78517,105,0.0474143,10,0.00125264,-2.74832,0.0887635,0.664687,0.700907,
2,1,0,1,0,69098.7,0.720928,0.720642,2.80051,105,0.0560367,10,0.00201816,-2.55276,0.100065,0.589619,0.719409,
2,1,0,1,0,69102.5,0.739905,0.739578,4.15564,105,0.0691467,10,0.00307342,-2.38136,0.111916,0.527181,0.73775,
2,1,0,0,0,69106.3,0.758883,0.758608,5.90223,105,0.0881198,10,0.00447748,-2.22898,0.126266,0.467267,0.756011,
2,1,0,1,0,69110.1,0.77786,0.777608,8.1443,105,0.114622,10,0.00633307,-2.08915,0.129479,0.455674,0.774024,
2,1,0,0,0,69113.9,0.796837,0.796558,11.0775,105,0.150874,10,0.00882384,-1.95556,0.132861,0.444074,0.791684,
2,1,0,1,0,69117.7,0.815814,0.815525,14.9573,105,0.199971,10,0.012198,-1.82515,0.130346,0.452643,0.808944,
2,1,0,0,0,69121.5,0.834791,0.834541,19.8586,105,0.26578,10,0.0165728,-1.70205,0.150493,0.392044,0.825803,
2,1,0,0,0,69125.2,0.846726,0.84651,22.786,105,0.348147,10,0.0192886,-1.64233,0.106003,0.556588,0.836484,
2,1,0,1,0,69129,0.827749,0.827513,16.7516,105,0.422515,10,0.0138622,-1.77594,0.123327,0.478401,0.820143,
2,1,0,1,0,69132.8,0.808772,0.808529,12.2207,105,0.477069,10,0.00988079,-1.9129,0.121139,0.487043,0.803152,
2,1,0,1,0,69136.6,0.789795,0.789535,8.78726,105,0.516588,10,0.00693785,-2.05615,0.120029,0.49155,0.785669,
2,1,0,1,0,69140.4,0.770818,0.770549,6.21536,105,0.544802,10,0.00478924,-2.20653,0.116204,0.507729,0.767814,
2,1,0,1,0,69144.2,0.751841,0.751568,4.28757,105,0.564546,10,0.0032224,-2.36779,0.106432,0.554345,0.749681,
2,1,0,1,0,69148,0.732865,0.732552,2.83707,105,0.577907,10,0.0020783,-2.54713,0.095786,0.615956,0.731303,
2,1,0,0,0,69151.8,0.713887,0.713608,1.75926,105,0.586505,10,0.00125542,-2.75467,0.0803708,0.734097,0.712834,
2,1,0,1,0,69155.6,0.69491,0.694604,0.980595,105,0.591593,10,0.000681125,-3.00851,0.0661999,0.89124,0.694172,
2,1,0,0,0,69159.4,0.675933,0.675701,0.463465,105,0.594231,10,0.000313163,-3.33398,0.0493355,1.19589,0.675497,
2,1,0,1,0,69163.2,0.656956,0.65667,0.162081,105,0.595334,10,0.000106434,-3.79027,0.0322869,1.82737,0.656598,
2,1,0,0,0,69167,0.637979,0.637668,0.00829411,105,0.595594,10,5.28889e-06,-5.08123,0.0047715,12.3651,0.637665,
2,0,0,1,0,69170.7,0.619002,0.618705,-0.0591194,105,0.595454,10,-3.65775e-05,-4.22827,-0.0566356,-1.04175,0.618731,
2,0,0,0,0,69174.5,0.600025,0.599782,-0.0916324,105,0.595134,10,-5.49595e-05,-4.03795,-0.220661,-0.267379,0.599822,
2,0,0,1,0,69178.3,0.581047,0.58075,-0.106051,105,0.594731,10,-6.15888e-05,-3.97449,-0.478452,-0.123314,0.580796,
2,0,0,1,0,69182.1,0.56207,0.561759,-0.115084,105,0.594285,10,-6.46496e-05,-3.93898,-0.806581,-0.0731482,0.561809,
2,0,0,1,0,69185.9,0.543093,0.542745,-0.119598,105,0.593814,10,-6.49112e-05,-3.92228,-1.13923,-0.0517895,0.542797,
2,0,0,1,0,69189.7,0.524116,0.523793,-0.12476,105,0.593325,10,-6.53484e-05,-3.90393,6.43996,0.00916154,0.523848,
2,0,0,1,0,69193.5,0.505139,0.504835,-0.127883,105,0.592818,10,-6.45595e-05,-3.89319,-0.471461,-0.125143,0.504891,
2,0,0,1,0,69197.3,0.486162,0.485867,-0.133688,105,0.592291,10,-6.49544e-05,-3.87391,-1.08114,-0.0545719,0.485926,
2,0,0,1,0,69201.1,0.467185,0.466865,-0.139053,105,0.591744,10,-6.49187e-05,-3.85682,-1.7595,-0.0335322,0.466926,
2,0,0,1,0,69204.9,0.448208,0.447895,-0.146845,105,0.591172,10,-6.57709e-05,-3.83314,-2.85955,-0.0206326,0.447959,
2,0,0,0,0,69208.7,0.429231,0.428929,-0.154406,105,0.59057,10,-6.62294e-05,-3.81133,-2.31271,-0.0255112,0.428997,
2,0,0,1,0,69212.5,0.410254,0.409932,-0.163405,105,0.589936,10,-6.6985e-05,-3.78673,-1.03765,-0.0568595,0.410004,
2,0,0,0,0,69216.3,0.391277,0.390931,-0.173082,105,0.589266,10,-6.76632e-05,-3.76175,-0.722938,-0.0816114,0.391007,
2,0,0,1,0,69220.1,0.3723,0.371954,-0.182996,105,0.588558,10,-6.80661e-05,-3.73756,-0.678571,-0.0869474,0.372034,
2,0,0,1,0,69223.9,0.353322,0.353009,-0.192396,105,0.587811,10,-6.79174e-05,-3.7158,-0.900718,-0.0655033,0.353094,
2,0,0,1,0,69227.7,0.334345,0.334013,-0.203866,105,0.587023,10,-6.80939e-05,-3.69066,-0.90664,-0.0650754,0.334103,
2,0,0,1,0,69231.5,0.315368,0.315096,-0.215178,105,0.586191,10,-6.78018e-05,-3.6672,-1.27196,-0.046385,0.31519,
2,0,0,1,0,69235.3,0.296391,0.296079,-0.227668,105,0.585316,10,-6.74078e-05,-3.6427,-0.652346,-0.0904428,0.29618,
2,0,0,1,0,69239.1,0.277414,0.277085,-0.237955,105,0.584394,10,-6.59337e-05,-3.6235,-0.799464,-0.0737995,0.277189,
2,0,0,1,0,69242.9,0.258437,0.258171,-0.249869,105,0.583428,10,-6.4509e-05,-3.60229,-1.21816,-0.0484336,0.258281,
2,0,0,1,0,69246.7,0.239461,0.239123,-0.260731,105,0.582417,10,-6.23469e-05,-3.58381,-0.851863,-0.0692599,0.239238,
2,0,0,0,0,69250.5,0.220483,0.220163,-0.27258,105,0.581363,10,-6.0012e-05,-3.56451,-0.832781,-0.070847,0.220283,
2,0,0,1,0,69254.2,0.201506,0.201179,-0.285089,105,0.580263,10,-5.7354e-05,-3.54502,-0.649269,-0.0908714,0.201305,
2,0,0,0,0,69258,0.182529,0.182196,-0.302169,105,0.579107,10,-5.5054e-05,-3.51975,-0.485848,-0.121437,0.182329,
2,0,0,1,0,69261.8,0.163552,0.163217,-0.330788,105,0.57787,10,-5.39901e-05,-3.48045,-0.371903,-0.158643,0.163362,
2,0,0,0,0,69265.6,0.144575,0.144258,-0.405091,105,0.576458,10,-5.84376e-05,-3.39245,-0.131975,-0.447055,0.144436,
2,0,0,1,0,69269.4,0.125598,0.12529,-0.58751,105,0.574543,10,-7.36094e-05,-3.23098,-0.147031,-0.401275,0.125549,
2,0,0,1,0,69273.2,0.10662,0.106266,-0.660059,105,0.572072,10,-7.01421e-05,-3.18042,-2.80941,-0.0210008,0.106557,
2,0,0,1,0,69277,0.0876433,0.0873498,-0.648393,105,0.56953,10,-5.6637e-05,-3.18816,0.853438,0.0691321,0.0876351,
2,0,0,1,0,69280.8,0.0686664,0.0683582,-0.612549,105,0.567088,10,-4.18727e-05,-3.21286,0.773905,0.0762368,0.0686277,
2,0,0,1,0,69284.6,0.0496895,0.0493822,-0.570556,105,0.564788,10,-2.81753e-05,-3.2437,0.528893,0.111554,0.0496332,
2,0,0,1,0,69288.4,0.0307126,0.0304065,-0.527342,105,0.562655,10,-1.60346e-05,-3.27791,0.529914,0.111339,0.0306386,
2,0,0,1,0,69292.2,0.0117356,0.0114477,-0.498794,105,0.560668,10,-5.71004e-06,-3.30208,1.5504,0.0380547,0.0116672,
2,0,0,0,0,69294.5,0.000274105,-0.000128486,-0.500639,105,0.559496,10,6.43249e-08,-3.30048, , ,9.17957e-05,