File: Figure_codes/Fig_3-5/workspace_calculate_alpha_eff/20221101_1-115_003_TrumpetPlot_ParaChange_from10_every3_16_CV_C01_55.csv
mode,ox/red,error,control changes,counter inc.,time/s,control/V,Ewe/V,<I>/mA,cycle number,(Q-Qo)/C,I Range,P/W,log(|I|),Tafel slope mV/dec,alpha_eff,E-IR/V,
2,0,0,0,0,37062.5,2.44065e-05,-0.000268062,-0.0860374,56,0.0000000E+000,10,2.30633e-08,-4.06531, , ,-0.000230205,
2,1,0,1,0,37066.2,0.0187763,0.0184637,0.219624,56,0.000711824,10,4.05506e-06,-3.65832,0.147159,0.400927,0.018367,
2,1,0,1,0,37070,0.0377538,0.0373944,0.284252,56,0.00172481,10,1.06294e-05,-3.5463,0.172925,0.341189,0.0372693,
2,1,0,0,0,37073.8,0.0567309,0.0564001,0.345086,56,0.00298516,10,1.94629e-05,-3.46207,0.275662,0.21403,0.0562482,
2,1,0,1,0,37077.6,0.075708,0.0754036,0.392818,56,0.00445339,10,2.96199e-05,-3.40581,0.456459,0.129256,0.0752308,
2,1,0,0,0,37081.4,0.094685,0.094405,0.44735,56,0.00609091,10,4.22321e-05,-3.34935,0.265172,0.222497,0.0942082,
2,1,0,1,0,37085.2,0.113662,0.11335,0.544762,56,0.00803051,10,6.17489e-05,-3.26379,0.310537,0.189994,0.113111,
2,1,0,0,0,37089,0.132639,0.132338,0.58965,56,0.0102593,10,7.80331e-05,-3.22941,-0.773808,-0.0762463,0.132078,
2,1,0,1,0,37092.8,0.151617,0.151295,0.390888,56,0.0122526,10,5.91395e-05,-3.40795,-0.077525,-0.761045,0.151123,
2,1,0,1,0,37096.6,0.170594,0.170239,0.291437,56,0.0135453,10,4.9614e-05,-3.53546,-0.338942,-0.174071,0.170111,
2,1,0,1,0,37100.4,0.189571,0.189256,0.270459,56,0.0146565,10,5.11861e-05,-3.5679,-0.708896,-0.083228,0.189137,
2,1,0,1,0,37104.2,0.208547,0.208258,0.260779,56,0.0157134,10,5.43091e-05,-3.58373,-1.57453,-0.0374715,0.208143,
2,1,0,1,0,37108,0.227524,0.227222,0.25369,56,0.0167394,10,5.76438e-05,-3.5957,-1.46827,-0.0401834,0.22711,
2,1,0,1,0,37111.8,0.246501,0.246191,0.248089,56,0.0177439,10,6.10774e-05,-3.60539,-0.974265,-0.0605584,0.246082,
2,1,0,0,0,37115.6,0.265479,0.265174,0.245075,56,0.0187298,10,6.49874e-05,-3.6107,-1.20136,-0.0491111,0.265066,
2,1,0,1,0,37119.4,0.284456,0.28415,0.241085,56,0.0196977,10,6.85042e-05,-3.61783,-1.02795,-0.0573961,0.284044,
2,1,0,0,0,37123.1,0.303433,0.303146,0.236088,56,0.0206483,10,7.15691e-05,-3.62693,-2.28579,-0.0258117,0.303042,
2,1,0,1,0,37126.9,0.32241,0.322076,0.232625,56,0.0215841,10,7.4923e-05,-3.63334,10.4496,0.00564612,0.321974,
2,1,0,0,0,37130.7,0.341387,0.341081,0.229546,56,0.0225074,10,7.82939e-05,-3.63913,-1.74911,-0.0337314,0.34098,
2,1,0,1,0,37134.5,0.360364,0.360131,0.228691,56,0.0234202,10,8.23587e-05,-3.64075,4.03527,0.0146211,0.360031,
2,1,0,1,0,37138.3,0.379342,0.379004,0.226631,56,0.0243237,10,8.58941e-05,-3.64468,2.63117,0.0224235,0.378904,
2,1,0,1,0,37142.1,0.398319,0.397993,0.223937,56,0.0252204,10,8.91256e-05,-3.64987,-5.19343,-0.0113605,0.397895,
2,1,0,1,0,37145.9,0.417295,0.417001,0.223188,56,0.0261111,10,9.30695e-05,-3.65133,-4.87936,-0.0120917,0.416903,
2,1,0,1,0,37149.7,0.436272,0.435999,0.223199,56,0.0269965,10,9.73146e-05,-3.65131,1.71702,0.0343619,0.435901,
2,1,0,1,0,37153.5,0.455249,0.454957,0.222557,56,0.0278809,10,0.000101254,-3.65256,1.52093,0.0387921,0.454859,
2,1,0,1,0,37157.3,0.474226,0.473951,0.224548,56,0.0287681,10,0.000106425,-3.64869,2.78577,0.021179,0.473852,
2,1,0,1,0,37161.1,0.493203,0.492916,0.227176,56,0.0296622,10,0.000111979,-3.64364,1.99939,0.029509,0.492816,
2,1,0,0,0,37164.9,0.512181,0.511864,0.231139,56,0.030568,10,0.000118312,-3.63613,2.63586,0.0223836,0.511762,
2,1,0,1,0,37168.7,0.531158,0.530826,0.237573,56,0.0314925,10,0.00012611,-3.6242,1.28835,0.0457951,0.530721,
2,1,0,0,0,37172.5,0.550135,0.549859,0.246083,56,0.0324436,10,0.000135311,-3.60892,0.894581,0.0659527,0.549751,
2,1,0,1,0,37176.3,0.569112,0.568805,0.259248,56,0.0334351,10,0.000147462,-3.58628,0.603734,0.0977251,0.568691,
2,1,0,0,0,37180.1,0.588089,0.587779,0.280532,56,0.0344907,10,0.000164891,-3.55202,0.438794,0.13446,0.587656,
2,1,0,1,0,37183.9,0.607066,0.606739,0.31578,56,0.0356513,10,0.000191596,-3.50062,0.313999,0.187899,0.6066,
2,1,0,1,0,37187.7,0.626044,0.625747,0.383641,56,0.0369991,10,0.000240062,-3.41608,0.174569,0.337975,0.625578,
2,1,0,1,0,37191.5,0.64502,0.644713,0.522168,56,0.0387213,10,0.000336648,-3.28219,0.116883,0.504777,0.644483,
2,1,0,1,0,37195.3,0.663997,0.66368,0.808864,56,0.0412163,10,0.000536827,-3.09212,0.0892268,0.661236,0.663324,
2,1,0,1,0,37199.1,0.682974,0.682715,1.37038,56,0.0452796,10,0.000935582,-2.86316,0.0798292,0.739078,0.682112,
2,1,0,1,0,37202.9,0.701951,0.701676,2.33358,56,0.0522026,10,0.00163742,-2.63198,0.0833588,0.707784,0.70065,
2,1,0,1,0,37206.6,0.720928,0.72065,3.76028,56,0.0636524,10,0.00270985,-2.42478,0.0962956,0.612697,0.718995,
2,1,0,1,0,37210.4,0.739905,0.739623,5.66651,56,0.0814218,10,0.00419108,-2.24668,0.108795,0.542302,0.737129,
2,1,0,0,0,37214.2,0.758883,0.758625,8.09162,56,0.107386,10,0.0061385,-2.09196,0.12144,0.485838,0.755064,
2,1,0,1,0,37218,0.77786,0.777584,11.1748,56,0.143731,10,0.00868938,-1.95176,0.127199,0.46384,0.772667,
2,1,0,0,0,37221.8,0.796837,0.796533,15.2852,56,0.19359,10,0.0121751,-1.81573,0.123061,0.479436,0.789808,
2,1,0,1,0,37225.6,0.815814,0.815505,20.6533,56,0.26146,10,0.0168429,-1.68501,0.147846,0.399063,0.806417,
2,1,0,0,0,37229.4,0.834791,0.834545,26.7927,56,0.351119,10,0.0223597,-1.57198,0.150033,0.393247,0.822757,
2,1,0,0,0,37233.1,0.846726,0.846464,30.3979,56,0.461265,10,0.0257307,-1.51716,0.119473,0.493836,0.833089,
2,1,0,1,0,37236.9,0.827749,0.827561,23.2021,56,0.561924,10,0.0192012,-1.63447,0.164355,0.358979,0.817352,
2,1,0,1,0,37240.7,0.808772,0.808529,17.0576,56,0.637885,10,0.0137915,-1.76808,0.120107,0.491227,0.801024,
2,1,0,1,0,37244.5,0.789795,0.789497,12.2366,56,0.693035,10,0.00966077,-1.91234,0.114571,0.514965,0.784113,
2,1,0,1,0,37248.3,0.770818,0.770538,8.56604,56,0.732148,10,0.00660047,-2.06722,0.1107,0.532971,0.766769,
2,1,0,1,0,37252.1,0.751841,0.751611,5.83266,56,0.75919,10,0.00438389,-2.23413,0.10204,0.578202,0.749045,
2,1,0,1,0,37255.9,0.732865,0.732644,3.79533,56,0.777231,10,0.00278062,-2.42075,0.0909003,0.649063,0.730974,
2,1,0,0,0,37259.7,0.713887,0.713591,2.29223,56,0.788571,10,0.00163571,-2.63974,0.0769928,0.766306,0.712583,
2,1,0,1,0,37263.5,0.69491,0.694621,1.25153,56,0.795128,10,0.000869336,-2.90256,0.0641322,0.919974,0.69407,
2,1,0,0,0,37267.3,0.675933,0.675669,0.587804,56,0.798479,10,0.000397161,-3.23077,0.050956,1.15786,0.67541,
2,1,0,1,0,37271.1,0.656956,0.656675,0.222768,56,0.799915,10,0.000146286,-3.65215,0.036399,1.62093,0.656577,
2,1,0,0,0,37274.9,0.637979,0.637715,0.0358673,56,0.800325,10,2.28731e-05,-4.4453,0.0121547,4.8541,0.637699,
2,0,0,1,0,37278.7,0.619002,0.618723,-0.0453299,56,0.800249,10,-2.80466e-05,-4.34362,-0.0382113,-1.54405,0.618743,
2,0,0,0,0,37282.5,0.600024,0.599709,-0.0815103,56,0.799961,10,-4.88825e-05,-4.08879,-0.145165,-0.406435,0.599745,
2,0,0,1,0,37286.3,0.581047,0.580741,-0.0995213,56,0.799577,10,-5.77961e-05,-4.00208,-0.509234,-0.11586,0.580785,
2,0,0,1,0,37290,0.56207,0.561789,-0.108476,56,0.799144,10,-6.09406e-05,-3.96467,-0.554088,-0.106481,0.561836,
2,0,0,1,0,37293.8,0.543093,0.542785,-0.113894,56,0.798684,10,-6.18202e-05,-3.9435,-5.11363,-0.0115378,0.542835,
2,0,0,1,0,37297.6,0.524116,0.523803,-0.118939,56,0.798207,10,-6.23006e-05,-3.92468,-5.51249,-0.010703,0.523855,
2,0,0,1,0,37301.4,0.505139,0.504849,-0.123176,56,0.797711,10,-6.21853e-05,-3.90947,-1.11919,-0.0527166,0.504904,
2,0,0,1,0,37305.2,0.486162,0.485889,-0.128945,56,0.797194,10,-6.26528e-05,-3.8896,-3.16454,-0.0186441,0.485946,
2,0,0,1,0,37309,0.467185,0.466858,-0.134632,56,0.796657,10,-6.28543e-05,-3.87085,-1.20541,-0.048946,0.466918,
2,0,0,1,0,37312.8,0.448208,0.447924,-0.140808,56,0.796094,10,-6.30714e-05,-3.85137,-0.972115,-0.0606924,0.447986,
2,0,0,0,0,37316.6,0.429231,0.428937,-0.148703,56,0.795503,10,-6.3784e-05,-3.82768,2.67096,0.0220895,0.429002,
2,0,0,1,0,37320.4,0.410254,0.409955,-0.157927,56,0.794878,10,-6.47429e-05,-3.80154,-1.46916,-0.0401589,0.410025,
2,0,0,0,0,37324.2,0.391277,0.390956,-0.167338,56,0.794218,10,-6.54216e-05,-3.77641,-0.66686,-0.0884743,0.39103,
2,0,0,1,0,37328,0.3723,0.371991,-0.177303,56,0.79352,10,-6.59553e-05,-3.75128,-0.533161,-0.110661,0.372069,
2,0,0,1,0,37331.8,0.353322,0.352997,-0.187571,56,0.792782,10,-6.62122e-05,-3.72683,-0.835605,-0.0706076,0.35308,
2,0,0,1,0,37335.6,0.334345,0.334065,-0.198236,56,0.792002,10,-6.62238e-05,-3.70282,-0.667574,-0.0883797,0.334152,
2,0,0,1,0,37339.4,0.315368,0.315084,-0.209202,56,0.791178,10,-6.59162e-05,-3.67943,-0.590096,-0.0999838,0.315176,
2,0,0,1,0,37343.2,0.296391,0.296095,-0.221305,56,0.790311,10,-6.55273e-05,-3.65501,-0.642143,-0.0918799,0.296193,
2,0,0,1,0,37347,0.277414,0.277123,-0.233712,56,0.789397,10,-6.4767e-05,-3.63132,-0.78867,-0.0748094,0.277226,
2,0,0,1,0,37350.8,0.258437,0.258117,-0.245823,56,0.788437,10,-6.34511e-05,-3.60938,-0.861771,-0.0684637,0.258225,
2,0,0,1,0,37354.6,0.239461,0.239163,-0.257223,56,0.787431,10,-6.15181e-05,-3.58969,-0.820208,-0.071933,0.239276,
2,0,0,0,0,37358.4,0.220483,0.220216,-0.269125,56,0.78638,10,-5.92655e-05,-3.57005,-0.645782,-0.0913621,0.220334,
2,0,0,1,0,37362.2,0.201506,0.201188,-0.282685,56,0.785282,10,-5.68727e-05,-3.5487,-0.639292,-0.0922896,0.201312,
2,0,0,0,0,37366,0.182529,0.182208,-0.302223,56,0.784122,10,-5.50674e-05,-3.51967,-0.456286,-0.129305,0.182341,
2,0,0,1,0,37369.8,0.163552,0.163253,-0.336261,56,0.782864,10,-5.48957e-05,-3.47332,-0.31067,-0.189912,0.163401,
2,0,0,0,0,37373.5,0.144575,0.144253,-0.435867,56,0.781383,10,-6.28749e-05,-3.36065,-0.103169,-0.571875,0.144444,
2,0,0,1,0,37377.3,0.125598,0.125317,-0.656287,56,0.779245,10,-8.22439e-05,-3.18291,-0.179144,-0.329344,0.125606,
2,0,0,1,0,37381.1,0.10662,0.106332,-0.703287,56,0.776544,10,-7.4782e-05,-3.15287,2.74927,0.0214602,0.106642,
2,0,0,1,0,37384.9,0.0876433,0.0873394,-0.666559,56,0.773874,10,-5.82169e-05,-3.17616,0.706537,0.0835059,0.0876327,
2,0,0,1,0,37388.7,0.0686664,0.0683657,-0.623464,56,0.771367,10,-4.26235e-05,-3.20519,0.684879,0.0861467,0.06864,
2,0,0,1,0,37392.5,0.0496895,0.0493317,-0.58041,56,0.769018,10,-2.86326e-05,-3.23627,0.58335,0.10114,0.0495871,
2,0,0,1,0,37396.3,0.0307126,0.030361,-0.532194,56,0.766844,10,-1.6158e-05,-3.27393,0.560175,0.105324,0.0305952,
2,0,0,1,0,37400.1,0.0117356,0.0114157,-0.500995,56,0.764834,10,-5.71922e-06,-3.30017,1.47683,0.0399505,0.0116362,
2,0,0,0,0,37402.4,0.000274105,-0.000120135,-0.501361,56,0.763652,10,6.0231e-08,-3.29985, , ,0.000100464,