File: Figure_codes/Fig_3-5/workspace_calculate_alpha_eff/20221101_1-115_003_TrumpetPlot_ParaChange_from10_every3_16_CV_C01_78.csv
mode,ox/red,error,control changes,counter inc.,time/s,control/V,Ewe/V,<I>/mA,cycle number,(Q-Qo)/C,I Range,P/W,log(|I|),Tafel slope mV/dec,alpha_eff,E-IR/V,
2,0,0,1,0,52453.5,2.44065e-05,-0.000325324,-0.0529637,79,0.0000000E+000,10,1.72303e-08,-4.27602, , ,-0.000302019,
2,1,0,1,0,52457.3,0.0187763,0.0184455,0.261577,79,0.000873418,10,4.8249e-06,-3.5824,0.183807,0.32099,0.0183304,
2,1,0,0,0,52461.1,0.0377538,0.0374018,0.32392,79,0.00203973,10,1.21152e-05,-3.48956,0.230862,0.255564,0.0372593,
2,1,0,1,0,52464.8,0.0567309,0.0564011,0.381356,79,0.00344072,10,2.15089e-05,-3.41867,0.371339,0.158884,0.0562333,
2,1,0,0,0,52468.6,0.075708,0.0753347,0.424826,79,0.00503529,10,3.20041e-05,-3.37179,0.636107,0.0927517,0.0751478,
2,1,0,1,0,52472.4,0.094685,0.0943255,0.474379,79,0.00677995,10,4.4746e-05,-3.32387,0.274319,0.215078,0.0941168,
2,1,0,0,0,52476.2,0.113662,0.113357,0.564683,79,0.00880782,10,6.40106e-05,-3.24819,0.367387,0.160594,0.113108,
2,1,0,1,0,52480,0.132639,0.13228,0.598862,79,0.0110946,10,7.92172e-05,-3.22267,-0.579301,-0.101847,0.132016,
2,1,0,1,0,52483.8,0.151617,0.151314,0.404835,79,0.0131158,10,6.12574e-05,-3.39272,-0.0869473,-0.678572,0.151136,
2,1,0,1,0,52487.6,0.170594,0.170266,0.31754,79,0.0144838,10,5.40661e-05,-3.4982,-0.327838,-0.179967,0.170126,
2,1,0,1,0,52491.4,0.189571,0.189251,0.30002,79,0.015695,10,5.67792e-05,-3.52285,-1.89978,-0.0310562,0.189119,
2,1,0,1,0,52495.2,0.208547,0.208185,0.292947,79,0.0168645,10,6.09873e-05,-3.53321,-1.66999,-0.0353295,0.208057,
2,1,0,1,0,52499,0.227524,0.227207,0.287087,79,0.0180123,10,6.52282e-05,-3.54199,-1.44984,-0.0406942,0.227081,
2,1,0,1,0,52502.8,0.246501,0.246185,0.283129,79,0.0191429,10,6.9702e-05,-3.54802,-1.01769,-0.0579743,0.24606,
2,1,0,1,0,52506.6,0.265479,0.265178,0.281102,79,0.0202591,10,7.4542e-05,-3.55114,-2.04638,-0.0288314,0.265054,
2,1,0,0,0,52510.4,0.284456,0.28418,0.276599,79,0.0213603,10,7.86039e-05,-3.55815,-4.11764,-0.0143286,0.284058,
2,1,0,1,0,52514.2,0.303433,0.30312,0.272153,79,0.0224453,10,8.24949e-05,-3.56519,-2.07053,-0.0284951,0.303,
2,1,0,0,0,52518,0.32241,0.322085,0.268742,79,0.0235158,10,8.65577e-05,-3.57066,-3.96858,-0.0148668,0.321967,
2,1,0,1,0,52521.8,0.341387,0.341073,0.26561,79,0.0245717,10,9.05923e-05,-3.57576,-2.80456,-0.0210372,0.340956,
2,1,0,0,0,52525.6,0.360364,0.360068,0.264559,79,0.0256166,10,9.52591e-05,-3.57748,-19.4173,-0.00303853,0.359951,
2,1,0,1,0,52529.4,0.379342,0.379028,0.26129,79,0.0266523,10,9.90362e-05,-3.58288,20.5932,0.00286502,0.378913,
2,1,0,1,0,52533.2,0.398319,0.398011,0.25977,79,0.0276791,10,0.000103391,-3.58541,17.1112,0.00344802,0.397897,
2,1,0,1,0,52537,0.417295,0.416987,0.257032,79,0.0286981,10,0.000107179,-3.59001,-15.5941,-0.00378347,0.416874,
2,1,0,1,0,52540.8,0.436272,0.435957,0.256378,79,0.0297098,10,0.00011177,-3.59112,2.67097,0.0220894,0.435844,
2,1,0,1,0,52544.6,0.455249,0.454919,0.256612,79,0.0307181,10,0.000116738,-3.59072,2.99047,0.0197294,0.454806,
2,1,0,1,0,52548.3,0.474226,0.473884,0.256769,79,0.0317259,10,0.000121679,-3.59046,1.17227,0.0503298,0.473771,
2,1,0,1,0,52552.1,0.493203,0.492907,0.259192,79,0.0327372,10,0.000127758,-3.58638,2.1499,0.0274431,0.492793,
2,1,0,1,0,52555.9,0.512181,0.511864,0.262474,79,0.0337576,10,0.000134351,-3.58091,2.6856,0.021969,0.511748,
2,1,0,0,0,52559.7,0.531158,0.530875,0.267941,79,0.0347945,10,0.000142243,-3.57196,1.96934,0.0299592,0.530757,
2,1,0,1,0,52563.5,0.550135,0.549827,0.275862,79,0.0358551,10,0.000151676,-3.55931,1.26517,0.0466342,0.549706,
2,1,0,0,0,52567.3,0.569112,0.568801,0.28654,79,0.0369502,10,0.000162984,-3.54281,0.639311,0.0922869,0.568675,
2,1,0,1,0,52571.1,0.588089,0.587753,0.305147,79,0.0381006,10,0.000179351,-3.51549,0.513402,0.11492,0.587618,
2,1,0,0,0,52574.9,0.607066,0.606775,0.337335,79,0.0393432,10,0.000204686,-3.47194,0.369438,0.159702,0.606627,
2,1,0,1,0,52578.7,0.626044,0.625779,0.396324,79,0.0407512,10,0.000248012,-3.40195,0.214585,0.27495,0.625605,
2,1,0,1,0,52582.5,0.64502,0.644762,0.513642,79,0.0424818,10,0.000331176,-3.28934,0.135917,0.434089,0.644536,
2,1,0,1,0,52586.3,0.663997,0.663698,0.75369,79,0.0448628,10,0.000500223,-3.12281,0.0965451,0.611114,0.663367,
2,1,0,1,0,52590.1,0.682974,0.682719,1.2161,79,0.0485455,10,0.000830254,-2.91503,0.085244,0.692131,0.682184,
2,1,0,1,0,52593.9,0.701951,0.701683,2.00709,79,0.0545775,10,0.00140834,-2.69743,0.0874776,0.674458,0.7008,
2,1,0,1,0,52597.7,0.720928,0.720628,3.17762,79,0.0643222,10,0.00228988,-2.4979,0.0979653,0.602254,0.71923,
2,1,0,1,0,52601.5,0.739905,0.73963,4.75307,79,0.0792718,10,0.00351551,-2.32303,0.111518,0.52906,0.737539,
2,1,0,1,0,52605.3,0.758883,0.758617,6.78241,79,0.101042,10,0.00514526,-2.16862,0.124398,0.474283,0.755633,
2,1,0,0,0,52609.1,0.77786,0.777564,9.3599,79,0.131512,10,0.00727792,-2.02873,0.130997,0.450392,0.773446,
2,1,0,1,0,52612.9,0.796837,0.796586,12.7256,79,0.173136,10,0.010137,-1.89532,0.128496,0.459157,0.790987,
2,1,0,0,0,52616.7,0.815814,0.815531,17.1685,79,0.229533,10,0.0140014,-1.76527,0.131114,0.44999,0.807977,
2,1,0,1,0,52620.5,0.834791,0.834569,22.5537,79,0.304753,10,0.0188226,-1.64678,0.15027,0.392625,0.824645,
2,1,0,1,0,52624.2,0.846726,0.846479,25.674,79,0.397971,10,0.0217325,-1.59051,0.107483,0.548924,0.835183,
2,1,0,1,0,52628,0.827749,0.827532,18.8834,79,0.48179,10,0.0156266,-1.72392,0.121589,0.485242,0.819223,
2,1,0,1,0,52631.7,0.808772,0.808485,13.8125,79,0.543311,10,0.0111672,-1.85973,0.123923,0.476101,0.802407,
2,1,0,1,0,52635.5,0.789795,0.789521,9.88146,79,0.58789,10,0.00780162,-2.00518,0.118735,0.496906,0.785174,
2,1,0,1,0,52639.3,0.770818,0.770527,6.94988,79,0.619518,10,0.00535506,-2.15802,0.113481,0.519909,0.767469,
2,1,0,1,0,52643.1,0.751841,0.751557,4.75446,79,0.641496,10,0.00357325,-2.3229,0.105763,0.557853,0.749465,
2,1,0,1,0,52646.9,0.732865,0.732584,3.11483,79,0.656242,10,0.00228187,-2.50657,0.0919382,0.641736,0.731213,
2,1,0,1,0,52650.7,0.713887,0.713598,1.90903,79,0.665625,10,0.00136228,-2.71919,0.0788991,0.74779,0.712758,
2,1,0,0,0,52654.5,0.69491,0.694605,1.05586,79,0.671116,10,0.000733404,-2.97639,0.0659806,0.894202,0.69414,
2,1,0,1,0,52658.3,0.675933,0.675642,0.50535,79,0.67396,10,0.000341436,-3.29641,0.0524827,1.12418,0.67542,
2,1,0,0,0,52662.1,0.656956,0.656715,0.19125,79,0.675186,10,0.000125597,-3.7184,0.0371213,1.58939,0.656631,
2,1,0,1,0,52665.9,0.637979,0.637686,0.0336691,79,0.675545,10,2.14703e-05,-4.47277,0.0131879,4.47378,0.637671,
2,0,0,0,0,52669.7,0.619002,0.618739,-0.0352947,79,0.675491,10,-2.18382e-05,-4.45229,-0.0353947,-1.66692,0.618754,
2,0,0,1,0,52673.5,0.600024,0.599722,-0.0663437,79,0.675257,10,-3.97877e-05,-4.1782,-0.145827,-0.404588,0.599751,
2,0,0,1,0,52677.3,0.581047,0.580756,-0.0820209,79,0.674939,10,-4.76342e-05,-4.08608,-0.345877,-0.170581,0.580792,
2,0,0,1,0,52681.1,0.56207,0.561785,-0.0905733,79,0.674578,10,-5.08827e-05,-4.043,-0.930543,-0.0634039,0.561825,
2,0,0,1,0,52684.9,0.543093,0.542757,-0.0962019,79,0.674192,10,-5.22143e-05,-4.01682,-0.552846,-0.10672,0.5428,
2,0,0,1,0,52688.7,0.524116,0.523841,-0.101962,79,0.673784,10,-5.34119e-05,-3.99156,-0.87647,-0.0673155,0.523886,
2,0,0,1,0,52692.5,0.505139,0.504827,-0.106294,79,0.673357,10,-5.36602e-05,-3.97349,-0.60122,-0.0981338,0.504874,
2,0,0,1,0,52696.3,0.486162,0.485867,-0.111457,79,0.672908,10,-5.41531e-05,-3.95289,-3.8855,-0.0151846,0.485916,
2,0,0,1,0,52700.1,0.467185,0.466843,-0.118589,79,0.672435,10,-5.53622e-05,-3.92596,-1.67344,-0.0352567,0.466895,
2,0,0,0,0,52703.9,0.448208,0.447899,-0.12618,79,0.671935,10,-5.65157e-05,-3.89901,-0.642091,-0.0918872,0.447954,
2,0,0,1,0,52707.7,0.429231,0.428909,-0.133855,79,0.671405,10,-5.74115e-05,-3.87337,-2.9942,-0.0197048,0.428968,
2,0,0,0,0,52711.5,0.410254,0.409935,-0.143557,79,0.670842,10,-5.88491e-05,-3.84298,-0.804753,-0.0733144,0.409998,
2,0,0,1,0,52715.2,0.391277,0.390951,-0.152802,79,0.670242,10,-5.97379e-05,-3.81587,-0.572185,-0.103113,0.391018,
2,0,0,0,0,52719,0.3723,0.372011,-0.16313,79,0.669603,10,-6.06861e-05,-3.78747,-0.518837,-0.113716,0.372083,
2,0,0,1,0,52722.8,0.353322,0.352996,-0.173379,79,0.668924,10,-6.1202e-05,-3.761,-0.555373,-0.106235,0.353072,
2,0,0,1,0,52726.6,0.334345,0.334033,-0.185404,79,0.668201,10,-6.19312e-05,-3.73188,-0.431504,-0.136731,0.334115,
2,0,0,1,0,52730.4,0.315368,0.315058,-0.195953,79,0.667434,10,-6.17366e-05,-3.70785,-0.700319,-0.0842473,0.315144,
2,0,0,1,0,52734.2,0.296391,0.296067,-0.208483,79,0.666622,10,-6.17249e-05,-3.68093,-0.681056,-0.0866302,0.296158,
2,0,0,1,0,52738,0.277414,0.277134,-0.221406,79,0.665763,10,-6.1359e-05,-3.65481,-0.749536,-0.0787154,0.277232,
2,0,0,1,0,52741.8,0.258437,0.258118,-0.233569,79,0.664853,10,-6.02885e-05,-3.63158,-0.577941,-0.102086,0.258221,
2,0,0,1,0,52745.6,0.239461,0.239105,-0.24605,79,0.663897,10,-5.88319e-05,-3.60898,-1.57847,-0.037378,0.239214,
2,0,0,1,0,52749.4,0.220483,0.220149,-0.256587,79,0.662898,10,-5.64873e-05,-3.59077,-0.656642,-0.0898511,0.220262,
2,0,0,0,0,52753.2,0.201506,0.20121,-0.26993,79,0.661851,10,-5.43127e-05,-3.56875,-0.544305,-0.108395,0.201329,
2,0,0,1,0,52757,0.182529,0.182177,-0.288801,79,0.660744,10,-5.26128e-05,-3.5394,-0.464212,-0.127097,0.182304,
2,0,0,0,0,52760.8,0.163552,0.163226,-0.318713,79,0.659549,10,-5.20224e-05,-3.4966,-0.310361,-0.190101,0.163367,
2,0,0,1,0,52764.6,0.144575,0.144253,-0.403858,79,0.658158,10,-5.82575e-05,-3.39377,-0.118506,-0.497864,0.14443,
2,0,0,0,0,52768.4,0.125598,0.12527,-0.603784,79,0.6562,10,-7.56362e-05,-3.21912,-0.150469,-0.392108,0.125536,
2,0,0,1,0,52772.2,0.10662,0.106281,-0.666768,79,0.653675,10,-7.08651e-05,-3.17603,-5.1581,-0.0114383,0.106575,
2,0,0,1,0,52776,0.0876433,0.0872949,-0.646036,79,0.651118,10,-5.63956e-05,-3.18974,0.816503,0.0722594,0.0875791,
2,0,0,1,0,52779.8,0.0686664,0.0683349,-0.607234,79,0.648685,10,-4.14952e-05,-3.21664,0.69749,0.0845891,0.068602,
2,0,0,1,0,52783.6,0.0496895,0.0493655,-0.565798,79,0.646398,10,-2.79309e-05,-3.24734,0.590226,0.0999617,0.0496144,
2,0,0,1,0,52787.4,0.0307126,0.0303726,-0.521296,79,0.644276,10,-1.58331e-05,-3.28292,0.496196,0.118905,0.030602,
2,0,0,1,0,52791.2,0.0117356,0.0113745,-0.490867,79,0.642305,10,-5.58336e-06,-3.30904,1.19893,0.0492105,0.0115905,
2,0,0,1,0,52793.4,0.000274105,-0.000108205,-0.491981,79,0.641147,10,5.3235e-08,-3.30805, , ,0.000108267,