File: Figure_codes/Fig_3-5/workspace_calculate_alpha_eff/20221101_1-115_003_TrumpetPlot_ParaChange_from10_every3_16_CV_C01_19.csv
mode,ox/red,error,control changes,counter inc.,time/s,control/V,Ewe/V,<I>/mA,cycle number,(Q-Qo)/C,I Range,P/W,log(|I|),Tafel slope mV/dec,alpha_eff,E-IR/V,
2,0,0,0,0,13420.9,2.44065e-05,-0.000439847,-0.0815851,20,0.0000000E+000,10,3.5885e-08,-4.08839, , ,-0.00040395,
2,1,0,1,0,13424.7,0.0187763,0.0184615,0.231484,20,0.000775302,10,4.27353e-06,-3.63548,0.149585,0.394426,0.0183596,
2,1,0,1,0,13428.4,0.0377538,0.0374633,0.299695,20,0.00185276,10,1.12276e-05,-3.52332,0.178366,0.33078,0.0373315,
2,1,0,0,0,13432.2,0.0567309,0.0564319,0.362318,20,0.00318702,10,2.04463e-05,-3.44091,0.302129,0.195281,0.0562725,
2,1,0,1,0,13436,0.075708,0.0753729,0.416584,20,0.00474519,10,3.13991e-05,-3.3803,0.414986,0.142173,0.0751896,
2,1,0,0,0,13439.8,0.0946851,0.0943552,0.477428,20,0.00649427,10,4.50478e-05,-3.32109,0.2231,0.264455,0.0941451,
2,1,0,1,0,13443.6,0.113662,0.113375,0.586257,20,0.008586,10,6.64667e-05,-3.23191,0.30801,0.191552,0.113117,
2,1,0,0,0,13447.4,0.132639,0.132344,0.660313,20,0.0110348,10,8.73886e-05,-3.18025,-8.81687,-0.00669172,0.132054,
2,1,0,1,0,13451.2,0.151617,0.15128,0.445669,20,0.0133027,10,6.7421e-05,-3.35099,-0.0727435,-0.811069,0.151084,
2,1,0,1,0,13455,0.170594,0.17026,0.307202,20,0.0147289,10,5.23042e-05,-3.51258,-0.219248,-0.269102,0.170125,
2,1,0,1,0,13458.8,0.189571,0.189217,0.273912,20,0.0158856,10,5.18289e-05,-3.56239,-0.631817,-0.0933815,0.189097,
2,1,0,1,0,13462.6,0.208547,0.208207,0.260165,20,0.0169604,10,5.4168e-05,-3.58475,-0.837957,-0.0704094,0.208092,
2,1,0,1,0,13466.4,0.227524,0.227211,0.250975,20,0.017993,10,5.70244e-05,-3.60037,-0.851287,-0.0693068,0.227101,
2,1,0,1,0,13470.2,0.246501,0.246191,0.244933,20,0.0189982,10,6.03004e-05,-3.61095,-0.881086,-0.0669628,0.246084,
2,1,0,0,0,13474,0.265479,0.265172,0.241793,20,0.0199848,10,6.41167e-05,-3.61656,-1.48405,-0.039756,0.265065,
2,1,0,1,0,13477.8,0.284456,0.284182,0.237681,20,0.0209557,10,6.75445e-05,-3.62401,-0.916566,-0.0643707,0.284077,
2,1,0,0,0,13481.6,0.303433,0.30313,0.232707,20,0.0219087,10,7.05406e-05,-3.63319,-7.90849,-0.00746034,0.303028,
2,1,0,1,0,13485.4,0.32241,0.322074,0.229869,20,0.0228458,10,7.40348e-05,-3.63852,9.06615,0.00650773,0.321973,
2,1,0,0,0,13489.2,0.341387,0.341119,0.226397,20,0.0237697,10,7.72284e-05,-3.64513,-1.88845,-0.0312426,0.34102,
2,1,0,1,0,13493,0.360364,0.360126,0.22574,20,0.024683,10,8.1295e-05,-3.64639,-1.97482,-0.0298761,0.360027,
2,1,0,1,0,13496.8,0.379342,0.379016,0.221651,20,0.0255867,10,8.40093e-05,-3.65433,-1.61264,-0.036586,0.378919,
2,1,0,1,0,13500.6,0.398319,0.398004,0.220416,20,0.0264824,10,8.77263e-05,-3.65676,18.0716,0.00326479,0.397907,
2,1,0,1,0,13504.4,0.417295,0.417004,0.219494,20,0.0273736,10,9.15299e-05,-3.65858,-1.39291,-0.0423573,0.416907,
2,1,0,1,0,13508.2,0.436272,0.435954,0.220344,20,0.0282628,10,9.60598e-05,-3.6569,6.67347,0.00884098,0.435857,
2,1,0,1,0,13511.9,0.455249,0.454977,0.221612,20,0.0291516,10,0.000100828,-3.65441,3.85528,0.0153037,0.45488,
2,1,0,1,0,13515.7,0.474226,0.473928,0.221968,20,0.030044,10,0.000105197,-3.65371,0.94625,0.0623514,0.473831,
2,1,0,1,0,13519.5,0.493203,0.492903,0.224458,20,0.0309446,10,0.000110636,-3.64887,1.29439,0.0455813,0.492805,
2,1,0,0,0,13523.3,0.512181,0.511885,0.230228,20,0.0318598,10,0.00011785,-3.63784,1.4588,0.0404441,0.511784,
2,1,0,1,0,13527.1,0.531158,0.530899,0.236484,20,0.0327975,10,0.000125549,-3.6262,1.65542,0.0356405,0.530795,
2,1,0,0,0,13530.9,0.550135,0.549817,0.248719,20,0.0337671,10,0.00013675,-3.60429,0.923816,0.0638655,0.549707,
2,1,0,1,0,13534.7,0.569112,0.568848,0.265161,20,0.0347879,10,0.000150836,-3.57649,0.516011,0.114339,0.568731,
2,1,0,0,0,13538.5,0.588089,0.587828,0.292806,20,0.0358912,10,0.00017212,-3.53342,0.373628,0.157911,0.587699,
2,1,0,1,0,13542.3,0.607066,0.606797,0.342715,20,0.0371366,10,0.000207958,-3.46507,0.222816,0.264793,0.606646,
2,1,0,1,0,13546.1,0.626044,0.625791,0.44267,20,0.0386535,10,0.000277019,-3.35392,0.132286,0.446004,0.625596,
2,1,0,1,0,13549.9,0.64502,0.644729,0.654821,20,0.0407351,10,0.000422182,-3.18388,0.0913007,0.646216,0.644441,
2,1,0,1,0,13553.7,0.663997,0.663716,1.11443,20,0.0440405,10,0.000739668,-2.95295,0.0736699,0.80087,0.663226,
2,1,0,1,0,13557.5,0.682974,0.682688,2.03789,20,0.0498936,10,0.00139124,-2.69082,0.0714408,0.825858,0.681791,
2,1,0,1,0,13561.3,0.701951,0.701687,3.63943,20,0.0604828,10,0.00255374,-2.43897,0.0771733,0.764513,0.700086,
2,1,0,1,0,13565.1,0.720928,0.720652,6.00024,20,0.0785925,10,0.00432409,-2.22183,0.0910625,0.647907,0.718012,
2,1,0,1,0,13568.9,0.739905,0.739643,9.05001,20,0.107017,10,0.00669378,-2.04335,0.107809,0.547262,0.735661,
2,1,0,0,0,13572.7,0.758883,0.758613,12.8153,20,0.14831,10,0.00972182,-1.89227,0.120074,0.491364,0.752974,
2,1,0,1,0,13576.5,0.77786,0.777573,17.6702,20,0.205824,10,0.0137399,-1.75276,0.120849,0.488213,0.769798,
2,1,0,0,0,13580.3,0.796837,0.796544,23.901,20,0.284414,10,0.0190382,-1.62158,0.130044,0.453693,0.786027,
2,1,0,1,0,13584.1,0.815814,0.815531,31.3516,20,0.388894,10,0.0255682,-1.50374,0.13954,0.422817,0.801737,
2,1,0,0,0,13587.9,0.834791,0.834544,39.0789,20,0.522632,10,0.0326131,-1.40806,0.187682,0.314361,0.81735,
2,1,0,0,0,13591.6,0.846727,0.846508,42.9237,20,0.679535,10,0.0363352,-1.3673,0.144375,0.408657,0.827621,
2,1,0,1,0,13595.3,0.827749,0.82753,34.1411,20,0.825288,10,0.0282528,-1.46672,0.148934,0.39615,0.812508,
2,1,0,1,0,13599.1,0.808772,0.808523,26.1764,20,0.939381,10,0.0211642,-1.58209,0.130127,0.453402,0.797005,
2,1,0,1,0,13602.9,0.789795,0.789507,19.3737,20,1.02537,10,0.0152956,-1.71279,0.113261,0.520919,0.780982,
2,1,0,1,0,13606.7,0.770818,0.77058,13.7333,20,1.08762,10,0.0105826,-1.86222,0.107098,0.550898,0.764537,
2,1,0,1,0,13610.5,0.751841,0.751537,9.26675,20,1.13082,10,0.00696431,-2.03307,0.0949815,0.621174,0.74746,
2,1,0,1,0,13614.3,0.732865,0.732597,5.90603,20,1.15923,10,0.00432674,-2.2287,0.0841909,0.700788,0.729999,
2,1,0,0,0,13618.1,0.713887,0.713608,3.49083,20,1.17672,10,0.00249108,-2.45707,0.0730292,0.807896,0.712072,
2,1,0,1,0,13621.9,0.69491,0.694678,1.86958,20,1.18661,10,0.00129876,-2.72826,0.0618828,0.953416,0.693855,
2,1,0,0,0,13625.7,0.675933,0.675636,0.878855,20,1.1916,10,0.000593786,-3.05608,0.0513866,1.14816,0.675249,
2,1,0,1,0,13629.5,0.656956,0.656673,0.342909,20,1.19375,10,0.000225179,-3.46482,0.0401308,1.47019,0.656522,
2,1,0,0,0,13633.3,0.637979,0.637689,0.0891246,20,1.19445,10,5.68338e-05,-4.05,0.0233836,2.52314,0.63765,
2,0,0,1,0,13637.1,0.619002,0.618774,-0.022206,20,1.1945,10,-1.37405e-05,-4.65353,-0.0132239,-4.46161,0.618784,
2,0,0,0,0,13640.9,0.600025,0.599717,-0.0686305,20,1.19426,10,-4.11589e-05,-4.16348,-0.0989173,-0.596458,0.599748,
2,0,0,1,0,13644.7,0.581047,0.580781,-0.0924741,20,1.19389,10,-5.37072e-05,-4.03398,-0.222698,-0.264932,0.580822,
2,0,0,1,0,13648.5,0.56207,0.561742,-0.102075,20,1.19347,10,-5.734e-05,-3.99108,-0.789357,-0.0747444,0.561787,
2,0,0,1,0,13652.3,0.543093,0.542804,-0.108542,20,1.19301,10,-5.89169e-05,-3.9644,-1.36878,-0.043104,0.542852,
2,0,0,1,0,13656.1,0.524116,0.523807,-0.113941,20,1.19254,10,-5.96831e-05,-3.94332,-0.963204,-0.0612539,0.523857,
2,0,0,1,0,13659.9,0.505139,0.504813,-0.118446,20,1.19204,10,-5.97932e-05,-3.92648,-0.863481,-0.0683281,0.504865,
2,0,0,1,0,13663.7,0.486162,0.485864,-0.123074,20,1.19153,10,-5.97973e-05,-3.90983,1.66179,0.0355039,0.485918,
2,0,0,1,0,13667.5,0.467185,0.466893,-0.129431,20,1.19099,10,-6.04305e-05,-3.88796,-1.35246,-0.0436242,0.46695,
2,0,0,1,0,13671.3,0.448208,0.447902,-0.136854,20,1.19042,10,-6.12971e-05,-3.86374,-1.19984,-0.0491732,0.447962,
2,0,0,0,0,13675,0.429231,0.428938,-0.145926,20,1.18983,10,-6.25932e-05,-3.83587,-1.22815,-0.0480397,0.429002,
2,0,0,1,0,13678.8,0.410254,0.409939,-0.152562,20,1.18921,10,-6.25409e-05,-3.81655,-1.80425,-0.0327005,0.410006,
2,0,0,0,0,13682.6,0.391277,0.391011,-0.163196,20,1.18854,10,-6.38115e-05,-3.78729,-2.89186,-0.0204021,0.391083,
2,0,0,1,0,13686.4,0.3723,0.371951,-0.172603,20,1.18785,10,-6.41998e-05,-3.76295,-0.745759,-0.079114,0.372026,
2,0,0,1,0,13690.2,0.353322,0.353021,-0.182829,20,1.18711,10,-6.45425e-05,-3.73795,-0.489517,-0.120527,0.353101,
2,0,0,1,0,13694,0.334345,0.334078,-0.19341,20,1.18633,10,-6.46141e-05,-3.71352,-0.486773,-0.121206,0.334163,
2,0,0,1,0,13697.8,0.315368,0.315035,-0.206336,20,1.1855,10,-6.50031e-05,-3.68542,-0.747252,-0.078956,0.315126,
2,0,0,1,0,13701.6,0.296391,0.296053,-0.21861,20,1.18463,10,-6.47203e-05,-3.66033,-0.705205,-0.0836636,0.296149,
2,0,0,1,0,13705.4,0.277414,0.277107,-0.2297,20,1.18371,10,-6.36514e-05,-3.63884,-1.3095,-0.0450553,0.277208,
2,0,0,1,0,13709.2,0.258437,0.258133,-0.242798,20,1.18275,10,-6.26742e-05,-3.61475,-0.949024,-0.0621692,0.25824,
2,0,0,1,0,13713,0.239461,0.239122,-0.254815,20,1.18174,10,-6.09321e-05,-3.59377,-1.18813,-0.049658,0.239234,
2,0,0,0,0,13716.8,0.220483,0.220187,-0.267711,20,1.18068,10,-5.89466e-05,-3.57233,-0.441094,-0.133758,0.220305,
2,0,0,1,0,13720.6,0.201506,0.201161,-0.280567,20,1.17958,10,-5.64394e-05,-3.55196,-0.475564,-0.124063,0.201285,
2,0,0,0,0,13724.4,0.182529,0.182223,-0.303326,20,1.1784,10,-5.52729e-05,-3.51809,-0.36977,-0.159559,0.182356,
2,0,0,1,0,13728.2,0.163552,0.163232,-0.351213,20,1.1771,10,-5.73291e-05,-3.45443,-0.190849,-0.309144,0.163386,
2,0,0,0,0,13732,0.144575,0.144255,-0.495275,20,1.17549,10,-7.14458e-05,-3.30515,-0.0811221,-0.727299,0.144473,
2,0,0,1,0,13735.8,0.125598,0.125276,-0.747361,20,1.17301,10,-9.3626e-05,-3.12647,-0.273659,-0.215596,0.125604,
2,0,0,1,0,13739.6,0.10662,0.106281,-0.748844,20,1.17004,10,-7.95881e-05,-3.12561,0.688869,0.0856476,0.106611,
2,0,0,1,0,13743.4,0.0876433,0.0873149,-0.684289,20,1.16724,10,-5.97486e-05,-3.16476,0.519156,0.113646,0.087616,
2,0,0,1,0,13747.2,0.0686664,0.0683614,-0.634631,20,1.16468,10,-4.33843e-05,-3.19748,0.912543,0.0646545,0.0686407,
2,0,0,1,0,13751,0.0496895,0.0493961,-0.588344,20,1.16228,10,-2.90619e-05,-3.23037,0.579418,0.101826,0.049655,
2,0,0,1,0,13754.8,0.0307126,0.0303969,-0.535159,20,1.16007,10,-1.62672e-05,-3.27152,0.507985,0.116145,0.0306324,
2,0,0,1,0,13758.5,0.0117356,0.0114274,-0.499278,20,1.15803,10,-5.70545e-06,-3.30166,1.19014,0.0495739,0.0116471,
2,0,0,0,0,13760.8,0.000274105,-0.000104626,-0.499725,20,1.15684,10,5.22844e-08,-3.30127, , ,0.000115253,