File: Figure_codes/Fig_3-5/workspace_calculate_alpha_eff/20221101_1-115_003_TrumpetPlot_ParaChange_from10_every3_16_CV_C01_31.csv
mode,ox/red,error,control changes,counter inc.,time/s,control/V,Ewe/V,<I>/mA,cycle number,(Q-Qo)/C,I Range,P/W,log(|I|),Tafel slope mV/dec,alpha_eff,E-IR/V,
2,0,0,0,0,21301.4,2.44065e-05,-0.000439847,-0.0943058,32,0.0000000E+000,10,4.14802e-08,-4.02546, , ,-0.000398353,
2,1,0,1,0,21305.2,0.0187763,0.0184329,0.225431,32,0.000743187,10,4.15536e-06,-3.64699,0.149811,0.393829,0.0183337,
2,1,0,1,0,21309,0.0377538,0.0373721,0.293041,32,0.00179205,10,1.09516e-05,-3.53307,0.203598,0.289787,0.0372432,
2,1,0,0,0,21312.8,0.0567309,0.0563948,0.355286,32,0.00309417,10,2.00363e-05,-3.44942,0.267501,0.22056,0.0562384,
2,1,0,1,0,21316.6,0.075708,0.0753845,0.404692,32,0.00461051,10,3.05075e-05,-3.39288,0.449191,0.131347,0.0752065,
2,1,0,0,0,21320.4,0.0946851,0.0943584,0.463288,32,0.00630675,10,4.37151e-05,-3.33415,0.232399,0.253874,0.0941545,
2,1,0,1,0,21324.2,0.113662,0.113332,0.566346,32,0.00832388,10,6.41852e-05,-3.24692,0.342497,0.172264,0.113083,
2,1,0,0,0,21327.9,0.132639,0.132324,0.622943,32,0.0106568,10,8.24304e-05,-3.20555,-1.72541,-0.0341948,0.13205,
2,1,0,1,0,21331.7,0.151617,0.151304,0.417627,32,0.0127822,10,6.31885e-05,-3.37921,-0.0768106,-0.768123,0.15112,
2,1,0,1,0,21335.5,0.170594,0.170267,0.303197,32,0.0141469,10,5.16244e-05,-3.51827,-0.260437,-0.226542,0.170133,
2,1,0,1,0,21339.3,0.189571,0.189226,0.275042,32,0.0152917,10,5.2045e-05,-3.5606,-0.687098,-0.0858684,0.189105,
2,1,0,1,0,21343.1,0.208547,0.208262,0.263084,32,0.0163679,10,5.47904e-05,-3.57991,-1.37566,-0.0428887,0.208146,
2,1,0,1,0,21346.9,0.227524,0.227223,0.254793,32,0.0174041,10,5.78947e-05,-3.59381,-0.837464,-0.0704508,0.227111,
2,1,0,1,0,21350.7,0.246501,0.246202,0.247608,32,0.0184137,10,6.09617e-05,-3.60623,-0.928352,-0.0635535,0.246093,
2,1,0,0,0,21354.5,0.265479,0.265182,0.244553,32,0.0194039,10,6.48513e-05,-3.61163,-1.16611,-0.0505955,0.265075,
2,1,0,1,0,21358.3,0.284456,0.284158,0.239256,32,0.0203759,10,6.79867e-05,-3.62114,68.8099,0.000857435,0.284053,
2,1,0,0,0,21362.1,0.303433,0.303135,0.235427,32,0.02133,10,7.13662e-05,-3.62814,-7.90452,-0.00746409,0.303032,
2,1,0,1,0,21365.9,0.32241,0.32209,0.231727,32,0.0222689,10,7.46369e-05,-3.63502,-3.26512,-0.0180698,0.321988,
2,1,0,0,0,21369.7,0.341387,0.341132,0.229071,32,0.0231937,10,7.81434e-05,-3.64003,-2.3786,-0.0248045,0.341031,
2,1,0,1,0,21373.5,0.360364,0.360043,0.227553,32,0.024108,10,8.19289e-05,-3.64292,-6.75747,-0.00873107,0.359943,
2,1,0,1,0,21377.3,0.379342,0.379025,0.224906,32,0.0250128,10,8.5245e-05,-3.648,-2.89465,-0.0203824,0.378926,
2,1,0,1,0,21381.1,0.398319,0.397979,0.222003,32,0.0259102,10,8.83525e-05,-3.65364,37.8481,0.00155886,0.397882,
2,1,0,1,0,21384.9,0.417295,0.416985,0.221159,32,0.0268017,10,9.22198e-05,-3.6553,14.4965,0.00406995,0.416888,
2,1,0,1,0,21388.7,0.436272,0.435953,0.222036,32,0.0276893,10,9.67973e-05,-3.65358,-9.3951,-0.00627987,0.435856,
2,1,0,1,0,21392.5,0.455249,0.454945,0.22171,32,0.0285768,10,0.000100866,-3.65421,1.83474,0.0321571,0.454848,
2,1,0,1,0,21396.3,0.474226,0.473922,0.222987,32,0.0294671,10,0.000105678,-3.65172,1.11828,0.0527598,0.473824,
2,1,0,1,0,21400.1,0.493203,0.492901,0.225342,32,0.0303647,10,0.000111071,-3.64716,1.43802,0.0410286,0.492802,
2,1,0,0,0,21403.9,0.512181,0.511893,0.230447,32,0.031275,10,0.000117965,-3.63743,1.20777,0.0488504,0.511792,
2,1,0,1,0,21407.6,0.531158,0.530812,0.237743,32,0.0322064,10,0.000126197,-3.62389,1.60458,0.0367698,0.530708,
2,1,0,0,0,21411.4,0.550135,0.549846,0.24681,32,0.0331671,10,0.000135708,-3.60764,0.640577,0.0921044,0.549738,
2,1,0,1,0,21415.2,0.569112,0.568814,0.26121,32,0.0341737,10,0.00014858,-3.58301,0.577353,0.102191,0.568699,
2,1,0,0,0,21419,0.588089,0.587778,0.287017,32,0.0352527,10,0.000168703,-3.54209,0.379848,0.155325,0.587652,
2,1,0,1,0,21422.8,0.607066,0.606732,0.329309,32,0.0364559,10,0.000199802,-3.4824,0.241469,0.244338,0.606587,
2,1,0,1,0,21426.6,0.626044,0.625756,0.413162,32,0.0378886,10,0.000258539,-3.38388,0.155357,0.379771,0.625574,
2,1,0,1,0,21430.4,0.64502,0.644748,0.586408,32,0.039789,10,0.000378086,-3.2318,0.103773,0.568549,0.64449,
2,1,0,1,0,21434.2,0.663997,0.663693,0.959917,32,0.0426832,10,0.000637091,-3.01777,0.079515,0.741998,0.663271,
2,1,0,1,0,21438,0.682974,0.682701,1.70354,32,0.047636,10,0.00116301,-2.76865,0.0723605,0.815362,0.681951,
2,1,0,1,0,21441.8,0.701951,0.701685,2.9974,32,0.0564105,10,0.00210323,-2.52325,0.0788292,0.748454,0.700366,
2,1,0,1,0,21445.6,0.720928,0.720665,4.92039,32,0.0712788,10,0.00354595,-2.308,0.0911088,0.647577,0.7185,
2,1,0,1,0,21449.4,0.739905,0.739632,7.46393,32,0.0946346,10,0.00552056,-2.12703,0.10724,0.550166,0.736348,
2,1,0,0,0,21453.2,0.758883,0.758629,10.6297,32,0.12881,10,0.00806399,-1.97348,0.120406,0.490008,0.753952,
2,1,0,1,0,21457,0.77786,0.777586,14.6601,32,0.176506,10,0.0113995,-1.83386,0.12431,0.474621,0.771135,
2,1,0,0,0,21460.8,0.796837,0.796545,19.605,32,0.241802,10,0.0156162,-1.70763,0.208855,0.282492,0.787919,
2,1,0,1,0,21464.6,0.815814,0.815553,25.8439,32,0.327708,10,0.021077,-1.58764,0.138339,0.426488,0.804181,
2,1,0,0,0,21468.4,0.834791,0.834573,33.0661,32,0.439437,10,0.0275961,-1.48062,0.174718,0.337686,0.820024,
2,1,0,0,0,21472.1,0.846727,0.846482,37.0149,32,0.57378,10,0.0313325,-1.43162,0.135139,0.436588,0.830196,
2,1,0,1,0,21475.9,0.827749,0.827494,29.0565,32,0.698709,10,0.0240441,-1.53676,0.141505,0.416947,0.814709,
2,1,0,1,0,21479.7,0.808772,0.808499,21.9918,32,0.795171,10,0.0177804,-1.65774,0.115178,0.512249,0.798822,
2,1,0,1,0,21483.5,0.789795,0.789524,16.0096,32,0.866729,10,0.01264,-1.79562,0.114308,0.51615,0.782479,
2,1,0,1,0,21487.3,0.770818,0.770552,11.2751,32,0.918086,10,0.00868807,-1.94788,0.107858,0.547015,0.765591,
2,1,0,1,0,21491,0.751841,0.75156,7.65114,32,0.953658,10,0.0057503,-2.11627,0.0982888,0.600272,0.748194,
2,1,0,1,0,21494.8,0.732865,0.732605,4.91693,32,0.977203,10,0.00360217,-2.30831,0.0860132,0.685941,0.730441,
2,1,0,0,0,21498.6,0.713887,0.713579,2.94145,32,0.991847,10,0.00209895,-2.53144,0.076541,0.770828,0.712284,
2,1,0,1,0,21502.4,0.69491,0.694635,1.60541,32,1.00025,10,0.00111518,-2.79441,0.0632841,0.932303,0.693929,
2,1,0,0,0,21506.2,0.675933,0.675617,0.781242,32,1.00463,10,0.00052782,-3.10721,0.0522851,1.12843,0.675273,
2,1,0,1,0,21510,0.656956,0.656671,0.304679,32,1.00654,10,0.000200074,-3.51616,0.0398441,1.48077,0.656537,
2,1,0,0,0,21513.8,0.637979,0.637671,0.0732562,32,1.00715,10,4.67134e-05,-4.13516,0.020471,2.88213,0.637639,
2,0,0,1,0,21517.6,0.619002,0.618749,-0.0291287,32,1.00716,10,-1.80233e-05,-4.53568,-0.0208677,-2.82733,0.618761,
2,0,0,0,0,21521.4,0.600025,0.599713,-0.0729293,32,1.00691,10,-4.37366e-05,-4.1371,-0.108668,-0.54294,0.599745,
2,0,0,1,0,21525.2,0.581047,0.580747,-0.0929384,32,1.00654,10,-5.39737e-05,-4.03181,-0.330628,-0.178448,0.580788,
2,0,0,1,0,21529,0.56207,0.56175,-0.104584,32,1.00612,10,-5.87502e-05,-3.98053,-0.49585,-0.118988,0.561796,
2,0,0,1,0,21532.8,0.543093,0.542763,-0.111028,32,1.00567,10,-6.02616e-05,-3.95457,13.2457,0.00445429,0.542812,
2,0,0,1,0,21536.6,0.524116,0.523828,-0.116011,32,1.00519,10,-6.077e-05,-3.9355,-1.42782,-0.0413217,0.523879,
2,0,0,1,0,21540.4,0.505139,0.504844,-0.121161,32,1.0047,10,-6.11675e-05,-3.91664,-1.27016,-0.046451,0.504897,
2,0,0,1,0,21544.2,0.486162,0.485865,-0.126041,32,1.00418,10,-6.12391e-05,-3.89949,-2.66088,-0.0221731,0.48592,
2,0,0,1,0,21548,0.467185,0.46689,-0.132649,32,1.00364,10,-6.19324e-05,-3.8773,-0.582946,-0.10121,0.466949,
2,0,0,1,0,21551.8,0.448208,0.44792,-0.139377,32,1.00308,10,-6.24298e-05,-3.85581,-2.2083,-0.0267174,0.447981,
2,0,0,0,0,21555.6,0.429231,0.42895,-0.146569,32,1.00249,10,-6.28709e-05,-3.83396,-0.76199,-0.0774288,0.429014,
2,0,0,1,0,21559.4,0.410254,0.409925,-0.155935,32,1.00186,10,-6.39215e-05,-3.80706,-4.52933,-0.0130262,0.409993,
2,0,0,0,0,21563.2,0.391277,0.390919,-0.165643,32,1.0012,10,-6.4753e-05,-3.78083,-0.835614,-0.0706067,0.390992,
2,0,0,1,0,21567,0.3723,0.371995,-0.176267,32,1.0005,10,-6.55706e-05,-3.75383,-0.687431,-0.0858268,0.372073,
2,0,0,1,0,21570.8,0.353322,0.353035,-0.185098,32,0.999766,10,-6.53461e-05,-3.7326,-1.52167,-0.0387731,0.353116,
2,0,0,1,0,21574.5,0.334345,0.334078,-0.196881,32,0.998985,10,-6.57736e-05,-3.7058,-1.22279,-0.0482505,0.334165,
2,0,0,1,0,21578.3,0.315368,0.315061,-0.208556,32,0.998159,10,-6.57076e-05,-3.68078,-0.87493,-0.067434,0.315152,
2,0,0,1,0,21582.1,0.296391,0.296095,-0.220784,32,0.997288,10,-6.53731e-05,-3.65603,-0.542665,-0.108723,0.296192,
2,0,0,1,0,21585.9,0.277414,0.277124,-0.233541,32,0.996371,10,-6.47197e-05,-3.63164,-1.28049,-0.0460763,0.277226,
2,0,0,1,0,21589.7,0.258437,0.258128,-0.245119,32,0.995406,10,-6.3272e-05,-3.61062,-0.711256,-0.0829518,0.258236,
2,0,0,1,0,21593.5,0.239461,0.23917,-0.257907,32,0.994395,10,-6.16836e-05,-3.58854,-1.16824,-0.0505031,0.239283,
2,0,0,0,0,21597.3,0.220483,0.220196,-0.268991,32,0.99334,10,-5.92306e-05,-3.57026,-0.781659,-0.0754805,0.220314,
2,0,0,1,0,21601.1,0.201506,0.201182,-0.281921,32,0.992234,10,-5.67172e-05,-3.54987,-0.474183,-0.124424,0.201306,
2,0,0,0,0,21604.9,0.182529,0.182198,-0.303709,32,0.991064,10,-5.53352e-05,-3.51754,-0.393337,-0.149999,0.182332,
2,0,0,1,0,21608.7,0.163552,0.163235,-0.345017,32,0.989784,10,-5.63189e-05,-3.46216,-0.230436,-0.256036,0.163387,
2,0,0,0,0,21612.5,0.144575,0.144249,-0.470229,32,0.988227,10,-6.78302e-05,-3.32769,-0.0912169,-0.64681,0.144456,
2,0,0,1,0,21616.3,0.125598,0.125252,-0.71372,32,0.985889,10,-8.93951e-05,-3.14647,-0.211975,-0.278335,0.125566,
2,0,0,1,0,21620.1,0.10662,0.106261,-0.736708,32,0.983016,10,-7.82834e-05,-3.1327,0.78284,0.0753666,0.106585,
2,0,0,1,0,21623.9,0.0876433,0.0873024,-0.680009,32,0.980259,10,-5.93664e-05,-3.16749,0.539111,0.109439,0.0876016,
2,0,0,1,0,21627.7,0.0686664,0.0683317,-0.632145,32,0.977709,10,-4.31955e-05,-3.19918,0.723692,0.0815264,0.0686098,
2,0,0,1,0,21631.5,0.0496895,0.0493793,-0.587865,32,0.975325,10,-2.90283e-05,-3.23072,0.544538,0.108349,0.0496379,
2,0,0,1,0,21635.3,0.0307126,0.0304024,-0.537878,32,0.973123,10,-1.63528e-05,-3.26932,0.471521,0.125127,0.0306391,
2,0,0,1,0,21639.1,0.0117356,0.0114094,-0.501717,32,0.971092,10,-5.72431e-06,-3.29954,1.61719,0.0364831,0.0116302,
2,0,0,0,0,21641.4,0.000274105,-0.00010224,-0.503099,32,0.969903,10,5.14371e-08,-3.29835, , ,0.000119123,