File: Figure_codes/Fig_3-5/workspace_calculate_alpha_eff/20221101_1-115_003_TrumpetPlot_ParaChange_from10_every3_16_CV_C01_34.csv
mode,ox/red,error,control changes,counter inc.,time/s,control/V,Ewe/V,<I>/mA,cycle number,(Q-Qo)/C,I Range,P/W,log(|I|),Tafel slope mV/dec,alpha_eff,E-IR/V,
2,0,0,0,0,23271.6,2.44065e-05,-0.000325324,-0.0930337,35,0.0000000E+000,10,3.02661e-08,-4.03136, , ,-0.000284389,
2,1,0,1,0,23275.3,0.0187763,0.018438,0.224384,35,0.000747012,10,4.13719e-06,-3.64901,0.150094,0.393086,0.0183393,
2,1,0,1,0,23279.1,0.0377538,0.0374039,0.292114,35,0.00179819,10,1.09262e-05,-3.53445,0.176111,0.335016,0.0372754,
2,1,0,0,0,23282.9,0.0567309,0.0564234,0.355719,35,0.00310314,10,2.00709e-05,-3.44889,0.297485,0.198329,0.0562669,
2,1,0,1,0,23286.7,0.075708,0.0753994,0.404267,35,0.0046229,10,3.04814e-05,-3.39333,0.503394,0.117204,0.0752215,
2,1,0,0,0,23290.5,0.0946851,0.0943743,0.462951,35,0.00632195,10,4.36907e-05,-3.33447,0.223418,0.264079,0.0941706,
2,1,0,1,0,23294.3,0.113662,0.113341,0.566227,35,0.00834376,10,6.41765e-05,-3.24701,0.331156,0.178164,0.113092,
2,1,0,0,0,23298.1,0.132639,0.13236,0.62092,35,0.0106806,10,8.21851e-05,-3.20696,-1.23393,-0.0478148,0.132087,
2,1,0,1,0,23301.9,0.151617,0.151337,0.413558,35,0.0128019,10,6.25868e-05,-3.38346,-0.0722105,-0.817055,0.151155,
2,1,0,1,0,23305.7,0.170594,0.170238,0.298278,35,0.0141542,10,5.07783e-05,-3.52538,-0.240194,-0.245634,0.170107,
2,1,0,1,0,23309.5,0.189571,0.189212,0.271434,35,0.0152872,10,5.13586e-05,-3.56634,-0.736454,-0.0801137,0.189092,
2,1,0,1,0,23313.3,0.208547,0.208254,0.259339,35,0.0163519,10,5.40084e-05,-3.58613,-0.951665,-0.0619966,0.20814,
2,1,0,1,0,23317.1,0.227524,0.227236,0.250884,35,0.0173794,10,5.70099e-05,-3.60053,-1.0558,-0.055882,0.227125,
2,1,0,1,0,23320.8,0.246501,0.246215,0.245302,35,0.0183834,10,6.03969e-05,-3.6103,-1.03796,-0.0568424,0.246107,
2,1,0,0,0,23324.6,0.265479,0.265134,0.24106,35,0.0193696,10,6.3913e-05,-3.61788,-2.19429,-0.0268879,0.265028,
2,1,0,1,0,23328.4,0.284456,0.284157,0.237481,35,0.0203388,10,6.74818e-05,-3.62437,-1.31012,-0.045034,0.284053,
2,1,0,0,0,23332.2,0.303433,0.303135,0.232302,35,0.0212909,10,7.04191e-05,-3.63395,-2.77079,-0.0212936,0.303033,
2,1,0,1,0,23336,0.32241,0.322092,0.229732,35,0.0222289,10,7.39949e-05,-3.63878,-2.92732,-0.0201549,0.321991,
2,1,0,0,0,23339.8,0.341387,0.341091,0.226747,35,0.0231547,10,7.73414e-05,-3.64446,-3.72855,-0.0158238,0.340991,
2,1,0,1,0,23343.6,0.360364,0.360063,0.225851,35,0.0240692,10,8.13206e-05,-3.64618,-8.5583,-0.00689389,0.359964,
2,1,0,1,0,23347.4,0.379342,0.379059,0.223596,35,0.0249741,10,8.47561e-05,-3.65054,11.9739,0.00492738,0.378961,
2,1,0,1,0,23351.2,0.398319,0.398001,0.221679,35,0.0258706,10,8.82283e-05,-3.65428,-2.95563,-0.0199619,0.397903,
2,1,0,1,0,23355,0.417295,0.417013,0.220302,35,0.0267628,10,9.18686e-05,-3.65698,9.66342,0.0061055,0.416916,
2,1,0,1,0,23358.8,0.436272,0.435956,0.220409,35,0.0276519,10,9.60884e-05,-3.65677,8.78051,0.00671943,0.435859,
2,1,0,1,0,23362.6,0.455249,0.454931,0.220851,35,0.0285397,10,0.000100472,-3.6559,1.10807,0.0532457,0.454834,
2,1,0,1,0,23366.4,0.474226,0.473915,0.223542,35,0.0294316,10,0.00010594,-3.65064,2.41336,0.0244473,0.473816,
2,1,0,1,0,23370.2,0.493203,0.492882,0.226973,35,0.0303312,10,0.000111871,-3.64403,1.60054,0.0368625,0.492782,
2,1,0,0,0,23374,0.512181,0.511861,0.229663,35,0.031243,10,0.000117555,-3.63891,1.19739,0.0492739,0.511759,
2,1,0,1,0,23377.8,0.531158,0.530855,0.236973,35,0.0321744,10,0.000125798,-3.6253,1.21741,0.0484635,0.53075,
2,1,0,0,0,23381.6,0.550135,0.549851,0.245453,35,0.0331364,10,0.000134963,-3.61003,0.893978,0.0659972,0.549743,
2,1,0,1,0,23385.4,0.569112,0.568822,0.2619,35,0.0341444,10,0.000148975,-3.58186,0.682865,0.0864006,0.568707,
2,1,0,0,0,23389.2,0.588089,0.587755,0.285962,35,0.0352232,10,0.000168075,-3.54369,0.35419,0.166577,0.587629,
2,1,0,1,0,23393,0.607066,0.606786,0.32649,35,0.0364238,10,0.000198109,-3.48613,0.240114,0.245716,0.606642,
2,1,0,1,0,23396.8,0.626044,0.625775,0.408873,35,0.0378501,10,0.000255862,-3.38841,0.155248,0.380037,0.625595,
2,1,0,1,0,23400.6,0.64502,0.644724,0.579954,35,0.0397356,10,0.00037391,-3.23661,0.102377,0.5763,0.644468,
2,1,0,1,0,23404.3,0.663997,0.66372,0.946903,35,0.042597,10,0.000628479,-3.02369,0.0791886,0.745057,0.663304,
2,1,0,1,0,23408.1,0.682974,0.682699,1.67969,35,0.0474836,10,0.00114672,-2.77477,0.0726433,0.812188,0.68196,
2,1,0,1,0,23411.9,0.701951,0.701684,2.96194,35,0.0561472,10,0.00207835,-2.52842,0.0793241,0.743784,0.700381,
2,1,0,1,0,23415.7,0.720928,0.720626,4.88464,35,0.0708785,10,0.00352,-2.31117,0.0897353,0.657489,0.718477,
2,1,0,1,0,23419.5,0.739905,0.739607,7.45209,35,0.0941373,10,0.00551162,-2.12772,0.102869,0.573544,0.736328,
2,1,0,0,0,23423.3,0.758883,0.758625,10.6895,35,0.128386,10,0.00810929,-1.97104,0.119509,0.493688,0.753921,
2,1,0,1,0,23427.1,0.77786,0.777621,14.8469,35,0.176519,10,0.0115452,-1.82836,0.11902,0.495713,0.771088,
2,1,0,0,0,23430.9,0.796837,0.796583,20.4917,35,0.243147,10,0.0163233,-1.68842,0.124313,0.474609,0.787566,
2,1,0,1,0,23434.7,0.815814,0.81555,27.5062,35,0.333905,10,0.0224327,-1.56057,0.129081,0.457078,0.803448,
2,1,0,0,0,23438.5,0.834791,0.834552,35.3496,35,0.453137,10,0.029501,-1.45162,0.160065,0.368599,0.818998,
2,1,0,0,0,23442.2,0.846727,0.84652,39.4957,35,0.596996,10,0.0334338,-1.40345,0.121277,0.48649,0.829142,
2,1,0,1,0,23446,0.827749,0.827481,30.6456,35,0.729627,10,0.0253586,-1.51363,0.132161,0.446427,0.813996,
2,1,0,1,0,23449.8,0.808772,0.808487,22.9275,35,0.830931,10,0.0185366,-1.63964,0.114139,0.516914,0.798399,
2,1,0,1,0,23453.6,0.789795,0.789475,16.4734,35,0.904988,10,0.0130054,-1.78322,0.113108,0.521623,0.782227,
2,1,0,1,0,23457.4,0.770818,0.770534,11.4892,35,0.957602,10,0.00885285,-1.93971,0.101062,0.583798,0.765479,
2,1,0,1,0,23461.2,0.751841,0.751588,7.71177,35,0.993634,10,0.00579607,-2.11285,0.0945854,0.623775,0.748195,
2,1,0,1,0,23465,0.732865,0.732608,4.90736,35,1.01725,10,0.00359517,-2.30915,0.0836319,0.705473,0.730449,
2,1,0,0,0,23468.8,0.713887,0.713586,2.91474,35,1.0318,10,0.00207992,-2.5354,0.074433,0.792659,0.712303,
2,1,0,1,0,23472.6,0.69491,0.69466,1.56755,35,1.04008,10,0.00108891,-2.80478,0.0621012,0.950062,0.69397,
2,1,0,0,0,23476.4,0.675933,0.675654,0.736018,35,1.04427,10,0.000497293,-3.13311,0.0509168,1.15875,0.67533,
2,1,0,1,0,23480.2,0.656956,0.656708,0.280816,35,1.04605,10,0.000184414,-3.55158,0.0384167,1.53579,0.656584,
2,1,0,0,0,23484,0.637979,0.637696,0.0617591,35,1.0466,10,3.93835e-05,-4.2093,0.0198108,2.97817,0.637669,
2,0,0,1,0,23487.7,0.619002,0.618732,-0.0337826,35,1.04658,10,-2.09024e-05,-4.47131,-0.023862,-2.47255,0.618746,
2,0,0,0,0,23491.5,0.600025,0.599752,-0.0761428,35,1.04631,10,-4.56668e-05,-4.11837,-0.118067,-0.499716,0.599786,
2,0,0,1,0,23495.3,0.581047,0.580743,-0.095842,35,1.04593,10,-5.56596e-05,-4.01844,-0.481865,-0.122441,0.580785,
2,0,0,1,0,23499.1,0.56207,0.561739,-0.106243,35,1.04551,10,-5.96806e-05,-3.9737,-0.456149,-0.129344,0.561786,
2,0,0,1,0,23502.9,0.543093,0.54278,-0.111624,35,1.04505,10,-6.05871e-05,-3.95224,-0.77238,-0.0763873,0.542829,
2,0,0,1,0,23506.7,0.524116,0.523826,-0.116615,35,1.04457,10,-6.1086e-05,-3.93325,-0.78891,-0.0747868,0.523878,
2,0,0,1,0,23510.5,0.505139,0.504872,-0.121236,35,1.04408,10,-6.12086e-05,-3.91637,-0.904049,-0.0652619,0.504925,
2,0,0,1,0,23514.3,0.486162,0.485856,-0.126075,35,1.04356,10,-6.12545e-05,-3.89937,-1.59407,-0.0370123,0.485911,
2,0,0,1,0,23518.1,0.467185,0.46689,-0.133138,35,1.04302,10,-6.2161e-05,-3.8757,-2.81317,-0.0209728,0.466949,
2,0,0,1,0,23521.9,0.448208,0.447895,-0.13937,35,1.04245,10,-6.2423e-05,-3.85583,-0.599687,-0.0983846,0.447956,
2,0,0,0,0,23525.7,0.429231,0.428953,-0.146578,35,1.04186,10,-6.28751e-05,-3.83393,-1.10251,-0.0535145,0.429017,
2,0,0,1,0,23529.5,0.410254,0.409903,-0.15582,35,1.04124,10,-6.38711e-05,-3.80738,-1.38339,-0.0426489,0.409972,
2,0,0,0,0,23533.3,0.391277,0.39095,-0.165425,35,1.04058,10,-6.46729e-05,-3.7814,-0.637382,-0.0925662,0.391023,
2,0,0,1,0,23537.1,0.3723,0.371975,-0.174723,35,1.03988,10,-6.49927e-05,-3.75765,-0.592612,-0.0995593,0.372052,
2,0,0,1,0,23540.9,0.353322,0.353017,-0.184312,35,1.03914,10,-6.50652e-05,-3.73445,-0.532435,-0.110812,0.353098,
2,0,0,1,0,23544.7,0.334345,0.334045,-0.197021,35,1.03836,10,-6.58137e-05,-3.70549,-0.65943,-0.0894712,0.334132,
2,0,0,1,0,23548.5,0.315368,0.31504,-0.207867,35,1.03754,10,-6.54866e-05,-3.68221,-0.593668,-0.0993821,0.315132,
2,0,0,1,0,23552.3,0.296391,0.296103,-0.219952,35,1.03667,10,-6.51283e-05,-3.65767,-0.849176,-0.0694791,0.2962,
2,0,0,1,0,23556.1,0.277414,0.277102,-0.231403,35,1.03575,10,-6.4122e-05,-3.63563,-0.654726,-0.090114,0.277203,
2,0,0,1,0,23559.9,0.258437,0.258157,-0.244997,35,1.03479,10,-6.32475e-05,-3.61084,-0.862842,-0.0683787,0.258264,
2,0,0,1,0,23563.7,0.239461,0.239169,-0.257909,35,1.03378,10,-6.16839e-05,-3.58853,-0.92011,-0.0641228,0.239283,
2,0,0,0,0,23567.5,0.220483,0.220161,-0.26776,35,1.03272,10,-5.89502e-05,-3.57225,-0.770172,-0.0766063,0.220279,
2,0,0,1,0,23571.2,0.201506,0.201228,-0.283104,35,1.03162,10,-5.69686e-05,-3.54805,-0.41986,-0.140523,0.201353,
2,0,0,0,0,23575,0.182529,0.182193,-0.302708,35,1.03045,10,-5.51512e-05,-3.51898,-0.33729,-0.174924,0.182326,
2,0,0,1,0,23578.8,0.163552,0.163228,-0.342754,35,1.02917,10,-5.59469e-05,-3.46502,-0.248391,-0.237529,0.163378,
2,0,0,0,0,23582.6,0.144575,0.144271,-0.465916,35,1.02762,10,-6.7218e-05,-3.33169,-0.0918595,-0.642285,0.144476,
2,0,0,1,0,23586.4,0.125598,0.125281,-0.705223,35,1.0253,10,-8.83509e-05,-3.15167,-0.214696,-0.274807,0.125591,
2,0,0,1,0,23590.2,0.10662,0.106299,-0.730807,35,1.02245,10,-7.76841e-05,-3.1362,0.820354,0.0719201,0.106621,
2,0,0,1,0,23594,0.0876433,0.0873487,-0.678259,35,1.01971,10,-5.92451e-05,-3.1686,0.577409,0.102181,0.0876471,
2,0,0,1,0,23597.8,0.0686664,0.0683795,-0.629874,35,1.01717,10,-4.30705e-05,-3.20075,0.64757,0.0911098,0.0686566,
2,0,0,1,0,23601.6,0.0496895,0.0493738,-0.583229,35,1.01479,10,-2.87962e-05,-3.23416,0.618287,0.0954249,0.0496304,
2,0,0,1,0,23605.4,0.0307126,0.0303969,-0.534191,35,1.01259,10,-1.62377e-05,-3.2723,0.546341,0.107991,0.0306319,
2,0,0,1,0,23609.2,0.0117356,0.0114148,-0.500478,35,1.01057,10,-5.71283e-06,-3.30062,1.06463,0.0554185,0.011635,
2,0,0,0,0,23611.5,0.000274105,-7.36095e-05,-0.501729,35,1.00938,10,3.6932e-08,-3.29953, , ,0.000147151,