File: Figure_codes/Fig_3-5/workspace_calculate_alpha_eff/20221101_1-115_003_TrumpetPlot_ParaChange_from10_every3_16_CV_C01_101.csv
mode,ox/red,error,control changes,counter inc.,time/s,control/V,Ewe/V,<I>/mA,cycle number,(Q-Qo)/C,I Range,P/W,log(|I|),Tafel slope mV/dec,alpha_eff,E-IR/V,
2,0,0,0,0,66984.4,2.44065e-05,-0.000268062,-0.102574,102,0.0000000E+000,10,2.74962e-08,-3.98896, , ,-0.000222929,
2,1,0,1,0,66988.2,0.0187763,0.0184458,0.200346,102,0.000643279,10,3.69554e-06,-3.69822,0.157523,0.374549,0.0183577,
2,1,0,1,0,66992,0.0377538,0.0374008,0.262888,102,0.00157159,10,9.83221e-06,-3.58023,0.197411,0.298869,0.0372851,
2,1,0,0,0,66995.8,0.0567309,0.0563714,0.321194,102,0.00273686,10,1.81062e-05,-3.49323,0.30954,0.190605,0.0562301,
2,1,0,1,0,66999.6,0.075708,0.0753729,0.366568,102,0.00410049,10,2.76293e-05,-3.43584,0.414322,0.142401,0.0752116,
2,1,0,0,0,67003.4,0.094685,0.094387,0.416858,102,0.00562577,10,3.93459e-05,-3.38001,0.256443,0.230071,0.0942036,
2,1,0,1,0,67007.2,0.113662,0.113334,0.507077,102,0.0074282,10,5.74692e-05,-3.29493,0.32413,0.182026,0.113111,
2,1,0,0,0,67010.9,0.132639,0.132335,0.53957,102,0.00949091,10,7.14038e-05,-3.26795,-0.446387,-0.132172,0.132097,
2,1,0,1,0,67014.7,0.151617,0.151321,0.353095,102,0.0112912,10,5.34306e-05,-3.45211,-0.080982,-0.728557,0.151165,
2,1,0,1,0,67018.5,0.170594,0.170291,0.270927,102,0.0124767,10,4.61364e-05,-3.56715,-0.324877,-0.181607,0.170172,
2,1,0,1,0,67022.3,0.189571,0.189241,0.256108,102,0.0135178,10,4.84663e-05,-3.59158,-0.850554,-0.0693666,0.189129,
2,1,0,1,0,67026.1,0.208547,0.208237,0.249837,102,0.0145207,10,5.20254e-05,-3.60234,-1.59934,-0.0368903,0.208127,
2,1,0,1,0,67029.9,0.227524,0.227211,0.245869,102,0.0155036,10,5.58642e-05,-3.6093,-1.05419,-0.0559671,0.227103,
2,1,0,1,0,67033.7,0.246501,0.246205,0.241605,102,0.016472,10,5.94844e-05,-3.61689,-4.32078,-0.013655,0.246099,
2,1,0,0,0,67037.5,0.265479,0.265157,0.238781,102,0.0174261,10,6.33143e-05,-3.622,-0.901002,-0.0654826,0.265052,
2,1,0,1,0,67041.3,0.284456,0.284123,0.23471,102,0.018365,10,6.66865e-05,-3.62947,-3.61689,-0.0163124,0.28402,
2,1,0,0,0,67045.1,0.303433,0.303122,0.231836,102,0.0192888,10,7.02744e-05,-3.63482,-1.55454,-0.0379533,0.30302,
2,1,0,1,0,67048.9,0.32241,0.322103,0.227239,102,0.0201983,10,7.31944e-05,-3.64352,14.1842,0.00415955,0.322003,
2,1,0,0,0,67052.7,0.341387,0.341074,0.224998,102,0.0210949,10,7.6741e-05,-3.64782,-2.08135,-0.028347,0.340975,
2,1,0,1,0,67056.5,0.360364,0.360046,0.223937,102,0.0219816,10,8.06277e-05,-3.64987,-10.0595,-0.00586512,0.359948,
2,1,0,1,0,67060.3,0.379342,0.379059,0.222589,102,0.0228604,10,8.43744e-05,-3.6525,-14.831,-0.00397814,0.378961,
2,1,0,1,0,67064.1,0.398319,0.397989,0.220136,102,0.0237322,10,8.76116e-05,-3.65731,-3.66065,-0.0161173,0.397892,
2,1,0,1,0,67067.9,0.417295,0.416997,0.21926,102,0.0245987,10,9.14308e-05,-3.65904,16.0602,0.00367368,0.4169,
2,1,0,1,0,67071.7,0.436272,0.435966,0.2187,102,0.0254619,10,9.53458e-05,-3.66015,1.75497,0.0336188,0.43587,
2,1,0,1,0,67075.5,0.455249,0.45494,0.218932,102,0.0263235,10,9.96008e-05,-3.65969,1.66623,0.0354094,0.454844,
2,1,0,1,0,67079.3,0.474226,0.473937,0.21926,102,0.0271865,10,0.000103915,-3.65904,2.15902,0.0273273,0.47384,
2,1,0,1,0,67083.1,0.493203,0.492887,0.222692,102,0.0280548,10,0.000109762,-3.6523,1.79348,0.032897,0.492789,
2,1,0,0,0,67086.9,0.512181,0.511914,0.226917,102,0.0289341,10,0.000116162,-3.64413,1.73621,0.033982,0.511814,
2,1,0,1,0,67090.6,0.531158,0.53086,0.232123,102,0.0298317,10,0.000123225,-3.63428,1.34156,0.0439788,0.530758,
2,1,0,0,0,67094.4,0.550135,0.549827,0.240095,102,0.0307538,10,0.000132011,-3.61962,1.26347,0.046697,0.549722,
2,1,0,1,0,67098.2,0.569112,0.568837,0.251987,102,0.0317126,10,0.00014334,-3.59862,0.515609,0.114428,0.568726,
2,1,0,0,0,67102,0.588089,0.587802,0.270087,102,0.0327272,10,0.000158758,-3.5685,0.49616,0.118913,0.587683,
2,1,0,1,0,67105.8,0.607066,0.606747,0.300637,102,0.0338306,10,0.00018241,-3.52196,0.308155,0.191462,0.606615,
2,1,0,1,0,67109.6,0.626043,0.625735,0.354273,102,0.0350883,10,0.000221681,-3.45066,0.208764,0.282616,0.625579,
2,1,0,1,0,67113.4,0.64502,0.644764,0.461805,102,0.0366402,10,0.000297755,-3.33554,0.13837,0.426392,0.644561,
2,1,0,1,0,67117.2,0.663997,0.663761,0.677417,102,0.0387803,10,0.000449643,-3.16914,0.101505,0.581255,0.663463,
2,1,0,1,0,67121,0.682974,0.682671,1.08689,102,0.0420791,10,0.00074199,-2.96381,0.0866324,0.681039,0.682193,
2,1,0,1,0,67124.8,0.701951,0.701667,1.7786,102,0.0474457,10,0.00124798,-2.74992,0.089431,0.659727,0.700884,
2,1,0,1,0,67128.6,0.720928,0.720675,2.79543,102,0.056044,10,0.0020146,-2.55355,0.09892,0.596441,0.719445,
2,1,0,1,0,67132.4,0.739905,0.739602,4.15508,102,0.0691405,10,0.00307311,-2.38142,0.111172,0.530707,0.737774,
2,1,0,0,0,67136.2,0.758883,0.758634,5.91461,102,0.0881396,10,0.00448703,-2.22807,0.123729,0.476847,0.756032,
2,1,0,1,0,67140,0.77786,0.777575,8.15703,102,0.114678,10,0.00634271,-2.08847,0.128221,0.460144,0.773986,
2,1,0,0,0,67143.8,0.796837,0.796597,11.1185,102,0.151017,10,0.00885694,-1.95395,0.131531,0.448562,0.791705,
2,1,0,1,0,67147.6,0.815814,0.815544,15.082,102,0.200415,10,0.0123,-1.82154,0.132839,0.444148,0.808908,
2,1,0,0,0,67151.4,0.834791,0.834534,19.7864,102,0.26656,10,0.0165124,-1.70363,0.144333,0.408778,0.825828,
2,1,0,0,0,67155.1,0.846726,0.84648,22.6754,102,0.348652,10,0.0191943,-1.64444,0.109197,0.54031,0.836503,
2,1,0,1,0,67158.9,0.827749,0.827507,16.6119,102,0.422583,10,0.0137465,-1.77958,0.122371,0.482141,0.820198,
2,1,0,1,0,67162.7,0.808772,0.808483,12.5809,102,0.476639,10,0.0101714,-1.90029,0.488156,0.120863,0.802947,
2,1,0,1,0,67166.5,0.789795,0.789499,9.0633,102,0.517579,10,0.00715547,-2.04271,0.115255,0.51191,0.785512,
2,1,0,1,0,67170.3,0.770818,0.770525,6.34453,102,0.546519,10,0.00488861,-2.1976,0.113983,0.517622,0.767733,
2,1,0,1,0,67174,0.751841,0.75157,4.36497,102,0.566616,10,0.00328058,-2.36002,0.107785,0.547385,0.749649,
2,1,0,1,0,67177.8,0.732865,0.732569,2.88378,102,0.580206,10,0.00211257,-2.54004,0.095692,0.616562,0.7313,
2,1,0,0,0,67181.6,0.713887,0.713614,1.78028,102,0.588924,10,0.00127043,-2.74951,0.0802137,0.735535,0.71283,
2,1,0,1,0,67185.4,0.69491,0.694636,0.987732,102,0.594056,10,0.000686114,-3.00536,0.0661173,0.892353,0.694202,
2,1,0,0,0,67189.2,0.675933,0.675667,0.465769,102,0.596709,10,0.000314705,-3.33183,0.0500143,1.17966,0.675462,
2,1,0,1,0,67193,0.656956,0.656705,0.163044,102,0.597814,10,0.000107072,-3.78769,0.0322783,1.82786,0.656633,
2,1,0,0,0,67196.8,0.637979,0.637713,0.00831325,102,0.598075,10,5.30146e-06,-5.08023,0.00437642,13.4813,0.637709,
2,0,0,1,0,67200.6,0.619002,0.618733,-0.0599085,102,0.597933,10,-3.70674e-05,-4.22251,-0.0551826,-1.06918,0.618759,
2,0,0,0,0,67204.4,0.600025,0.599728,-0.0910701,102,0.59761,10,-5.46173e-05,-4.04062,-0.220522,-0.267547,0.599768,
2,0,0,1,0,67208.2,0.581047,0.580756,-0.106376,102,0.597205,10,-6.17786e-05,-3.97316,-0.369745,-0.15957,0.580803,
2,0,0,1,0,67212,0.56207,0.56175,-0.114186,102,0.596758,10,-6.41442e-05,-3.94239,-0.425363,-0.138705,0.5618,
2,0,0,1,0,67215.8,0.543093,0.542791,-0.120314,102,0.596286,10,-6.53053e-05,-3.91968,-1.61181,-0.0366049,0.542844,
2,0,0,1,0,67219.6,0.524116,0.52382,-0.12439,102,0.595794,10,-6.51581e-05,-3.90521,-2.79422,-0.021115,0.523875,
2,0,0,1,0,67223.4,0.505139,0.504835,-0.129097,102,0.595284,10,-6.51725e-05,-3.88908,-0.799266,-0.0738177,0.504891,
2,0,0,1,0,67227.2,0.486162,0.485881,-0.134237,102,0.594756,10,-6.52233e-05,-3.87213,-1.51783,-0.0388714,0.48594,
2,0,0,1,0,67231,0.467185,0.466885,-0.139695,102,0.594206,10,-6.52213e-05,-3.85482,-1.07171,-0.0550522,0.466946,
2,0,0,1,0,67234.8,0.448208,0.447929,-0.146787,102,0.593631,10,-6.57502e-05,-3.83331,-0.777746,-0.0758602,0.447993,
2,0,0,0,0,67238.6,0.429231,0.428921,-0.154066,102,0.593028,10,-6.60822e-05,-3.81229,-1.77512,-0.0332371,0.428989,
2,0,0,1,0,67242.4,0.410254,0.409916,-0.164207,102,0.592393,10,-6.73113e-05,-3.78461,-3.23025,-0.0182649,0.409988,
2,0,0,0,0,67246.2,0.391277,0.390984,-0.172722,102,0.591722,10,-6.75314e-05,-3.76265,-0.706589,-0.0834998,0.39106,
2,0,0,1,0,67250,0.3723,0.372016,-0.182339,102,0.591013,10,-6.78331e-05,-3.73912,-0.654618,-0.090129,0.372097,
2,0,0,1,0,67253.8,0.353322,0.353051,-0.191696,102,0.590267,10,-6.76785e-05,-3.71739,-0.889159,-0.0663549,0.353136,
2,0,0,1,0,67257.5,0.334345,0.334072,-0.2027,102,0.589478,10,-6.77164e-05,-3.69315,-0.794255,-0.0742834,0.334162,
2,0,0,1,0,67261.3,0.315368,0.315009,-0.214294,102,0.588646,10,-6.75046e-05,-3.66899,-0.753389,-0.0783128,0.315103,
2,0,0,1,0,67265.1,0.296391,0.296048,-0.225602,102,0.587772,10,-6.67889e-05,-3.64666,-0.823688,-0.071629,0.296147,
2,0,0,1,0,67268.9,0.277414,0.277121,-0.237307,102,0.586851,10,-6.57626e-05,-3.62469,-0.817661,-0.0721571,0.277225,
2,0,0,1,0,67272.7,0.258437,0.258118,-0.24957,102,0.585884,10,-6.44186e-05,-3.60281,-0.85096,-0.0693335,0.258228,
2,0,0,1,0,67276.5,0.239461,0.239125,-0.260309,102,0.584873,10,-6.22463e-05,-3.58451,-0.819697,-0.0719778,0.239239,
2,0,0,0,0,67280.3,0.220483,0.220197,-0.271422,102,0.58382,10,-5.97662e-05,-3.56636,-0.657306,-0.0897604,0.220316,
2,0,0,1,0,67284.1,0.201506,0.201204,-0.283709,102,0.58272,10,-5.70834e-05,-3.54713,-0.398547,-0.148038,0.201329,
2,0,0,0,0,67287.9,0.182529,0.182213,-0.30217,102,0.581563,10,-5.50594e-05,-3.51975,-0.571069,-0.103315,0.182346,
2,0,0,1,0,67291.7,0.163552,0.163219,-0.329873,102,0.580323,10,-5.38416e-05,-3.48165,-0.355332,-0.166042,0.163364,
2,0,0,0,0,67295.5,0.144575,0.144224,-0.404636,102,0.578908,10,-5.83583e-05,-3.39294,-0.139227,-0.423769,0.144402,
2,0,0,1,0,67299.3,0.125598,0.125261,-0.590884,102,0.576983,10,-7.40146e-05,-3.2285,-0.154381,-0.382171,0.125521,
2,0,0,1,0,67303.1,0.10662,0.106284,-0.660921,102,0.5745,10,-7.02457e-05,-3.17985,-2.60766,-0.0226257,0.106575,
2,0,0,1,0,67306.9,0.0876433,0.0872948,-0.648083,102,0.571951,10,-5.65742e-05,-3.18837,0.950908,0.062046,0.0875799,
2,0,0,1,0,67310.7,0.0686664,0.0683485,-0.61259,102,0.569502,10,-4.18696e-05,-3.21283,0.706291,0.083535,0.068618,
2,0,0,1,0,67314.5,0.0496895,0.0493348,-0.572084,102,0.567195,10,-2.82237e-05,-3.24254,0.584154,0.101001,0.0495865,
2,0,0,1,0,67318.3,0.0307126,0.030433,-0.526666,102,0.565054,10,-1.60281e-05,-3.27846,0.558177,0.105701,0.0306648,
2,0,0,1,0,67322.1,0.0117356,0.0114413,-0.498325,102,0.563063,10,-5.70147e-06,-3.30249,1.3344,0.0442146,0.0116605,
2,0,0,0,0,67324.4,0.000274105,-9.38898e-05,-0.501245,102,0.561889,10,4.70618e-08,-3.29995, , ,0.000126658,