File: Figure_codes/Fig_3-5/workspace_calculate_alpha_eff/20221101_1-115_002_TrumpetPlot_ParaChange_18_CV_C01_6.csv
mode,ox/red,error,control changes,counter inc.,time/s,control/V,Ewe/V,<I>/mA,cycle number,(Q-Qo)/C,I Range,P/W,log(|I|),Tafel slope mV/dec,alpha_eff,E-IR/V,
2,1,0,0,0,8640.06,2.44065e-05,-0.000344411,0.0710625,7,0.0000000E+000,10,-2.44747e-08,-4.14836, , ,-0.000401261,
2,1,0,1,0,8643.81,0.0187763,0.0184795,0.266362,7,0.000973845,10,4.92223e-06,-3.57453,0.347923,0.169578,0.0182664,
2,1,0,1,0,8647.61,0.0377538,0.0374251,0.309641,7,0.00214455,10,1.15883e-05,-3.50914,0.230654,0.255795,0.0371774,
2,1,0,0,0,8651.4,0.0567309,0.0564446,0.38137,7,0.0035333,10,2.15262e-05,-3.41865,0.191091,0.308754,0.0561395,
2,1,0,1,0,8655.2,0.075708,0.0754492,0.463391,7,0.00522853,10,3.49625e-05,-3.33405,0.288187,0.204728,0.0750785,
2,1,0,0,0,8658.99,0.0946851,0.0943966,0.529189,7,0.00719346,10,4.99537e-05,-3.27639,0.295147,0.1999,0.0939732,
2,1,0,1,0,8662.79,0.113662,0.113343,0.663012,7,0.00949901,10,7.51477e-05,-3.17848,0.160277,0.368113,0.112812,
2,1,0,0,0,8666.58,0.132639,0.132344,0.81901,7,0.0124067,10,0.000108391,-3.08671,0.352749,0.167258,0.131689,
2,1,0,1,0,8670.38,0.151617,0.151332,0.713113,7,0.0155523,10,0.000107917,-3.14684,-0.0893396,-0.660401,0.150762,
2,1,0,1,0,8674.17,0.170594,0.170315,0.422877,7,0.0177047,10,7.20221e-05,-3.37379,-0.118271,-0.498855,0.169976,
2,1,0,1,0,8677.97,0.189571,0.189246,0.337225,7,0.0191935,10,6.38183e-05,-3.47208,-0.361912,-0.163023,0.188976,
2,1,0,1,0,8681.76,0.208547,0.208285,0.308299,7,0.0204858,10,6.4214e-05,-3.51103,-0.634173,-0.0930346,0.208038,
2,1,0,1,0,8685.56,0.227524,0.227261,0.29219,7,0.021696,10,6.64035e-05,-3.53433,-0.632294,-0.0933111,0.227027,
2,1,0,1,0,8689.36,0.246501,0.246238,0.281742,7,0.0228615,10,6.93756e-05,-3.55015,-0.74702,-0.0789804,0.246013,
2,1,0,0,0,8693.15,0.265479,0.265207,0.276823,7,0.0239996,10,7.34154e-05,-3.5578,-1.2929,-0.045634,0.264985,
2,1,0,1,0,8696.95,0.284456,0.284193,0.272624,7,0.0251182,10,7.7478e-05,-3.56444,-0.685166,-0.0861106,0.283975,
2,1,0,0,0,8700.74,0.303433,0.303169,0.267623,7,0.0262186,10,8.11351e-05,-3.57248,-1.0022,-0.0588703,0.302955,
2,1,0,1,0,8704.54,0.32241,0.322166,0.263447,7,0.0273016,10,8.48737e-05,-3.57931,-0.897318,-0.0657515,0.321955,
2,1,0,0,0,8708.33,0.341387,0.341089,0.260164,7,0.0283694,10,8.8739e-05,-3.58475,-1.46322,-0.0403221,0.34088,
2,1,0,1,0,8712.13,0.360364,0.360062,0.256613,7,0.0294233,10,9.23967e-05,-3.59072,-4.1346,-0.0142698,0.359857,
2,1,0,1,0,8715.92,0.379342,0.379066,0.252687,7,0.0304635,10,9.5785e-05,-3.59742,-1.02373,-0.0576326,0.378864,
2,1,0,1,0,8719.72,0.398319,0.398022,0.250124,7,0.0314916,10,9.95547e-05,-3.60185,-57.1275,-0.00103278,0.397822,
2,1,0,1,0,8723.51,0.417295,0.41699,0.248174,7,0.0325111,10,0.000103486,-3.60524,39.6939,0.00148638,0.416792,
2,1,0,1,0,8727.31,0.436272,0.436014,0.248795,7,0.0335263,10,0.000108478,-3.60416,11.914,0.00495218,0.435815,
2,1,0,1,0,8731.1,0.455249,0.454971,0.24989,7,0.0345402,10,0.000113693,-3.60225,1.50772,0.039132,0.454771,
2,1,0,1,0,8734.9,0.474226,0.473958,0.249869,7,0.0355578,10,0.000118428,-3.60229,4.24074,0.0139127,0.473758,
2,1,0,1,0,8738.7,0.493203,0.492947,0.253445,7,0.0365853,10,0.000124935,-3.59612,0.93169,0.0633258,0.492744,
2,1,0,0,0,8742.49,0.512181,0.511897,0.260067,7,0.0376289,10,0.000133127,-3.58491,1.14506,0.0515258,0.511689,
2,1,0,1,0,8746.29,0.531158,0.530887,0.269086,7,0.0386996,10,0.000142855,-3.57011,0.86237,0.0684161,0.530672,
2,1,0,0,0,8750.08,0.550135,0.549843,0.284079,7,0.0398144,10,0.000156199,-3.54656,0.58676,0.100552,0.549616,
2,1,0,1,0,8753.88,0.569112,0.568862,0.309834,7,0.0410044,10,0.000176252,-3.50887,0.37824,0.155985,0.568614,
2,1,0,0,0,8757.67,0.588089,0.587819,0.354902,7,0.0423237,10,0.000208618,-3.44989,0.25646,0.230056,0.587535,
2,1,0,1,0,8761.47,0.607066,0.606786,0.445877,7,0.0438905,10,0.000270552,-3.35078,0.159321,0.370322,0.606429,
2,1,0,1,0,8765.26,0.626044,0.625784,0.63517,7,0.0459661,10,0.000397479,-3.19711,0.0976412,0.604253,0.625276,
2,1,0,1,0,8769.06,0.64502,0.644756,1.06359,7,0.0491562,10,0.000685758,-2.97322,0.07301,0.808108,0.643906,
2,1,0,1,0,8772.85,0.663997,0.663724,2.01593,7,0.054845,10,0.00133802,-2.69553,0.0626975,0.941027,0.662111,
2,1,0,1,0,8776.65,0.682974,0.682706,3.91689,7,0.0658176,10,0.00267408,-2.40706,0.0603655,0.977379,0.679572,
2,1,0,1,0,8780.45,0.701951,0.701669,7.10879,7,0.086402,10,0.00498802,-2.1482,0.068792,0.857658,0.695982,
2,1,0,1,0,8784.24,0.720928,0.720653,11.4096,7,0.121344,10,0.00822234,-1.94273,0.084825,0.69555,0.711526,
2,1,0,1,0,8788.04,0.739905,0.73964,16.5274,7,0.17413,10,0.0122243,-1.7818,0.0950673,0.620613,0.726418,
2,1,0,0,0,8791.83,0.758883,0.758592,22.8697,7,0.248596,10,0.0173488,-1.64074,0.10419,0.566275,0.740296,
2,1,0,1,0,8795.63,0.77786,0.77759,31.2683,7,0.349872,10,0.0243139,-1.5049,0.131495,0.448685,0.752575,
2,1,0,0,0,8799.42,0.796837,0.796558,38.7596,7,0.482538,10,0.0308742,-1.41162,0.179098,0.329428,0.765551,
2,1,0,1,0,8803.22,0.815814,0.815539,45.6907,7,0.64221,10,0.0372625,-1.34017,0.196527,0.300213,0.778986,
2,1,0,0,0,8807.01,0.834791,0.834577,52.6353,7,0.829073,10,0.0439282,-1.27872,0.299243,0.197164,0.792469,
2,1,0,0,0,8810.71,0.846727,0.846474,55.797,7,1.0351,10,0.0472307,-1.25339,0.233533,0.252641,0.801836,
2,1,0,1,0,8814.5,0.827749,0.827521,48.525,7,1.23376,10,0.0401555,-1.31403,0.171486,0.344052,0.788701,
2,1,0,1,0,8818.3,0.808772,0.808578,40.5202,7,1.40271,10,0.0327638,-1.39233,0.156954,0.375907,0.776162,
2,1,0,1,0,8822.1,0.789795,0.789499,32.3331,7,1.54107,10,0.025527,-1.49035,0.1148,0.513938,0.763633,
2,1,0,1,0,8825.89,0.770818,0.770551,23.8716,7,1.64752,10,0.0183943,-1.62212,0.0975401,0.60488,0.751454,
2,1,0,1,0,8829.69,0.751841,0.751591,16.8466,7,1.7244,10,0.0126617,-1.77349,0.0770581,0.765656,0.738114,
2,1,0,1,0,8833.48,0.732865,0.732581,10.9943,7,1.7766,10,0.00805419,-1.95883,0.074925,0.787454,0.723786,
2,1,0,0,0,8837.28,0.713887,0.71363,6.58124,7,1.80946,10,0.00469657,-2.18169,0.0645345,0.91424,0.708366,
2,1,0,1,0,8841.07,0.69491,0.694634,3.53943,7,1.82817,10,0.00245861,-2.45107,0.0579702,1.01777,0.691803,
2,1,0,0,0,8844.87,0.675933,0.675703,1.68829,7,1.8377,10,0.00114079,-2.77255,0.0513182,1.14969,0.674352,
2,1,0,1,0,8848.66,0.656956,0.656678,0.741724,7,1.84203,10,0.000487074,-3.12976,0.0468365,1.2597,0.656085,
2,1,0,0,0,8852.46,0.637979,0.637722,0.27721,7,1.84378,10,0.000176783,-3.55719,0.0403046,1.46385,0.637501,
2,1,0,1,0,8856.25,0.619002,0.6187,0.0741028,7,1.84432,10,4.58474e-05,-4.13017,0.0264116,2.23387,0.61864,
2,1,0,0,0,8860.05,0.600025,0.59974,-0.0141941,7,1.84433,10,-8.51278e-06,-4.84789,-0.0108519,-5.43686,0.599751,
2,0,0,1,0,8863.85,0.581047,0.580744,-0.0526132,7,1.84413,10,-3.05548e-05,-4.27891,-0.104221,-0.566105,0.580786,
2,0,0,1,0,8867.64,0.56207,0.561844,-0.0717975,7,1.84382,10,-4.0339e-05,-4.14389,-0.226035,-0.261021,0.561901,
2,0,0,1,0,8871.44,0.543093,0.542789,-0.0841226,7,1.84345,10,-4.56609e-05,-4.07509,-0.444707,-0.132672,0.542857,
2,0,0,1,0,8875.23,0.524116,0.523831,-0.0905293,7,1.84305,10,-4.7422e-05,-4.04321,-0.519629,-0.113543,0.523903,
2,0,0,1,0,8879.03,0.505139,0.504862,-0.0967728,7,1.84262,10,-4.88569e-05,-4.01425,-1.04116,-0.0566674,0.50494,
2,0,0,1,0,8882.82,0.486162,0.485886,-0.102347,7,1.84217,10,-4.97288e-05,-3.98993,-1.29715,-0.0454843,0.485968,
2,0,0,1,0,8886.62,0.467185,0.466917,-0.109057,7,1.8417,10,-5.09205e-05,-3.96235,-1.12157,-0.052605,0.467004,
2,0,0,1,0,8890.41,0.448208,0.44793,-0.11685,7,1.8412,10,-5.23404e-05,-3.93237,-0.382796,-0.154129,0.448023,
2,0,0,0,0,8894.21,0.429231,0.428968,-0.124296,7,1.84067,10,-5.33191e-05,-3.90554,1.58671,0.0371839,0.429067,
2,0,0,1,0,8898,0.410254,0.409997,-0.135975,7,1.8401,10,-5.57492e-05,-3.86654,-1.15321,-0.0511616,0.410106,
2,0,0,0,0,8901.8,0.391277,0.390978,-0.146347,7,1.8395,10,-5.72185e-05,-3.83462,-0.587408,-0.100441,0.391096,
2,0,0,1,0,8905.59,0.3723,0.371988,-0.157112,7,1.83885,10,-5.84437e-05,-3.80379,-0.608762,-0.096918,0.372113,
2,0,0,1,0,8909.39,0.353322,0.353017,-0.168376,7,1.83816,10,-5.94396e-05,-3.77372,-0.430727,-0.136978,0.353151,
2,0,0,1,0,8913.19,0.334345,0.334079,-0.179888,7,1.83742,10,-6.00968e-05,-3.745,-0.764753,-0.0771491,0.334223,
2,0,0,1,0,8916.98,0.315368,0.315075,-0.192919,7,1.83664,10,-6.0784e-05,-3.71462,-0.617119,-0.0956055,0.31523,
2,0,0,1,0,8920.78,0.296391,0.296085,-0.204885,7,1.83581,10,-6.06632e-05,-3.68849,-0.652164,-0.090468,0.296249,
2,0,0,1,0,8924.57,0.277414,0.277139,-0.217501,7,1.83493,10,-6.02779e-05,-3.66254,-0.640311,-0.0921427,0.277313,
2,0,0,1,0,8928.37,0.258437,0.258126,-0.229454,7,1.83401,10,-5.92278e-05,-3.63931,-1.05301,-0.0560298,0.258309,
2,0,0,1,0,8932.16,0.239461,0.239182,-0.242899,7,1.83304,10,-5.8097e-05,-3.61457,-0.616785,-0.0956573,0.239376,
2,0,0,0,0,8935.96,0.220483,0.220203,-0.25859,7,1.83201,10,-5.69424e-05,-3.58739,-0.43484,-0.135682,0.22041,
2,0,0,1,0,8939.75,0.201506,0.201199,-0.27946,7,1.83092,10,-5.6227e-05,-3.55368,-0.314274,-0.187734,0.201422,
2,0,0,0,0,8943.55,0.182529,0.182243,-0.316154,7,1.82972,10,-5.76168e-05,-3.5001,-0.196669,-0.299996,0.182496,
2,0,0,1,0,8947.34,0.163552,0.163241,-0.422236,7,1.82827,10,-6.89264e-05,-3.37444,-0.101918,-0.578898,0.163579,
2,0,0,0,0,8951.14,0.144575,0.144278,-0.736368,7,1.82606,10,-0.000106242,-3.1329,-0.0820912,-0.718713,0.144867,
2,0,0,1,0,8954.94,0.125598,0.125252,-0.900887,7,1.82274,10,-0.000112838,-3.04533,1.04081,0.0566868,0.125973,
2,0,0,1,0,8958.73,0.10662,0.106328,-0.783054,7,1.81944,10,-8.32605e-05,-3.10621,0.263441,0.223959,0.106954,
2,0,0,1,0,8962.53,0.0876433,0.0873354,-0.676723,7,1.81662,10,-5.91019e-05,-3.16959,0.447489,0.131847,0.0878768,
2,0,0,1,0,8966.32,0.0686664,0.0683994,-0.620167,7,1.81408,10,-4.2419e-05,-3.20749,0.537273,0.109814,0.0688955,
2,0,0,1,0,8970.12,0.0496895,0.0493643,-0.545677,7,1.81178,10,-2.6937e-05,-3.26306,0.370701,0.159158,0.0498008,
2,0,0,1,0,8973.91,0.0307126,0.0304194,-0.490114,7,1.80974,10,-1.4909e-05,-3.3097,0.677423,0.0870948,0.0308115,
2,0,0,1,0,8977.71,0.0117356,0.0114074,-0.476904,7,1.80784,10,-5.44021e-06,-3.32157,-3.7426,-0.0157645,0.0117889,
2,0,0,0,0,8980,0.000274105,-9.03109e-05,-0.488008,7,1.80668,10,4.40724e-08,-3.31157, , ,0.000300095,