File: Figure_codes/Fig_3-5/rawdata_trumpetplot_data/before 10th/20221101_1-115_002_TrumpetPlot_ParaChange_09_CV_C01_7.csv
mode,ox/red,error,control changes,counter inc.,time/s,control/V,Ewe/V,<I>/mA,cycle number,(Q-Qo)/C,I Range,P/W,log(|I|),Tafel slope mV/dec,alpha_eff,dI/d(E-IR),E-IR/V,
2,0,0,1,0,9805.69,2.44065e-05,-0.00013445,-4.36666,8,0.0000000E+000,11,5.87099e-07,-2.35985, , , ,-0.00013445,
2,1,0,1,0,9805.81,0.007288,0.00697055,2.14802,8,6.70987e-05,11,1.49729e-05,-2.66796,0.035557,1.65931,133.259,0.00697055,
2,1,0,1,0,9805.93,0.0147816,0.0144996,2.54557,8,0.000367479,11,3.69098e-05,-2.59421,0.207825,0.283893,28.1721,0.01449959,
2,1,0,1,0,9806.06,0.0222712,0.0219692,2.72161,8,0.000696975,11,5.97915e-05,-2.56517,0.275198,0.214391,22.7105,0.0219692,
2,1,0,1,0,9806.18,0.0297648,0.029473,2.8933,8,0.00104732,11,8.52741e-05,-2.53861,0.255217,0.231175,26.047,0.029473,
2,1,0,1,0,9806.31,0.0372518,0.0369191,3.08468,8,0.00142038,11,0.000113884,-2.51079,0.261065,0.225997,27.2925,0.0369191,
2,1,0,1,0,9806.43,0.0447467,0.0444218,3.32871,8,0.00182154,11,0.000147867,-2.47772,0.230168,0.256334,33.394,0.0444218,
2,1,0,1,0,9806.56,0.052235,0.0519066,3.62571,8,0.00225553,11,0.000188198,-2.44061,0.195627,0.301594,42.6198,0.0519066,
2,1,0,1,0,9806.68,0.0597299,0.059426,3.94212,8,0.00272824,11,0.000234265,-2.40427,0.199344,0.29597,45.4832,0.05942601,
2,1,0,1,0,9806.81,0.0672156,0.0669386,4.26795,8,0.00324098,11,0.000285691,-2.36978,0.221304,0.266601,44.3858,0.0669386,
2,1,0,1,0,9806.93,0.0747105,0.0744335,4.5748,8,0.00379425,11,0.000340519,-2.33963,0.288444,0.204546,36.5388,0.0744335,
2,1,0,1,0,9807.06,0.0821988,0.0819658,4.86087,8,0.00438394,11,0.000398425,-2.31329,0.338249,0.174428,33.0468,0.0819658,
2,1,0,1,0,9807.18,0.0896937,0.0894024,5.12269,8,0.00500765,11,0.00045798,-2.2905,0.316149,0.186621,37.3118,0.0894024,
2,1,0,1,0,9807.31,0.0971794,0.0969072,5.39042,8,0.00566455,11,0.000522371,-2.26838,0.277824,0.212365,44.8147,0.0969072,
2,1,0,1,0,9807.43,0.104674,0.104414,5.76993,8,0.0063615,11,0.000602462,-2.23883,0.233061,0.253153,57.0543,0.104414,
2,1,0,1,0,9807.56,0.112163,0.11183,6.28291,8,0.0071123,11,0.000702616,-2.20184,0.192081,0.307162,75.2482,0.11183,
2,1,0,1,0,9807.68,0.119657,0.119348,6.89976,8,0.00793487,11,0.00082347,-2.16117,0.190831,0.309174,83.1433,0.119348,
2,1,0,1,0,9807.81,0.127143,0.126801,7.48416,8,0.00883402,11,0.000948999,-2.12586,0.228441,0.258273,75.5079,0.126801,
2,1,0,1,0,9807.93,0.134638,0.134328,8.00603,8,0.00980393,11,0.00107544,-2.09658,0.314074,0.187854,58.7418,0.134328,
2,1,0,1,0,9808.06,0.142126,0.141834,8.38475,8,0.0108295,11,0.00118924,-2.07651,0.516896,0.114143,37.2732,0.1418339,
2,1,0,1,0,9808.18,0.149621,0.14935,8.41853,8,0.0118849,11,0.00125731,-2.07476,-0.528041,-0.111734,-36.5554,0.14935,
2,1,0,1,0,9808.31,0.157107,0.156846,7.6798,8,0.0128994,11,0.00120455,-2.11465,-0.109005,-0.541258,-161.435,0.156846,
2,1,0,1,0,9808.43,0.164602,0.164302,6.1495,8,0.0137682,11,0.00101037,-2.21116,-0.0636344,-0.927171,-222.463,0.164302,
2,1,0,1,0,9808.56,0.17209,0.171816,4.74555,8,0.0144426,11,0.000815363,-2.32371,-0.074077,-0.796469,-148.136,0.171816,
2,1,0,1,0,9808.68,0.179585,0.179287,3.93302,8,0.0149798,11,0.000705138,-2.40527,-0.113844,-0.518252,-79.6379,0.179287,
2,1,0,1,0,9808.81,0.187072,0.186799,3.44361,8,0.0154382,11,0.000643261,-2.46299,-0.165778,-0.355897,-47.948,0.186799,
2,1,0,1,0,9808.93,0.194566,0.194269,3.14767,8,0.0158491,11,0.000611493,-2.50201,-0.230371,-0.256108,-31.5115,0.194269,
2,1,0,1,0,9809.06,0.202055,0.201739,2.95908,8,0.0162296,11,0.000596962,-2.52884,-0.29283,-0.201482,-23.2347,0.201739,
2,1,0,1,0,9809.18,0.209549,0.20924,2.8361,8,0.0165911,11,0.000593427,-2.54728,-0.409992,-0.143905,-15.8969,0.20924,
2,1,0,1,0,9809.31,0.217036,0.216758,2.73045,8,0.0169388,11,0.000591846,-2.56377,-0.877209,-0.0672588,-7.20542,0.216758,
2,1,0,1,0,9809.43,0.224529,0.224207,2.66794,8,0.0172773,11,0.000598171,-2.57382,-0.645706,-0.0913729,-9.55411,0.224207,
2,1,0,1,0,9809.55,0.232019,0.231772,2.62552,8,0.0176082,11,0.00060852,-2.58079,-0.900315,-0.0655326,-6.70751,0.231772,
2,1,0,1,0,9809.68,0.239513,0.239234,2.58632,8,0.0179337,11,0.000618735,-2.58732,-1.11311,-0.0530046,-5.32873,0.239234,
2,1,0,1,0,9809.8,0.247001,0.246713,2.54602,8,0.0182539,11,0.000628134,-2.59414,-2.01329,-0.0293052,-2.9069,0.246713,
2,1,0,1,0,9809.93,0.254493,0.254213,2.50328,8,0.01857,11,0.000636364,-2.60149,-1.07693,-0.0547856,-5.37265,0.254213,
2,1,0,1,0,9810.05,0.261983,0.261665,2.47672,8,0.0188819,11,0.000648072,-2.60612,-0.896788,-0.0657904,-6.37007,0.261665,
2,1,0,1,0,9810.18,0.269477,0.269216,2.45495,8,0.0191902,11,0.000660911,-2.60996,-3.0323,-0.0194572,-1.85879,0.269216,
2,1,0,1,0,9810.3,0.276965,0.276699,2.423,8,0.0194949,11,0.000670441,-2.61565,-4.63162,-0.0127385,-1.20455,0.276699,
2,1,0,1,0,9810.43,0.284457,0.284152,2.39101,8,0.0197963,11,0.000679411,-2.62142,-1.54228,-0.0382551,-3.5787,0.284152,
2,1,0,1,0,9810.55,0.291947,0.291668,2.36898,8,0.0200941,11,0.000690956,-2.62544,-0.821679,-0.0718042,-6.64008,0.291668,
2,1,0,1,0,9810.68,0.29944,0.299154,2.34409,8,0.0203888,11,0.000701246,-2.63002,-0.00354726,-16.6326,-906.534,0.299154,
2,0,0,1,0,9810.79,0.293742,0.293387,-0.901392,8,0.02038,11,-0.000264457,-3.04509,-0.0387845,-1.52123,51.3671,0.293387,
2,0,0,1,0,9810.92,0.286254,0.285923,-1.11383,8,0.0202522,11,-0.00031847,-2.95318,-0.10768,-0.547918,24.0155,0.285923,
2,0,0,1,0,9811.04,0.278761,0.278538,-1.26598,8,0.0201018,11,-0.000352622,-2.89757,-0.20418,-0.288961,14.3398,0.278538,
2,0,0,1,0,9811.17,0.271272,0.270953,-1.39139,8,0.0199353,11,-0.000377001,-2.85655,-0.220191,-0.267949,14.4614,0.270953,
2,0,0,1,0,9811.29,0.263778,0.263453,-1.48654,8,0.0197553,11,-0.000391632,-2.82782,-0.230178,-0.256323,14.8113,0.263453,
2,0,0,1,0,9811.42,0.25629,0.255988,-1.57069,8,0.0195643,11,-0.000402076,-2.80391,-0.366309,-0.161066,9.84976,0.2559877,
2,0,0,1,0,9811.54,0.248797,0.24847,-1.64436,8,0.019363,11,-0.000408574,-2.784,-0.487898,-0.120927,7.78523,0.24847,
2,0,0,1,0,9811.67,0.241308,0.241015,-1.71908,8,0.0191524,11,-0.000414322,-2.76471,-0.448983,-0.131408,8.82809,0.241015,
2,0,0,1,0,9811.79,0.233814,0.233496,-1.79608,8,0.0189327,11,-0.000419377,-2.74568,-0.367558,-0.160519,11.2273,0.233496,
2,0,0,1,0,9811.92,0.226326,0.226001,-1.8614,8,0.018704,11,-0.000420678,-2.73016,-0.337969,-0.174572,12.718,0.226001,
2,0,0,1,0,9812.04,0.218834,0.218521,-1.93862,8,0.018466,11,-0.00042363,-2.71251,-0.420486,-0.140314,10.6343,0.218521,
2,0,0,1,0,9812.17,0.211344,0.211024,-2.02901,8,0.0182183,11,-0.000428169,-2.69272,-0.552711,-0.106747,8.4235,0.211024,
2,0,0,1,0,9812.29,0.203856,0.203511,-2.12377,8,0.0179595,11,-0.000432211,-2.67289,-0.414889,-0.142207,11.7489,0.203511,
2,0,0,1,0,9812.42,0.196362,0.196018,-2.2239,8,0.0176883,11,-0.000435926,-2.65288,-0.294443,-0.200378,17.4106,0.196018,
2,0,0,1,0,9812.54,0.18887,0.188541,-2.35675,8,0.0174017,11,-0.000444344,-2.62769,-0.256206,-0.230284,21.2681,0.188541,
2,0,0,1,0,9812.66,0.18138,0.181074,-2.55009,8,0.0170956,11,-0.000461755,-2.59344,-0.21913,-0.269246,26.7847,0.1810741,
2,0,0,1,0,9812.79,0.173892,0.173561,-2.80774,8,0.0167623,11,-0.000487314,-2.55164,-0.149888,-0.393628,43.0254,0.173561,
2,0,0,1,0,9812.91,0.166398,0.16601,-3.17979,8,0.0163901,11,-0.000527876,-2.4976,-0.121067,-0.487332,60.5,0.16601,
2,0,0,1,0,9813.04,0.158905,0.158652,-3.73617,8,0.0159597,11,-0.00059275,-2.42757,-0.0919925,-0.641356,94.0963,0.158652,
2,0,0,1,0,9813.16,0.151417,0.151086,-4.60337,8,0.0154411,11,-0.000695504,-2.33692,-0.0807874,-0.730312,131.484,0.151086,
2,0,0,1,0,9813.29,0.143927,0.143608,-5.74932,8,0.0147971,11,-0.00082565,-2.24038,-0.0798866,-0.738547,165.365,0.143608,
2,0,0,1,0,9813.41,0.136435,0.136095,-6.96619,8,0.0140025,11,-0.000948063,-2.157,-0.102734,-0.574299,155.687,0.136095,
2,0,0,1,0,9813.54,0.128941,0.128605,-7.94147,8,0.0130672,11,-0.00102131,-2.1001,-0.168124,-0.350932,108.657,0.128605,
2,0,0,1,0,9813.66,0.121453,0.121138,-8.50962,8,0.0120346,11,-0.00103084,-2.07009,-0.513898,-0.114809,38.0567,0.121138,
2,0,0,1,0,9813.79,0.113963,0.113636,-8.59738,8,0.0109618,11,-0.00097697,-2.06563,0.988598,0.0596805,-19.9881,0.113636,
2,0,0,1,0,9813.91,0.106471,0.106184,-8.26256,8,0.00990455,11,-0.000877349,-2.08289,0.290601,0.203027,-65.4152,0.106184,
2,0,0,1,0,9814.04,0.0989825,0.0986761,-7.64121,8,0.0089092,11,-0.000754004,-2.11684,0.191194,0.308586,-92.0204,0.0986761,
2,0,0,1,0,9814.16,0.0914889,0.0911553,-6.9598,8,0.00799796,11,-0.000634423,-2.1574,0.191386,0.308278,-83.7549,0.0911553,
2,0,0,1,0,9814.29,0.0839993,0.0836697,-6.43588,8,0.0071642,11,-0.000538488,-2.19139,0.248598,0.237331,-59.5828,0.0836697,
2,0,0,1,0,9814.41,0.076507,0.0761925,-6.0911,8,0.00638348,11,-0.000464096,-2.2153,0.377142,0.15644,-37.1638,0.0761925,
2,0,0,1,0,9814.54,0.0690187,0.0687112,-5.8186,8,0.00564022,11,-0.000399803,-2.23518,0.424943,0.138842,-31.6001,0.0687112,
2,0,0,1,0,9814.66,0.0615251,0.0612114,-5.57622,8,0.00492693,11,-0.000341328,-2.25366,0.355879,0.165787,-36.1802,0.0612114,
2,0,0,1,0,9814.79,0.0540355,0.0537183,-5.30915,8,0.0042465,11,-0.000285199,-2.27498,0.303993,0.194084,-40.1601,0.0537183,
2,0,0,1,0,9814.91,0.0465432,0.0462339,-4.98122,8,0.00360321,11,-0.000230301,-2.30266,0.263601,0.223823,-43.4515,0.0462339,
2,0,0,1,0,9815.04,0.0390549,0.0387115,-4.63055,8,0.00300337,11,-0.000179256,-2.33437,0.242372,0.243428,-43.9894,0.0387115,
2,0,0,1,0,9815.16,0.0315613,0.0312111,-4.33604,8,0.00244381,11,-0.000135332,-2.36291,0.276227,0.213592,-36.1629,0.03121105,
2,0,0,1,0,9815.29,0.0240717,0.0237667,-4.12729,8,0.0019161,11,-9.80921e-05,-2.38434,0.426582,0.138309,-22.3196,0.0237667,
2,0,0,1,0,9815.41,0.0165781,0.0162736,-4.0168,8,0.00140784,11,-6.53678e-05,-2.39612,1.23642,0.0477186,-7.48165,0.0162736,
2,0,0,1,0,9815.54,0.00909108,0.00876853,-3.96795,8,0.000909609,11,-3.4793e-05,-2.40143,-35.7908,-0.00164847,0.255684,0.00876853,
2,0,0,1,0,9815.66,0.00159616,0.00125377,-4.02582,8,0.000412506,11,-5.04743e-06,-2.39515, , , ,0.00125377,
2,0,0,0,0,9815.68,0.000199195,-0.000182169,-4.01167,8,0.000318768,11,7.308e-07,-2.39668, , , ,-0.000182169,