File: Figure_codes/Fig_3-5/rawdata_trumpetplot_data/before 10th/20221101_1-115_002_TrumpetPlot_ParaChange_09_CV_C01.mpt
EC-Lab ASCII FILE
Nb header lines : 68

Cyclic Voltammetry

Run on channel : 1 (SN 65296)
User :
CE vs. WE compliance from -10 V to 10 V
Electrode connection : standard
Potential control : Ewe
Ewe ctrl range : min = -1.00 V, max = 1.00 V
Safety Limits :
	Do not start on E overload
Acquisition started on : 11/08/2022 17:30:03.488
Loaded Setting File :  NONE
Saved on :
	File : 20221101_1-115_002_TrumpetPlot_ParaChange_09_CV_C01.mpr
	Directory : C:\Users\NakamuraT\Documents\EC-Lab\Data\Yatsuzuka\20221108_1-115_001_TrumpetPlot\
	Host : 192.109.209.100
Device : SP-50e (SN .003219)
Address : 192.109.209.128
EC-Lab for windows v11.43 (software)
Internet server v11.40 (firmware)
Command interpretor v11.40 (firmware)
Electrode material : Au/Pd
Initial state :
Electrolyte : NaCl (0.2M)
Comments : Fe(CN)63-/Fe(CN)64- 5.10-3 M
Reference electrode : SCE Saturated Calomel Electrode (0.241 V)
Electrode surface area : 0.001 cm2
Characteristic mass : 0.001 g
Equivalent Weight : 0.000 g/eq.
Density : 0.000 g/cm3
Volume (V) : 0.001 cm3
Cycle Definition : Charge/Discharge alternance
Ei (V)              0.000
vs.                 Ref
dE/dt               60.000
dE/dt unit          mV/s
E1 (V)              0.300
vs.                 Ref
Step percent        50
N                   10
E range min (V)     -1.000
E range max (V)     1.000
I Range             10 mA
I Range min         Unset
I Range max         Unset
I Range init        Unset
Bandwidth           5
E2 (V)              0.000
vs.                 Ref
nc cycles           0
Reverse Scan        0
Ef (V)              0.000
vs.                 Eoc

Number of loops : 8
Loop 0 from point number 0 to 1204
Loop 1 from point number 1205 to 2409
Loop 2 from point number 2410 to 3614
Loop 3 from point number 3615 to 4819
Loop 4 from point number 4820 to 6024
Loop 5 from point number 6025 to 7229
Loop 6 from point number 7230 to 8434
Loop 7 from point number 8435 to 9639

mode	ox/red	error	control changes	counter inc.	time/s	control/V	Ewe/V	<I>/mA	cycle number	(Q-Qo)/C	I Range	P/W
2	0	0	0	0	1184.29	2.44065e-05	1.82482e-05	-3.87168	1	0.0000000E+000	11	-7.06514e-08
2	1	0	1	0	1184.87	0.0347561	0.0345017	2.78631	1	0.00134213	11	9.61325e-05
2	1	0	1	0	1185.45	0.0697126	0.0693999	3.44203	1	0.0031141	11	0.000238877
2	1	0	1	0	1186.03	0.104674	0.104408	5.06221	1	0.00556694	11	0.000528533
2	1	0	1	0	1186.62	0.139631	0.139279	9.39632	1	0.00957197	11	0.00130871
2	1	0	1	0	1187.2	0.174587	0.174322	5.98604	1	0.0150431	11	0.0010435
2	1	0	1	0	1187.78	0.209549	0.209243	3.07384	1	0.0173551	11	0.00064318
2	1	0	1	0	1188.36	0.244504	0.244213	2.62663	1	0.0189857	11	0.000641457
2	1	0	1	0	1188.95	0.279459	0.279203	2.44623	1	0.0204584	11	0.000682993
2	0	0	1	0	1189.52	0.286254	0.285918	-1.15319	1	0.0211	11	-0.000329719
2	0	0	1	0	1190.1	0.251298	0.251005	-1.67411	1	0.0202593	11	-0.00042021
2	0	0	1	0	1190.68	0.216337	0.216046	-2.1072	1	0.0191612	11	-0.000455252
2	0	0	1	0	1191.27	0.18138	0.181097	-3.19352	1	0.0176759	11	-0.000578337
2	0	0	1	0	1191.85	0.146424	0.146133	-8.00212	1	0.0147059	11	-0.00116938
2	0	0	1	0	1192.43	0.111462	0.111172	-8.49047	1	0.00908979	11	-0.000943901
2	0	0	1	0	1193.01	0.076507	0.0761744	-5.00487	1	0.00547838	11	-0.000381243
2	0	0	1	0	1193.6	0.0415519	0.0412664	-3.88119	1	0.0029555	11	-0.000160163
2	0	0	1	0	1194.18	0.00658877	0.00628895	-3.955	1	0.000707069	11	-2.48728e-05
2	1	0	1	0	2416.37	0.0272691	0.0269793	2.75975	2	0.00102017	11	7.44563e-05
2	1	0	1	0	2416.95	0.0622243	0.0619576	3.41585	2	0.00277693	11	0.000211638
2	1	0	1	0	2417.54	0.0971794	0.0968758	4.96119	2	0.0052077	11	0.00048062
2	1	0	1	0	2418.12	0.132141	0.131888	8.36136	2	0.00887769	11	0.00110276
2	1	0	1	0	2418.7	0.167098	0.16679	7.73342	2	0.0144344	11	0.00128986
2	1	0	1	0	2419.29	0.202055	0.20178	3.22705	2	0.01709	11	0.000651155
2	1	0	1	0	2419.87	0.237012	0.236717	2.67231	2	0.0187705	11	0.00063258
2	1	0	1	0	2420.45	0.271973	0.271701	2.4841	2	0.0202648	11	0.000674932
2	0	0	1	0	2421.02	0.293742	0.293446	-0.979272	2	0.0213409	11	-0.000287363
2	0	0	1	0	2421.6	0.258787	0.258506	-1.58904	2	0.0205662	11	-0.000410777
2	0	0	1	0	2422.19	0.223832	0.223554	-1.99162	2	0.0195236	11	-0.000445235
2	0	0	1	0	2422.77	0.18887	0.188571	-2.75446	2	0.0181758	11	-0.000519411
2	0	0	1	0	2423.35	0.153912	0.153559	-6.27203	2	0.0158168	11	-0.000963127
2	0	0	1	0	2423.93	0.118956	0.11868	-9.81417	2	0.0105628	11	-0.00116475
2	0	0	1	0	2424.52	0.0839993	0.0836589	-5.63279	2	0.00633514	11	-0.000471233
2	0	0	1	0	2425.1	0.0490376	0.048756	-4.15824	2	0.00349754	11	-0.000202739
2	0	0	1	0	2425.68	0.0140824	0.0137646	-3.92074	2	0.00120455	11	-5.39675e-05
2	1	0	1	0	3647.88	0.0197742	0.0195082	2.59815	3	0.000612135	11	5.06852e-05
2	1	0	1	0	3648.46	0.054732	0.0544313	3.2453	3	0.00228691	11	0.000176646
2	1	0	1	0	3649.04	0.0896937	0.0893939	4.74225	3	0.00459196	11	0.000423928
2	1	0	1	0	3649.62	0.124649	0.124387	7.10808	3	0.00790082	11	0.000884156
2	1	0	1	0	3650.21	0.159604	0.15934	9.25189	3	0.0130823	11	0.0014742
2	1	0	1	0	3650.79	0.194566	0.19429	3.50679	3	0.0164087	11	0.000681333
2	1	0	1	0	3651.37	0.229522	0.22926	2.70763	3	0.0181636	11	0.000620752
2	1	0	1	0	3651.95	0.264479	0.264202	2.50339	3	0.0196795	11	0.000661402
2	1	0	1	0	3652.54	0.29944	0.299196	2.36802	3	0.0210978	11	0.000708504
2	0	0	1	0	3653.11	0.266279	0.265977	-1.45401	3	0.020523	11	-0.000386734
2	0	0	1	0	3653.69	0.231317	0.231036	-1.85781	3	0.0195564	11	-0.000429222
2	0	0	1	0	3654.27	0.196362	0.196093	-2.40735	3	0.0183347	11	-0.000472065
2	0	0	1	0	3654.86	0.161407	0.161113	-4.54216	3	0.0164759	11	-0.000731802
2	0	0	1	0	3655.44	0.126445	0.126087	-9.64442	3	0.0121776	11	-0.00121604
2	0	0	1	0	3656.02	0.0914889	0.0911457	-6.35541	3	0.00734015	11	-0.000579268
2	0	0	1	0	3656.6	0.0565325	0.0561966	-4.69641	3	0.00412911	11	-0.000263922
2	0	0	1	0	3657.19	0.0215761	0.0212565	-3.89195	3	0.00171115	11	-8.27292e-05
2	1	0	1	0	4879.38	0.0122859	0.0120077	2.44257	4	0.000280256	11	2.93296e-05
2	1	0	1	0	4879.96	0.0472424	0.0469921	3.11436	4	0.00189277	11	0.000146351
2	1	0	1	0	4880.54	0.0821988	0.0819482	4.55049	4	0.00409276	11	0.000372904
2	1	0	1	0	4881.13	0.117161	0.116888	6.39458	4	0.00720592	11	0.00074745
2	1	0	1	0	4881.71	0.152117	0.151814	9.34003	4	0.0119614	11	0.00141795
2	1	0	1	0	4882.29	0.187072	0.186762	3.98378	4	0.0158284	11	0.000744019
2	1	0	1	0	4882.87	0.222034	0.221769	2.80287	4	0.0177148	11	0.000621591
2	1	0	1	0	4883.46	0.25699	0.25671	2.53119	4	0.0192617	11	0.000649782
2	1	0	1	0	4884.04	0.291947	0.291675	2.38923	4	0.0206984	11	0.00069688
2	0	0	1	0	4884.61	0.273769	0.273461	-1.3359	4	0.0206019	11	-0.000365315
2	0	0	1	0	4885.19	0.238812	0.238496	-1.7663	4	0.019688	11	-0.000421255
2	0	0	1	0	4885.78	0.203856	0.20357	-2.21523	4	0.0185404	11	-0.000450954
2	0	0	1	0	4886.36	0.168894	0.168554	-3.54433	4	0.0169602	11	-0.000597413
2	0	0	1	0	4886.94	0.133938	0.133665	-8.61064	4	0.0135405	11	-0.00115094
2	0	0	1	0	4887.52	0.0989825	0.0986909	-7.26643	4	0.00843124	11	-0.00071713
2	0	0	1	0	4888.11	0.0640207	0.0636835	-5.31114	4	0.00487039	11	-0.000338232
2	0	0	1	0	4888.69	0.0290643	0.0287555	-3.98992	4	0.00222298	11	-0.000114732
2	1	0	1	0	6110.88	0.00479233	0.00449096	1.70893	5	-1.13993e-05	11	7.67473e-06
2	1	0	1	0	6111.47	0.0397541	0.0394668	2.98955	5	0.00151308	11	0.000117988
2	1	0	1	0	6112.05	0.0747105	0.0744567	4.33093	5	0.00360803	11	0.000322467
2	1	0	1	0	6112.63	0.109667	0.109389	5.88597	5	0.00656603	11	0.000643858
2	1	0	1	0	6113.21	0.144623	0.144308	8.97866	5	0.0109119	11	0.00129569
2	1	0	1	0	6113.8	0.179585	0.179313	4.56403	5	0.0152666	11	0.00081839
2	1	0	1	0	6114.38	0.21454	0.214303	2.88586	5	0.017292	11	0.000618446
2	1	0	1	0	6114.96	0.249495	0.249186	2.56304	5	0.018866	11	0.000638674
2	1	0	1	0	6115.54	0.284457	0.284177	2.41113	5	0.0203178	11	0.000685187
2	0	0	1	0	6116.11	0.281262	0.280933	-1.22562	5	0.0206828	11	-0.000344318
2	0	0	1	0	6116.7	0.246301	0.246012	-1.68594	5	0.0198174	11	-0.000414761
2	0	0	1	0	6117.28	0.211344	0.21105	-2.08217	5	0.0187234	11	-0.000439442
2	0	0	1	0	6117.86	0.176388	0.176028	-2.95199	5	0.0173108	11	-0.000519633
2	0	0	1	0	6118.45	0.141426	0.141146	-7.10964	5	0.0146342	11	-0.0010035
2	0	0	1	0	6119.03	0.106471	0.106206	-8.322	5	0.00961751	11	-0.000883842
2	0	0	1	0	6119.61	0.0715157	0.0711898	-5.7809	5	0.00567514	11	-0.000411541
2	0	0	1	0	6120.19	0.0365539	0.0362416	-4.2417	5	0.00275293	11	-0.000153726
2	0	0	1	0	6120.78	0.00159616	0.0012842	-4.03798	5	0.000415234	11	-5.18558e-06
2	1	0	1	0	7342.97	0.0322605	0.0319918	2.8809	6	0.0011747	11	9.21651e-05
2	1	0	1	0	7343.55	0.0672156	0.0669419	4.12472	6	0.00316606	11	0.000276116
2	1	0	1	0	7344.13	0.102177	0.101872	5.55678	6	0.00599632	11	0.000566077
2	1	0	1	0	7344.72	0.137134	0.136833	8.40458	6	0.0100157	11	0.00115002
2	1	0	1	0	7345.3	0.17209	0.171821	5.19496	6	0.0146285	11	0.000892601
2	1	0	1	0	7345.88	0.207048	0.206787	2.9524	6	0.0167702	11	0.000610516
2	1	0	1	0	7346.46	0.24201	0.241748	2.58535	6	0.0183581	11	0.000625001
2	1	0	1	0	7347.05	0.276965	0.276701	2.42834	6	0.0198151	11	0.000671927
2	0	0	1	0	7347.62	0.288751	0.288417	-1.07859	6	0.0206127	11	-0.000311085
2	0	0	1	0	7348.2	0.253795	0.253479	-1.60055	6	0.0198085	11	-0.000405707
2	0	0	1	0	7348.78	0.218834	0.218557	-1.96002	6	0.018768	11	-0.000428377
2	0	0	1	0	7349.37	0.183877	0.183555	-2.56852	6	0.0174723	11	-0.000471465
2	0	0	1	0	7349.95	0.14892	0.148623	-5.53115	6	0.0153469	11	-0.000822055
2	0	0	1	0	7350.53	0.113963	0.113644	-8.87455	6	0.0107417	11	-0.00100854
2	0	0	1	0	7351.11	0.0790014	0.078702	-6.08664	6	0.00645164	11	-0.00047903
2	0	0	1	0	7351.7	0.0440462	0.0437106	-4.62124	6	0.00330305	11	-0.000201997
2	0	0	1	0	7352.28	0.00909108	0.00879088	-3.93262	6	0.00089749	11	-3.45712e-05
2	1	0	1	0	8574.47	0.0247668	0.0244701	2.66678	7	0.00076907	11	6.52563e-05
2	1	0	1	0	8575.05	0.0597299	0.0594451	3.80532	7	0.00261612	11	0.000226207
2	1	0	1	0	8575.64	0.094685	0.0943656	5.21912	7	0.00526453	11	0.000492505
2	1	0	1	0	8576.22	0.12964	0.129343	7.60324	7	0.00890291	11	0.000983423
2	1	0	1	0	8576.8	0.164602	0.164289	6.49136	7	0.0135801	11	0.00106646
2	1	0	1	0	8577.39	0.199558	0.1993	3.07966	7	0.0160191	11	0.000613778
2	1	0	1	0	8577.97	0.234515	0.234213	2.62982	7	0.0176565	11	0.00061594
2	1	0	1	0	8578.55	0.269477	0.269162	2.46045	7	0.0191395	11	0.000662258
2	0	0	1	0	8579.12	0.296243	0.295931	-0.644827	7	0.0203719	11	-0.000190825
2	0	0	1	0	8579.7	0.261281	0.260971	-1.48617	7	0.019678	11	-0.000387847
2	0	0	1	0	8580.29	0.226326	0.226062	-1.84779	7	0.0187055	11	-0.000417714
2	0	0	1	0	8580.87	0.191371	0.191065	-2.3149	7	0.0175093	11	-0.000442295
2	0	0	1	0	8581.45	0.156409	0.156083	-4.10216	7	0.0157874	11	-0.000640277
2	0	0	1	0	8582.04	0.121453	0.121198	-8.53828	7	0.0119577	11	-0.00103482
2	0	0	1	0	8582.62	0.0864963	0.0861673	-6.51763	7	0.00739043	11	-0.000561607
2	0	0	1	0	8583.2	0.0515399	0.0512331	-5.14698	7	0.00400604	11	-0.000263696
2	0	0	1	0	8583.78	0.0165781	0.0162342	-3.99369	7	0.00142089	11	-6.48343e-05
2	1	0	1	0	9805.98	0.0172786	0.0169985	2.6115	8	0.000475076	11	4.43916e-05
2	1	0	1	0	9806.56	0.052235	0.0519066	3.62571	8	0.00225553	11	0.000188198
2	1	0	1	0	9807.14	0.0871967	0.0868751	5.04061	8	0.00479624	11	0.000437903
2	1	0	1	0	9807.72	0.122152	0.121892	7.09913	8	0.00822616	11	0.000865327
2	1	0	1	0	9808.31	0.157107	0.156846	7.6798	8	0.0128994	11	0.00120455
2	1	0	1	0	9808.89	0.19207	0.191767	3.22445	8	0.0157163	11	0.000618342
2	1	0	1	0	9809.47	0.227026	0.226738	2.65501	8	0.0173884	11	0.000601993
2	1	0	1	0	9810.05	0.261983	0.261665	2.47672	8	0.0188819	11	0.000648072
2	1	0	1	0	9810.64	0.296939	0.296658	2.35725	8	0.0202907	11	0.000699297
2	0	0	1	0	9811.21	0.268776	0.268442	-1.42783	8	0.0198766	11	-0.000383288
2	0	0	1	0	9811.79	0.233814	0.233496	-1.79608	8	0.0189327	11	-0.000419377
2	0	0	1	0	9812.37	0.198858	0.198548	-2.18922	8	0.0177802	11	-0.000434666
2	0	0	1	0	9812.96	0.163903	0.16361	-3.33627	8	0.0162545	11	-0.000545847
2	0	0	1	0	9813.54	0.128941	0.128605	-7.94147	8	0.0130672	11	-0.00102131
2	0	0	1	0	9814.12	0.0939845	0.0937071	-7.1686	8	0.00829187	11	-0.000671749
2	0	0	1	0	9814.7	0.0590281	0.0586957	-5.50042	8	0.00469627	11	-0.000322851
2	0	0	1	0	9815.29	0.0240717	0.0237667	-4.12729	8	0.0019161	11	-9.80921e-05
2	0	0	1	0	9815.69	-2.44065e-05	-0.000287149	-4.01882	8	0.000306716	11	1.154e-06