File: Figure_codes/Fig_3-5/rawdata_trumpetplot_data/before 10th/20221101_1-115_002_TrumpetPlot_ParaChange_13_CV_C01_3.csv
mode,ox/red,error,control changes,counter inc.,time/s,control/V,Ewe/V,<I>/mA,cycle number,(Q-Qo)/C,I Range,P/W,log(|I|),Tafel slope mV/dec,alpha_eff,dI/d(E-IR),E-IR/V,
2,1,0,0,0,4909.08,2.44065e-05,-0.000535284,12.9819,4,0.0000000E+000,10,-6.94899e-06,-1.88666, , , ,-0.000535284,
2,1,0,1,0,4909.1,0.0100623,0.00973793,16.4827,4,0.000368695,10,0.000160507,-1.78297,0.126356,0.466935,297.929,0.009737934,
2,1,0,1,0,4909.13,0.0204636,0.0201787,18.5958,4,0.000828491,10,0.00037524,-1.73058,0.317594,0.185772,134.523,0.0201787,
2,1,0,1,0,4909.15,0.0308677,0.0305442,19.5891,4,0.00132652,10,0.000598332,-1.70799,0.66447,0.0887926,67.7842,0.0305442,
2,1,0,1,0,4909.18,0.0412635,0.0409775,20.1515,4,0.00184329,10,0.000825758,-1.69569,0.96378,0.0612173,48.095,0.0409775,
2,1,0,1,0,4909.21,0.051662,0.0513154,20.6979,4,0.00237416,10,0.00106212,-1.68407,0.746139,0.0790738,63.9874,0.0513154,
2,1,0,1,0,4909.23,0.0620633,0.0617413,21.5199,4,0.00292258,10,0.00132866,-1.66716,0.51781,0.113941,95.8159,0.0617413,
2,1,0,1,0,4909.26,0.0724674,0.0721736,22.7554,4,0.00349744,10,0.00164234,-1.64292,0.389475,0.151486,134.543,0.0721736,
2,1,0,1,0,4909.28,0.0828632,0.0825168,24.2939,4,0.00410866,10,0.00200466,-1.6145,0.34672,0.170166,161.516,0.0825168,
2,1,0,1,0,4909.31,0.0932618,0.0929745,26.2511,4,0.00476514,10,0.00244068,-1.58085,0.310464,0.190038,194.629,0.0929745,
2,1,0,1,0,4909.34,0.103669,0.103347,28.3195,4,0.00547442,10,0.00292675,-1.54791,0.31765,0.185739,205.272,0.103347,
2,1,0,1,0,4909.36,0.114067,0.113773,30.5176,4,0.00623909,10,0.00347208,-1.51545,0.320931,0.18384,218.789,0.113773,
2,1,0,1,0,4909.39,0.124463,0.124128,32.8633,4,0.00706258,10,0.00407926,-1.48329,0.313644,0.188111,241.406,0.124128,
2,1,0,1,0,4909.41,0.134861,0.134502,35.6355,4,0.00795242,10,0.00479305,-1.44812,0.276183,0.213627,297.487,0.134502,
2,1,0,1,0,4909.44,0.145268,0.144985,39.0284,4,0.00892215,10,0.00565855,-1.40862,0.259372,0.227473,346.299,0.144985,
2,1,0,1,0,4909.47,0.155667,0.155368,42.7759,4,0.00998532,10,0.006646,-1.3688,0.266272,0.221578,369.758,0.155368,
2,1,0,1,0,4909.49,0.166063,0.16575,46.509,4,0.0111471,10,0.00770888,-1.33246,0.317736,0.185689,336.847,0.16575,
2,1,0,1,0,4909.52,0.176461,0.176154,49.5477,4,0.0123989,10,0.00872803,-1.30498,0.51949,0.113573,219.198,0.1761539,
2,1,0,1,0,4909.54,0.186868,0.186566,50.5671,4,0.0137069,10,0.0094341,-1.29613,-1.58353,-0.0372586,-73.2099,0.186566,
2,1,0,1,0,4909.57,0.197267,0.196943,47.3867,4,0.014991,10,0.00933248,-1.32434,-0.194573,-0.303228,-557.59,0.196943,
2,1,0,1,0,4909.6,0.207662,0.207406,39.3453,4,0.0161261,10,0.00816046,-1.40511,-0.0970317,-0.608049,-929.506,0.207406,
2,1,0,1,0,4909.62,0.218061,0.217832,29.5813,4,0.0170195,10,0.00644377,-1.52898,-0.0797837,-0.739499,-855.415,0.2178321,
2,1,0,1,0,4909.65,0.228468,0.228209,22.4089,4,0.0176864,10,0.00511392,-1.64958,-0.102028,-0.578272,-508.751,0.228209,
2,1,0,1,0,4909.67,0.238866,0.238561,18.803,4,0.0182152,10,0.00448567,-1.72577,-0.197643,-0.298519,-219.927,0.238561,
2,1,0,1,0,4909.7,0.249262,0.248999,17.2946,4,0.0186814,10,0.00430632,-1.76209,-0.40845,-0.144448,-97.6299,0.248999,
2,1,0,1,0,4909.73,0.259661,0.25935,16.5637,4,0.0191207,10,0.0042958,-1.78084,-0.725752,-0.0812949,-52.6151,0.25935,
2,1,0,1,0,4909.75,0.270068,0.269752,16.0921,4,0.0195451,10,0.00434087,-1.79339,-0.938076,-0.0628947,-39.5469,0.269752,
2,1,0,1,0,4909.78,0.280466,0.280162,15.708,4,0.0199584,10,0.00440079,-1.80388,-0.981241,-0.0601279,-36.8344,0.280162,
2,1,0,1,0,4909.8,0.290862,0.290596,15.3443,4,0.0203619,10,0.00445899,-1.81405,-0.980427,-0.0601778,-36.0112,0.290596,
2,1,0,0,0,4909.83,0.300012,0.299804,15.0363,4,0.0207098,10,0.00450793,-1.82286,0.000510634,115.543,53133.5,0.299804,
2,0,0,1,0,4909.85,0.290704,0.290406,-1.50948,4,0.0208213,10,-0.000438362,-2.82117,-0.021347,-2.76385,840.592,0.290406,
2,0,0,1,0,4909.88,0.280305,0.28006,-6.11696,4,0.0207091,10,-0.00171312,-2.21346,-0.0598264,-0.986186,230.162,0.28006,
2,0,0,1,0,4909.9,0.269909,0.269615,-7.68054,4,0.0205269,10,-0.00207079,-2.11461,-0.166095,-0.355218,106.015,0.269615,
2,0,0,1,0,4909.93,0.2595,0.259265,-8.57968,4,0.0203149,10,-0.00222441,-2.06653,-0.263067,-0.224278,74.8776,0.259265,
2,0,0,1,0,4909.95,0.249104,0.248801,-9.2691,4,0.0200827,10,-0.00230616,-2.03296,-0.35425,-0.166549,60.2454,0.248801,
2,0,0,1,0,4909.98,0.238705,0.238416,-9.91015,4,0.0198332,10,-0.00236273,-2.00392,-0.375168,-0.157263,60.9069,0.238416,
2,0,0,1,0,4910.01,0.22831,0.227993,-10.5421,4,0.0195671,10,-0.00240352,-1.97707,-0.374201,-0.157669,64.9202,0.227993,
2,0,0,1,0,4910.03,0.2179,0.217668,-11.2366,4,0.0192842,10,-0.00244584,-1.94937,-0.381565,-0.154627,67.6197,0.217668,
2,0,0,1,0,4910.06,0.207504,0.207216,-11.9587,4,0.018983,10,-0.00247805,-1.92231,-0.355085,-0.166158,77.6984,0.207216,
2,0,0,1,0,4910.08,0.197106,0.196834,-12.8627,4,0.0186605,10,-0.00253181,-1.89067,-0.29719,-0.198526,99.8406,0.196834,
2,0,0,1,0,4910.11,0.18671,0.186422,-14.0318,4,0.0183115,10,-0.00261583,-1.85289,-0.250383,-0.235639,128.953,0.186422,
2,0,0,1,0,4910.14,0.1763,0.175968,-15.6039,4,0.0179272,10,-0.00274579,-1.80677,-0.202347,-0.291579,177.875,0.1759683,
2,0,0,1,0,4910.16,0.165905,0.165613,-17.8221,4,0.0174941,10,-0.00295158,-1.74904,-0.162391,-0.36332,253.145,0.165613,
2,0,0,1,0,4910.19,0.155506,0.155213,-20.9482,4,0.0169922,10,-0.00325144,-1.67885,-0.139223,-0.42378,346.734,0.155213,
2,0,0,1,0,4910.21,0.145105,0.144861,-25.1601,4,0.016395,10,-0.00364473,-1.59929,-0.127092,-0.464231,456.043,0.144861,
2,0,0,1,0,4910.24,0.134701,0.134435,-30.3099,4,0.0156749,10,-0.00407472,-1.51842,-0.1355,-0.435425,514.53,0.134435,
2,0,0,1,0,4910.27,0.124305,0.124091,-35.7286,4,0.0148164,10,-0.0044336,-1.44698,-0.157471,-0.374672,521.879,0.1240911,
2,0,0,1,0,4910.29,0.113906,0.113708,-40.8426,4,0.0138186,10,-0.00464411,-1.38889,-0.207391,-0.284486,452.872,0.113708,
2,0,0,1,0,4910.32,0.103505,0.103218,-45.0532,4,0.0126991,10,-0.0046503,-1.34627,-0.303818,-0.194195,340.795,0.103218,
2,0,0,1,0,4910.34,0.0931008,0.0928409,-47.6576,4,0.0114895,10,-0.00442457,-1.32187,-0.694773,-0.0849198,157.612,0.0928409,
2,0,0,1,0,4910.37,0.0827051,0.0824086,-48.1346,4,0.0102389,10,-0.00396671,-1.31754,1.44791,0.0407483,-76.3307,0.0824086,
2,0,0,1,0,4910.4,0.0723065,0.0719859,-46.1868,4,0.00900831,10,-0.0033248,-1.33548,0.374626,0.15749,-283.413,0.0719859,
2,0,0,1,0,4910.42,0.0618996,0.0615685,-42.7345,4,0.00785119,10,-0.0026311,-1.36922,0.280974,0.209984,-350.158,0.0615685,
2,0,0,1,0,4910.45,0.0515011,0.0511882,-39.2333,4,0.0067871,10,-0.00200828,-1.40634,0.287669,0.205097,-313.882,0.0511882,
2,0,0,1,0,4910.47,0.0411053,0.0407644,-36.0561,4,0.00580924,10,-0.0014698,-1.44302,0.27311,0.21603,-303.923,0.0407644,
2,0,0,1,0,4910.5,0.0307068,0.0304328,-32.8309,4,0.00491325,10,-0.000999137,-1.48372,0.235464,0.250569,-321.064,0.03043283,
2,0,0,1,0,4910.53,0.0202999,0.0200345,-29.4531,4,0.00410399,10,-0.000590077,-1.53087,0.214231,0.275404,-316.567,0.0200345,
2,0,0,1,0,4910.55,0.00990136,0.00959372,-26.5631,4,0.00337835,10,-0.000254839,-1.57572,0.269464,0.218953,-227.221,0.00959372,
2,0,0,1,0,4910.58,-0.000494411,-0.000835379,-24.8154,4,0.00271346,10,2.07303e-05,-1.60528,0.499065,0.118221,-114.579,-0.000835379,
2,0,0,1,0,4910.6,-0.010893,-0.011221,-23.9868,4,0.002081,10,0.000269156,-1.62003,1.37494,0.0429109,-40.2276,-0.011221,
2,0,0,1,0,4910.63,-0.0212998,-0.0216597,-23.8384,4,0.00146048,10,0.000516331,-1.62272,-8.38524,-0.00703617,6.54519,-0.0216597,
2,0,0,1,0,4910.66,-0.0316984,-0.0320941,-24.0681,4,0.000838519,10,0.000772442,-1.61856,-1.62825,-0.0362353,34.0328,-0.0320941,
2,0,0,1,0,4910.68,-0.0420942,-0.0424108,-24.5086,4,0.000207295,10,0.00103943,-1.61068,-1.14712,-0.0514333,49.249,-0.0424108,
2,0,0,1,0,4910.71,-0.0524927,-0.0528409,-25.1107,4,-0.000437816,10,0.00132687,-1.60014,-0.909613,-0.0648628,63.5938,-0.0528409,
2,0,0,1,0,4910.73,-0.0628996,-0.0632796,-25.8081,4,-0.00109958,10,0.00163313,-1.58824,-0.869703,-0.0678393,68.2628,-0.0632796,
2,0,0,1,0,4910.76,-0.0732982,-0.0736291,-26.5434,4,-0.00177999,10,0.00195437,-1.57604,-0.780735,-0.0755698,78.3291,-0.0736291,
2,0,0,1,0,4910.79,-0.0836939,-0.0840137,-27.4061,4,-0.00248126,10,0.00230249,-1.56215,-0.722259,-0.0816882,87.3836,-0.0840137,
2,0,0,1,0,4910.81,-0.0940925,-0.0944195,-28.3895,4,-0.00320633,10,0.00268052,-1.54684,-0.649307,-0.090866,100.658,-0.0944195,
2,0,0,1,1,4910.83,-0.0978574,-0.0982497,-22.441,4,-0.00377399,10,0.00220482,-1.64896,-0.0181391,-3.25264,2668.44,-0.0982497,
2,0,0,1,1,4910.86,-0.0874588,-0.0878768,-2.27431,4,-0.00406362,10,0.000199859,-2.64315,-0.0104127,-5.66615,1388.3,-0.0878768,
2,1,0,1,1,4910.88,-0.077052,-0.077488,8.51064,4,-0.00396785,10,-0.000659472,-2.07004,0.0241315,2.44494,769.419,-0.07748796,
2,1,0,1,1,4910.91,-0.0666562,-0.0670239,14.7613,4,-0.00365752,10,-0.000989363,-1.83087,0.074938,0.787317,448.221,-0.0670239,
2,1,0,1,1,4910.94,-0.0562576,-0.0566043,18.3035,4,-0.00322279,10,-0.00103606,-1.73747,0.168873,0.349376,248.43,-0.0566043,
2,1,0,1,1,4910.96,-0.0458563,-0.0462166,20.2385,4,-0.00271908,10,-0.000935354,-1.69382,0.347101,0.169979,133.861,-0.0462166,
2,1,0,1,1,4910.99,-0.0354522,-0.0358235,21.2194,4,-0.00217859,10,-0.000760153,-1.67327,0.771984,0.0764265,63.1706,-0.0358235,
2,1,0,1,1,4911.01,-0.0250564,-0.0253859,21.6104,4,-0.00162083,10,-0.0005486,-1.66534,2.74392,0.0215021,18.1287,-0.0253859,
2,1,0,1,1,4911.04,-0.0146579,-0.0149791,21.6633,4,-0.00105768,10,-0.000324497,-1.66428,-9.30106,-0.00634337,-5.35811,-0.0149791,
2,1,0,1,1,4911.07,-0.00425653,-0.00461679,21.4796,4,-0.000496403,10,-9.91667e-05,-1.66797,-2.08171,-0.028342,-23.7741,-0.00461679,
2,1,0,0,1,4911.08,-7.54729e-05,-0.000344411,21.3896,4,-0.000271292,10,-7.3668e-06,-1.6698, , , ,-0.000344411,