File: Figure_codes/Fig_3-5/rawdata_trumpetplot_data/before 10th/20221101_1-115_002_TrumpetPlot_ParaChange_10_CV_C01_2.csv
mode,ox/red,error,control changes,counter inc.,time/s,control/V,Ewe/V,<I>/mA,cycle number,(Q-Qo)/C,I Range,P/W,log(|I|),Tafel slope mV/dec,alpha_eff,dI/d(E-IR),E-IR/V,
2,0,0,0,0,3657.65,2.44065e-05,0.000304558,-5.66184,3,0.0000000E+000,11,-1.72436e-06,-2.24704, , , ,0.000304558,
2,1,0,1,0,3657.74,0.0072942,0.00700727,2.73798,3,2.58896e-05,11,1.91858e-05,-2.56257,0.027283,2.16252,217.121,0.00700727,
2,1,0,1,0,3657.83,0.0147816,0.014497,3.30949,3,0.000318219,11,4.79777e-05,-2.48024,0.23341,0.252774,32.5755,0.014497,
2,1,0,1,0,3657.92,0.0222707,0.0219959,3.44831,3,0.000635434,11,7.58488e-05,-2.46239,0.492919,0.119695,16.1233,0.0219959,
2,1,0,1,0,3658.02,0.0297581,0.0295116,3.57465,3,0.000964319,11,0.000105494,-2.44677,0.689997,0.0855076,11.9141,0.0295116,
2,1,0,1,0,3658.11,0.0372544,0.0369644,3.71097,3,0.00130529,11,0.000137174,-2.43051,0.420198,0.14041,20.3199,0.0369644,
2,1,0,1,0,3658.21,0.0447507,0.0444426,3.86644,3,0.0016604,11,0.000171835,-2.41269,0.327765,0.180007,27.2665,0.04444262,
2,1,0,1,0,3658.3,0.0522381,0.0519378,4.10322,3,0.00203374,11,0.000213112,-2.38688,0.270344,0.21824,35.004,0.0519378,
2,1,0,1,0,3658.39,0.0597273,0.0594364,4.42097,3,0.0024322,11,0.000262766,-2.35448,0.209086,0.28218,48.5879,0.0594364,
2,1,0,1,0,3658.49,0.0672147,0.0669455,4.79729,3,0.00286283,11,0.000321157,-2.319,0.18719,0.315187,58.9852,0.0669455,
2,1,0,1,0,3658.58,0.0747038,0.0744411,5.22813,3,0.00333191,11,0.000389188,-2.28165,0.209443,0.2817,57.459,0.07444106,
2,1,0,1,0,3658.67,0.0822055,0.0819495,5.68976,3,0.00384415,11,0.000466273,-2.24491,0.219911,0.268291,59.5194,0.0819495,
2,1,0,1,0,3658.77,0.0896946,0.0893779,6.12029,3,0.00439735,11,0.000547019,-2.21323,0.2323,0.253982,60.7564,0.08937791,
2,1,0,1,0,3658.86,0.097182,0.0968932,6.543,3,0.00499115,11,0.000633973,-2.18422,0.276951,0.213034,54.4406,0.0968932,
2,1,0,1,0,3658.95,0.104671,0.104374,7.00829,3,0.00562478,11,0.000731486,-2.15439,0.244169,0.241636,66.0119,0.104374,
2,1,0,1,0,3659.05,0.112159,0.111843,7.54896,3,0.0063048,11,0.000844296,-2.12211,0.194859,0.302783,89.3328,0.111843,
2,1,0,1,0,3659.14,0.119655,0.119314,8.34216,3,0.00704792,11,0.000995334,-2.07872,0.163836,0.360116,117.397,0.119314,
2,1,0,1,0,3659.24,0.127149,0.126873,9.38066,3,0.00787694,11,0.00119015,-2.02777,0.147074,0.401157,146.929,0.126873,
2,1,0,1,0,3659.33,0.134639,0.134332,10.5687,3,0.00881092,11,0.00141972,-1.97598,0.149627,0.394313,162.689,0.134332,
2,1,0,1,0,3659.42,0.142126,0.141836,11.6917,3,0.0098551,11,0.00165829,-1.93212,0.198154,0.297748,135.799,0.141836,
2,1,0,1,0,3659.52,0.149615,0.149326,12.5087,3,0.0109919,11,0.00186788,-1.90279,0.400982,0.147139,71.6719,0.1493264,
2,1,0,1,0,3659.61,0.157103,0.156799,12.6674,3,0.0121767,11,0.00198624,-1.89731,-0.676402,-0.0872262,-42.9405,0.156799,
2,1,0,1,0,3659.7,0.164606,0.164329,11.6218,3,0.0133277,11,0.0019098,-1.93473,-0.109751,-0.537581,-242.607,0.164329,
2,1,0,1,0,3659.8,0.172095,0.171829,9.18708,3,0.0143101,11,0.0015786,-2.03682,-0.0566817,-1.0409,-372.611,0.171829,
2,1,0,1,0,3659.89,0.179582,0.179316,6.70306,3,0.0150465,11,0.00120197,-2.17373,-0.0610987,-0.96565,-254.07,0.179316,
2,1,0,1,0,3659.98,0.18707,0.186763,5.35032,3,0.015603,11,0.000999245,-2.27162,-0.106335,-0.554851,-116.345,0.186763,
2,1,0,1,0,3660.08,0.194559,0.194266,4.68164,3,0.0160696,11,0.000909484,-2.3296,-0.152834,-0.38604,-70.5282,0.194266,
2,1,0,1,0,3660.17,0.202062,0.201786,4.25493,3,0.0164868,11,0.000858586,-2.37111,-0.200524,-0.294229,-48.736,0.201786,
2,1,0,1,0,3660.27,0.20955,0.209268,3.96089,3,0.0168703,11,0.000828886,-2.40221,-0.283291,-0.208266,-32.2452,0.209268,
2,1,0,1,0,3660.36,0.217039,0.216785,3.75322,3,0.0172313,11,0.000813641,-2.4256,-0.371556,-0.158792,-23.3381,0.216785,
2,1,0,1,0,3660.45,0.224526,0.224285,3.62669,3,0.0175767,11,0.000813412,-2.44049,-0.464718,-0.126959,-17.9412,0.224285,
2,1,0,1,0,3660.55,0.232016,0.231782,3.51698,3,0.0179107,11,0.000815172,-2.45383,-1.07989,-0.0546353,-7.49925,0.231782,
2,1,0,1,0,3660.64,0.23951,0.239222,3.43042,3,0.0182365,11,0.00082063,-2.46465,-0.700316,-0.0842477,-11.3004,0.2392218,
2,1,0,1,0,3660.73,0.247006,0.246793,3.37878,3,0.0185554,11,0.000833859,-2.47124,-0.646085,-0.0913193,-11.9987,0.246793,
2,1,0,1,0,3660.83,0.254494,0.254202,3.31393,3,0.0188684,11,0.000842406,-2.47966,-1.43968,-0.0409814,-5.30161,0.254202,
2,1,0,1,0,3660.92,0.261983,0.261738,3.25405,3,0.0191764,11,0.000851707,-2.48758,-1.03495,-0.0570074,-7.26519,0.261738,
2,1,0,1,0,3661.01,0.26947,0.269192,3.22243,3,0.0194801,11,0.000867453,-2.49182,-1.38483,-0.0426046,-5.35811,0.2691924,
2,1,0,1,0,3661.11,0.276959,0.276664,3.184,3,0.0197798,11,0.0008809,-2.49703,-4.67302,-0.0126257,-1.56675,0.276664,
2,1,0,1,0,3661.2,0.284461,0.284209,3.13853,3,0.0200764,11,0.000892,-2.50327,-2.00883,-0.0293703,-3.59706,0.284209,
2,1,0,1,0,3661.3,0.29195,0.291707,3.10605,3,0.0203687,11,0.000906058,-2.50779,-0.74816,-0.0788602,-9.54624,0.291707,
2,1,0,1,0,3661.39,0.299438,0.299184,3.07051,3,0.0206576,11,0.000918646,-2.51279,-0.0189263,-3.11735,-325.492,0.299184,
2,0,0,1,0,3661.47,0.29424,0.293956,-1.17647,3,0.0206592,11,-0.00034583,-2.92942,-0.035014,-1.68504,73.5253,0.293956,
2,0,0,1,0,3661.56,0.286753,0.286437,-1.47158,3,0.0205336,11,-0.000421515,-2.83222,-0.11898,-0.49588,28.4232,0.286437,
2,0,0,1,0,3661.66,0.279264,0.278972,-1.66844,3,0.0203862,11,-0.000465447,-2.77769,-0.152317,-0.387351,25.1752,0.278972,
2,0,0,1,0,3661.75,0.271776,0.271518,-1.81344,3,0.0202226,11,-0.000492381,-2.7415,-0.201841,-0.29231,20.7605,0.2715176,
2,0,0,1,0,3661.84,0.26428,0.263981,-1.95975,3,0.0200454,11,-0.000517337,-2.7078,-0.281323,-0.209724,15.9532,0.263981,
2,0,0,1,0,3661.94,0.256786,0.256476,-2.074,3,0.0198568,11,-0.000531932,-2.68319,-0.271468,-0.217337,17.5253,0.256476,
2,0,0,1,0,3662.03,0.249296,0.248981,-2.16926,3,0.0196579,11,-0.000540104,-2.66369,-0.402815,-0.146469,12.4436,0.2489806,
2,0,0,1,0,3662.12,0.241809,0.241542,-2.27781,3,0.019449,11,-0.000550188,-2.64248,-0.458994,-0.128542,11.4621,0.241542,
2,0,0,1,0,3662.22,0.23432,0.234018,-2.38785,3,0.0192304,11,-0.000558798,-2.62199,-0.359832,-0.163965,15.301,0.234018,
2,0,0,1,0,3662.31,0.226833,0.226538,-2.49446,3,0.0190016,11,-0.00056509,-2.60302,-0.2984,-0.197721,19.2512,0.226538,
2,0,0,1,0,3662.4,0.219329,0.219016,-2.63086,3,0.0187615,11,-0.000576199,-2.5799,-0.387336,-0.152323,15.5792,0.219016,
2,0,0,1,0,3662.5,0.21184,0.211519,-2.76293,3,0.0185099,11,-0.000584413,-2.55863,-0.313207,-0.188374,20.2736,0.211519,
2,0,0,1,0,3662.59,0.204353,0.204028,-2.92253,3,0.0182439,11,-0.000596278,-2.53424,-0.302455,-0.19507,22.3269,0.204028,
2,0,0,1,0,3662.69,0.196863,0.196579,-3.11832,3,0.017961,11,-0.000612995,-2.50608,-0.259072,-0.227736,27.8332,0.196579,
2,0,0,1,0,3662.78,0.189376,0.189058,-3.39824,3,0.017656,11,-0.000642463,-2.46875,-0.189941,-0.310623,41.2543,0.189058,
2,0,0,1,0,3662.87,0.18188,0.181573,-3.7622,3,0.0173213,11,-0.000683113,-2.42456,-0.143092,-0.412323,60.5954,0.181573,
2,0,0,1,0,3662.97,0.174385,0.174068,-4.27707,3,0.0169457,11,-0.0007445,-2.36885,-0.121517,-0.48553,81.1606,0.174068,
2,0,0,1,0,3663.06,0.166896,0.166618,-5.03242,3,0.0165125,11,-0.000838495,-2.29822,-0.0978344,-0.60306,118.34,0.166618,
2,0,0,1,0,3663.15,0.159409,0.159111,-6.10155,3,0.0159945,11,-0.000970822,-2.21456,-0.0837946,-0.704102,167.715,0.1591107,
2,0,0,1,0,3663.25,0.151919,0.151676,-7.53537,3,0.0153581,11,-0.00114293,-2.1229,-0.0841538,-0.701098,206.84,0.151676,
2,0,0,1,0,3663.34,0.144425,0.144147,-9.24606,3,0.0145714,11,-0.00133279,-2.03404,-0.0948417,-0.622089,224.436,0.144147,
2,0,0,1,0,3663.43,0.136929,0.136685,-10.8463,3,0.0136277,11,-0.00148253,-1.96472,-0.126235,-0.467381,197.518,0.136685,
2,0,0,1,0,3663.53,0.129441,0.129146,-12.0501,3,0.0125513,11,-0.00155622,-1.91901,-0.224765,-0.262496,123.305,0.129146,
2,0,0,1,0,3663.62,0.121952,0.121621,-12.6164,3,0.011391,11,-0.00153442,-1.89907,-1.60668,-0.0367217,18.0204,0.121621,
2,0,0,1,0,3663.72,0.114465,0.114141,-12.3455,3,0.0102164,11,-0.00140913,-1.90849,0.299138,0.197233,-94.746,0.114141,
2,0,0,1,0,3663.81,0.106976,0.10671,-11.227,3,0.00910779,11,-0.00119803,-1.94974,0.138597,0.425694,-186.418,0.10671,
2,0,0,1,0,3663.9,0.0994721,0.0991769,-9.79,3,0.00812204,11,-0.000970942,-2.00922,0.12307,0.479404,-183.459,0.0991769,
2,0,0,1,0,3664,0.0919847,0.09165,-8.671,3,0.00726212,11,-0.000794697,-2.06193,0.178877,0.329836,-111.734,0.09165,
2,0,0,1,0,3664.09,0.0844973,0.0841851,-7.96418,3,0.00648599,11,-0.000670466,-2.09886,0.262244,0.224981,-70.0498,0.0841851,
2,0,0,1,0,3664.18,0.0770082,0.0766641,-7.51138,3,0.00576239,11,-0.000575853,-2.12428,0.277552,0.212573,-62.2801,0.0766641,
2,0,0,1,0,3664.28,0.0695208,0.0692391,-7.09669,3,0.00507885,11,-0.000491368,-2.14894,0.284334,0.207503,-57.4514,0.0692391,
2,0,0,1,0,3664.37,0.0620245,0.0616821,-6.63732,3,0.00443471,11,-0.000409404,-2.17801,0.235912,0.250093,-64.8158,0.0616821,
2,0,0,1,0,3664.46,0.0545282,0.0541966,-6.14507,3,0.00383542,11,-0.000333042,-2.21147,0.223499,0.263984,-63.4,0.0541966,
2,0,0,1,0,3664.56,0.0470408,0.0467113,-5.71703,3,0.00328094,11,-0.00026705,-2.24283,0.251454,0.234635,-52.289,0.0467113,
2,0,0,1,0,3664.65,0.0395517,0.0392393,-5.39245,3,0.00276258,11,-0.000211596,-2.26821,0.397425,0.148456,-31.2189,0.0392393,
2,0,0,1,0,3664.75,0.0320643,0.0317485,-5.18618,3,0.00226813,11,-0.000164654,-2.28515,0.507257,0.116312,-23.5735,0.0317485,
2,0,0,1,0,3664.84,0.0245751,0.0242837,-5.10181,3,0.00178712,11,-0.000123891,-2.29228,1.24803,0.0472746,-9.41278,0.0242837,
2,0,0,1,0,3664.93,0.0170735,0.0167462,-5.07157,3,0.00131052,11,-8.49298e-05,-2.29486,-2.9208,-0.0201999,4.00458,0.0167462,
2,0,0,1,0,3665.03,0.00958429,0.00928207,-5.09807,3,0.000834164,11,-4.73207e-05,-2.29259,-1.64782,-0.0358048,7.13477,0.00928207,
2,0,0,1,0,3665.12,0.0020969,0.00172554,-5.24417,3,0.000353047,11,-9.04903e-06,-2.28032,-0.622087,-0.0948421,19.2177,0.00172554,
2,0,0,1,0,3665.14,0.000199195,-0.000151629,-5.23007,3,0.000228862,11,7.9303e-07,-2.28149, , , ,-0.000151629,