File: Figure_codes/Fig_3-5/rawdata_trumpetplot_data/before 10th/20221101_1-115_002_TrumpetPlot_ParaChange_16_CV_C01_0.csv
mode,ox/red,error,control changes,counter inc.,time/s,control/V,Ewe/V,<I>/mA,cycle number,(Q-Qo)/C,I Range,P/W,log(|I|),Tafel slope mV/dec,alpha_eff,dI/d(E-IR),E-IR/V,
2,1,0,0,0,1219.08,2.44065e-05,-0.00145148,57.7662,1,0.0000000E+000,10,-8.38462e-05,-1.23833, , , ,-0.00145148,
2,1,0,1,0,1219.09,0.0131086,0.0127877,56.5032,1,0.0007468,10,0.000722544,-1.24793,-19.9782,-0.00295322,-6.55147,0.0127877,
2,1,0,1,0,1219.11,0.0271416,0.0267882,56.9974,1,0.00154112,10,0.00152686,-1.24415,3.82305,0.0154327,34.2761,0.0267882,
2,1,0,1,0,1219.12,0.0411248,0.040811,57.2572,1,0.00234122,10,0.00233672,-1.24217,24.0531,0.0024529,5.47336,0.040811,
2,1,0,1,0,1219.13,0.0551079,0.0547267,57.1036,1,0.00314216,10,0.00312509,-1.24334,212.225,0.000278007,0.621111,0.0547267,
2,1,0,1,0,1219.15,0.0691409,0.0688439,57.301,1,0.00394299,10,0.00394482,-1.24184,7.55474,0.00780967,17.4634,0.0688439,
2,1,0,1,0,1219.16,0.083124,0.082837,57.6677,1,0.00474722,10,0.00477702,-1.23907,2.58088,0.0228605,51.5774,0.082837,
2,1,0,1,0,1219.18,0.0971071,0.0968408,58.9075,1,0.005562,10,0.00570465,-1.22983,1.00135,0.0589205,135.968,0.0968408,
2,1,0,1,0,1219.19,0.11114,0.110801,61.3817,1,0.00640298,10,0.00680116,-1.21196,0.633599,0.0931189,223.775,0.110801,
2,1,0,1,0,1219.2,0.125123,0.12484,65.1386,1,0.00728758,10,0.00813189,-1.18616,0.479913,0.122939,313.341,0.12484,
2,1,0,1,0,1219.22,0.139106,0.138817,70.1771,1,0.00823362,10,0.00974177,-1.1538,0.393503,0.149935,411.689,0.138817,
2,1,0,1,0,1219.23,0.153139,0.152821,76.5499,1,0.00925997,10,0.0116984,-1.11606,0.352275,0.167483,501.447,0.152821,
2,1,0,1,0,1219.25,0.167123,0.166774,84.255,1,0.0103849,10,0.0140515,-1.0744,0.323152,0.182577,601.386,0.166774,
2,1,0,1,0,1219.26,0.181106,0.180757,93.306,1,0.0116274,10,0.0168657,-1.03009,0.315817,0.186817,680.495,0.180757,
2,1,0,1,0,1219.27,0.195139,0.194758,103.076,1,0.013003,10,0.0200748,-0.986843,0.346843,0.170106,682.972,0.194758,
2,1,0,1,0,1219.29,0.209122,0.208812,112.077,1,0.0145119,10,0.023403,-0.950484,0.456087,0.129361,563.27,0.208812,
2,1,0,1,0,1219.3,0.223105,0.222831,118.229,1,0.0161295,10,0.026345,-0.927277,1.08136,0.054561,249.603,0.222831,
2,1,0,1,0,1219.32,0.237138,0.236864,118.159,1,0.0177938,10,0.0279877,-0.927533,-0.790856,-0.0746027,-339.255,0.236864,
2,1,0,1,0,1219.33,0.251121,0.250921,108.306,1,0.0193903,10,0.0271763,-0.965347,-0.232755,-0.253485,-1054.06,0.250921,
2,1,0,1,0,1219.34,0.265104,0.264991,89.3598,1,0.02078,10,0.0236795,-1.04886,-0.13434,-0.439183,-1514.05,0.264991,
2,1,0,1,0,1219.36,0.279137,0.27898,67.4194,1,0.0218745,10,0.0188087,-1.17122,-0.105546,-0.558996,-1471.7,0.27898,
2,1,0,1,0,1219.37,0.29312,0.292909,49.5868,1,0.0226838,10,0.0145244,-1.30463,-0.112682,-0.523598,-1040.94,0.292909,
2,1,0,1,0,1219.38,0.298714,0.298807,38.2759,1,0.023055,10,0.0114371,-1.41707,0.0134275,4.39398,4146.5,0.298807,
2,1,0,1,0,1219.39,0.28473,0.284713,-1.37368,1,0.0232675,10,-0.000391106,-2.86211,0.115243,0.511963,1786.13,0.284713,
2,0,0,1,0,1219.41,0.270747,0.27058,-17.1689,1,0.0231196,10,-0.00464555,-1.76526,-0.0478336,-1.23344,722.21,0.27058,
2,0,0,1,0,1219.42,0.256714,0.256528,-23.6973,1,0.0228263,10,-0.00607902,-1.6253,-0.17137,-0.344284,310.038,0.256528,
2,0,0,1,0,1219.44,0.242731,0.242498,-26.6959,1,0.0224711,10,-0.00647372,-1.57355,-0.369992,-0.159463,165.028,0.2424982,
2,0,0,1,0,1219.45,0.228748,0.228538,-28.6234,1,0.0220831,10,-0.00654154,-1.54328,-0.51147,-0.115354,128.822,0.228538,
2,0,0,1,0,1219.46,0.214715,0.214488,-30.449,1,0.0216691,10,-0.00653092,-1.51643,-0.514866,-0.114593,136.402,0.214488,
2,0,0,1,0,1219.48,0.200732,0.200506,-32.6021,1,0.0212283,10,-0.00653692,-1.48675,-0.414939,-0.142189,181.547,0.200506,
2,0,0,1,0,1219.49,0.186735,0.186508,-35.5936,1,0.0207519,10,-0.00663848,-1.44863,-0.318286,-0.185368,258.853,0.186508,
2,0,0,1,0,1219.51,0.172716,0.172511,-39.9004,1,0.0202244,10,-0.00688328,-1.39902,-0.25674,-0.229805,359.626,0.172511,
2,0,0,1,0,1219.52,0.158733,0.158531,-45.8358,1,0.0196259,10,-0.0072664,-1.3388,-0.213763,-0.276007,496.302,0.158531,
2,0,0,1,0,1219.53,0.144719,0.144534,-53.8486,1,0.0189297,10,-0.00778293,-1.26883,-0.192357,-0.306721,646.619,0.144534,
2,0,0,1,0,1219.55,0.130717,0.130567,-63.8526,1,0.0181069,10,-0.00833705,-1.19482,-0.191142,-0.308671,769.157,0.130567,
2,0,0,1,0,1219.56,0.116733,0.116704,-74.987,1,0.017134,10,-0.00875131,-1.12501,-0.208859,-0.282488,826.506,0.116704,
2,0,0,1,0,1219.58,0.102703,0.102667,-86.7533,1,0.0160005,10,-0.00890667,-1.06171,-0.243223,-0.242576,818.216,0.102667,
2,0,0,1,0,1219.59,0.0887173,0.0885813,-97.7868,1,0.0147069,10,-0.00866208,-1.00972,-0.308599,-0.191186,725.749,0.0885813,
2,0,0,1,0,1219.6,0.0747341,0.0745521,-106.718,1,0.0132713,10,-0.00795605,-0.971763,-0.471274,-0.125193,518.145,0.0745521,
2,0,0,1,0,1219.62,0.0607011,0.0604901,-112.044,1,0.0117347,10,-0.00677756,-0.95061,-1.26062,-0.0468025,203.015,0.0604901,
2,0,0,1,0,1219.63,0.046718,0.0464503,-112.104,1,0.0101591,10,-0.00520725,-0.95038,1.32543,0.0445137,-193.2,0.0464503,
2,0,0,1,0,1219.65,0.0327349,0.0324306,-106.937,1,0.00862152,10,-0.00346804,-0.970872,0.486916,0.121171,-502.857,0.0324306,
2,0,0,1,0,1219.66,0.0187018,0.0183983,-98.6269,1,0.00718167,10,-0.00181456,-1.006,0.355885,0.165784,-636.465,0.0183983,
2,0,0,1,0,1219.67,0.00471873,0.00440515,-89.3042,1,0.00586671,10,-0.000393398,-1.04913,0.311977,0.189116,-659.082,0.00440515,
2,0,0,1,0,1219.69,-0.00926438,-0.00961131,-80.3023,1,0.00468059,10,0.00077181,-1.09527,0.299033,0.197303,-618.909,-0.00961131,
2,0,0,1,0,1219.7,-0.0232974,-0.0235896,-72.4444,1,0.00361454,10,0.00170893,-1.14,0.345191,0.17092,-485.191,-0.0235896,
2,0,0,1,0,1219.72,-0.0372805,-0.0375827,-66.8514,1,0.00264318,10,0.00251246,-1.17489,0.51144,0.115361,-302.794,-0.0375827,
2,0,0,1,0,1219.73,-0.0512636,-0.0515493,-63.8766,1,0.00173115,10,0.0032928,-1.19466,1.05526,0.0559104,-139.968,-0.0515493,
2,0,0,1,0,1219.74,-0.0652967,-0.0655838,-62.8559,1,0.000846398,10,0.00412233,-1.20165,6.02565,0.00979147,-24.0746,-0.0655838,
2,0,0,1,0,1219.76,-0.0792798,-0.0795388,-62.9789,1,-3.34024e-05,10,0.00500927,-1.2008,-3.54698,-0.0166339,40.9785,-0.0795388,
2,0,0,1,0,1219.77,-0.0932629,-0.0935372,-63.9215,1,-0.000921142,10,0.00597904,-1.19435,-1.71068,-0.0344892,86.1268,-0.0935372,
2,0,0,1,0,1219.79,-0.107296,-0.107582,-65.4387,1,-0.00182598,10,0.00704004,-1.18417,-1.24807,-0.0472731,120.713,-0.107582,
2,0,0,1,0,1219.8,-0.121279,-0.121576,-67.1821,1,-0.00275413,10,0.00816776,-1.17275,-1.13948,-0.051778,135.867,-0.121576,
2,0,0,1,0,1219.81,-0.135262,-0.135538,-69.2307,1,-0.003709,10,0.00938338,-1.1597,-1.03331,-0.0570981,154.362,-0.135538,
2,0,0,1,0,1219.83,-0.149295,-0.149539,-71.6241,1,-0.00469474,10,0.0107106,-1.14494,-0.938141,-0.0628904,175.719,-0.149539,
2,0,0,1,0,1219.84,-0.163278,-0.163565,-74.1044,1,-0.00571486,10,0.0121209,-1.13016,-0.905936,-0.065126,188.463,-0.163565,
2,0,0,1,0,1219.86,-0.177261,-0.177542,-76.8671,1,-0.00677164,10,0.0136471,-1.11426,-0.842753,-0.0700087,210.144,-0.1775416,
2,0,0,1,0,1219.87,-0.191295,-0.19156,-80.1068,1,-0.00786991,10,0.0153453,-1.09633,-0.743165,-0.0793901,248.15,-0.19156,
2,0,0,0,1,1219.88,-0.199984,-0.200494,-82.0247,1,-0.00862558,10,0.0164455,-1.08606,-0.0304564,-1.9372,5257.18,-0.200494,
2,0,0,1,1,1219.89,-0.186686,-0.187154,-42.9524,1,-0.0094187,10,0.00803873,-1.36701,-0.039395,-1.49765,2445.52,-0.187154,
2,0,0,1,1,1219.91,-0.172667,-0.17309,-13.855,1,-0.00980254,10,0.00239816,-1.85839,-0.010136,-5.82086,1783.82,-0.17309,
2,1,0,1,1,1219.92,-0.158684,-0.159185,7.76652,1,-0.00983611,10,-0.00123631,-2.10977,0.0239044,2.46817,1356.8,-0.159185,
2,1,0,1,1,1219.93,-0.14467,-0.145227,24.3756,1,-0.00960516,10,-0.00353999,-1.61304,0.0502015,1.17526,1043.72,-0.145227,
2,1,0,1,1,1219.95,-0.130668,-0.131054,37.2149,1,-0.00916825,10,-0.00487718,-1.42928,0.106526,0.553857,784.464,-0.1310544,
2,1,0,1,1,1219.96,-0.116685,-0.117055,46.6593,1,-0.00857693,10,-0.0054617,-1.33106,0.183845,0.320922,577.206,-0.117055,
2,1,0,1,1,1219.98,-0.102654,-0.103034,53.6215,1,-0.00787221,10,-0.00552485,-1.27066,0.293042,0.201337,417.797,-0.103034,
2,1,0,1,1,1219.99,-0.0886685,-0.0890178,58.4434,1,-0.0070851,10,-0.0052025,-1.23326,0.466375,0.126508,287.232,-0.0890178,
2,1,0,1,1,1220,-0.0746854,-0.0750363,61.7322,1,-0.0062419,10,-0.00463216,-1.20949,0.734682,0.0803069,192.905,-0.0750363,
2,1,0,1,1,1220.02,-0.0606523,-0.0609891,64.0152,1,-0.00536088,10,-0.00390423,-1.19372,1.1378,0.0518543,129.149,-0.0609891,
2,1,0,1,1,1220.03,-0.0466692,-0.0470013,65.3635,1,-0.00445442,10,-0.00307217,-1.18466,2.05451,0.0287172,73.128,-0.0470013,
2,1,0,1,1,1220.05,-0.0326861,-0.0330155,66.0869,1,-0.00353362,10,-0.0021819,-1.17988,4.56489,0.0129247,33.2956,-0.0330155,
2,1,0,1,1,1220.06,-0.018653,-0.01898,66.4177,1,-0.00260596,10,-0.00126061,-1.17772,36.6316,0.00161063,4.16631,-0.01898,
2,1,0,1,1,1220.07,-0.00466992,-0.00503353,66.1641,1,-0.00167753,10,-0.000333039,-1.17938, , , ,-0.00503353,
2,1,0,0,1,1220.08,-0.000175352,-0.000497109,65.9824,1,-0.00138016,10,-3.28005e-05,-1.18057, , , ,-0.000497109,