File: Figure_codes/Fig_3-5/rawdata_trumpetplot_data/before 10th/20221101_1-115_002_TrumpetPlot_ParaChange_10_CV_C01_7.csv
mode,ox/red,error,control changes,counter inc.,time/s,control/V,Ewe/V,<I>/mA,cycle number,(Q-Qo)/C,I Range,P/W,log(|I|),Tafel slope mV/dec,alpha_eff,dI/d(E-IR),E-IR/V,
2,0,0,0,0,9815.79,2.44065e-05,0.000113685,-6.01047,8,0.0000000E+000,11,-6.833e-07,-2.22109, , , ,0.000113685,
2,1,0,1,0,9815.88,0.00729419,0.00701443,2.47552,8,-2.19983e-06,11,1.73644e-05,-2.60633,0.0195319,3.02071,269.214,0.007014432,
2,1,0,1,0,9815.97,0.0147816,0.0144851,3.28928,8,0.00027883,11,4.76455e-05,-2.4829,0.146911,0.401603,51.4221,0.0144851,
2,1,0,1,0,9816.07,0.0222707,0.0219792,3.54136,8,0.000599938,11,7.78363e-05,-2.45083,0.290775,0.202906,28.0438,0.02197923,
2,1,0,1,0,9816.16,0.0297581,0.0294683,3.76523,8,0.000941575,11,0.000110955,-2.42421,0.287009,0.205568,30.1509,0.0294683,
2,1,0,1,0,9816.25,0.0372544,0.0369552,4.01284,8,0.00130546,11,0.000148295,-2.39655,0.246946,0.238918,37.4211,0.03695517,
2,1,0,1,0,9816.35,0.0447507,0.0444982,4.31451,8,0.00169557,11,0.000191988,-2.36507,0.233514,0.252662,42.6184,0.0444982,
2,1,0,1,0,9816.44,0.0522381,0.0519327,4.68328,8,0.00211669,11,0.000243215,-2.32945,0.211003,0.279616,51.1295,0.0519327,
2,1,0,1,0,9816.53,0.0597273,0.0594037,5.08822,8,0.00257401,11,0.000302259,-2.29343,0.197213,0.299169,59.3873,0.0594037,
2,1,0,1,0,9816.63,0.0672147,0.0669189,5.51138,8,0.0030703,11,0.000368816,-2.25874,0.225741,0.261362,56.1714,0.0669189,
2,1,0,1,0,9816.72,0.0747038,0.074421,5.92087,8,0.00360548,11,0.000440637,-2.22761,0.271531,0.217286,50.1533,0.074421,
2,1,0,1,0,9816.82,0.0822055,0.0819127,6.29162,8,0.00417854,11,0.000515363,-2.20124,0.29506,0.199959,49.0804,0.0819127,
2,1,0,1,0,9816.91,0.0896946,0.0893946,6.6286,8,0.00478399,11,0.000592561,-2.17858,0.337666,0.174729,45.271,0.0893946,
2,1,0,1,0,9817,0.097182,0.0968666,6.99693,8,0.00542209,11,0.000677769,-2.15509,0.320239,0.184237,50.343,0.0968666,
2,1,0,1,0,9817.1,0.104671,0.104357,7.44064,8,0.00609658,11,0.000776483,-2.12839,0.222751,0.26487,76.9193,0.104357,
2,1,0,1,0,9817.19,0.112159,0.111857,8.04346,8,0.0068206,11,0.000899717,-2.09456,0.197292,0.299049,93.9993,0.111857,
2,1,0,1,0,9817.28,0.119655,0.119364,8.81164,8,0.00760978,11,0.00105179,-2.05494,0.198809,0.296767,102.012,0.119364,
2,1,0,1,0,9817.38,0.127149,0.126854,9.5755,8,0.00847176,11,0.00121469,-2.01884,0.226512,0.260471,97.3037,0.126854,
2,1,0,1,0,9817.47,0.134639,0.134325,10.2598,8,0.00940194,11,0.00137814,-1.98886,0.281796,0.209371,83.8779,0.134325,
2,1,0,1,0,9817.56,0.142126,0.141814,10.8073,8,0.0103902,11,0.00153263,-1.96628,0.428249,0.13777,58.0717,0.141814,
2,1,0,1,0,9817.66,0.149615,0.1493,11.0404,8,0.0114169,11,0.00164832,-1.95702,-3.25893,-0.0181041,-7.77854,0.1493,
2,1,0,1,0,9817.75,0.157103,0.156808,10.4963,8,0.0124331,11,0.0016459,-1.97896,-0.165694,-0.356078,-145.181,0.156808,
2,1,0,1,0,9817.85,0.164606,0.164276,8.80721,8,0.0133467,11,0.00144681,-2.05516,-0.0729892,-0.808339,-276.872,0.164276,
2,1,0,1,0,9817.94,0.172095,0.171791,6.74162,8,0.0140717,11,0.00115815,-2.17124,-0.0644096,-0.916012,-241.705,0.171791,
2,1,0,1,0,9818.03,0.179582,0.179283,5.37555,8,0.0146323,11,0.000963747,-2.26958,-0.0968186,-0.609387,-128.511,0.179283,
2,1,0,1,0,9818.13,0.18707,0.186803,4.63979,8,0.0150985,11,0.000866729,-2.3335,-0.14352,-0.411092,-74.6477,0.186803,
2,1,0,1,0,9818.22,0.194559,0.194245,4.20859,8,0.0155109,11,0.000817499,-2.37586,-0.204101,-0.289073,-47.4209,0.194245,
2,1,0,1,0,9818.31,0.202062,0.201777,3.90754,8,0.0158904,11,0.00078845,-2.4081,-0.304339,-0.193863,-29.5542,0.201777,
2,1,0,1,0,9818.41,0.20955,0.209287,3.7173,8,0.016247,11,0.000777982,-2.42977,-0.32792,-0.179922,-26.1435,0.209287,
2,1,0,1,0,9818.5,0.217039,0.216734,3.58107,8,0.0165885,11,0.000776141,-2.44599,-0.480007,-0.122915,-17.205,0.216734,
2,1,0,1,0,9818.59,0.224526,0.224222,3.48544,8,0.0169193,11,0.000781514,-2.45774,-0.952312,-0.0619545,-8.4399,0.2242223,
2,1,0,1,0,9818.69,0.232016,0.231747,3.41444,8,0.0172424,11,0.000791285,-2.46668,-0.999063,-0.0590553,-7.86535,0.231747,
2,1,0,1,0,9818.78,0.23951,0.239218,3.36158,8,0.0175597,11,0.000804148,-2.47346,-0.916376,-0.0643841,-8.43626,0.239218,
2,1,0,1,0,9818.88,0.247006,0.246751,3.3148,8,0.017872,11,0.00081793,-2.47954,-1.6597,-0.0355487,-4.58255,0.2467508,
2,1,0,1,0,9818.97,0.254494,0.254192,3.25329,8,0.0181796,11,0.00082696,-2.48768,-1.23169,-0.0479016,-6.09827,0.254192,
2,1,0,1,0,9819.06,0.261983,0.261683,3.22107,8,0.0184833,11,0.000842898,-2.492,-0.850491,-0.0693717,-8.72864,0.261683,
2,1,0,1,0,9819.16,0.26947,0.269189,3.18864,8,0.0187833,11,0.000858346,-2.49639,-3.3484,-0.0176203,-2.19117,0.269189,
2,1,0,1,0,9819.25,0.276959,0.276687,3.14546,8,0.0190801,11,0.000870309,-2.50232,-2.43283,-0.0242516,-2.98002,0.2766872,
2,1,0,1,0,9819.34,0.284461,0.284175,3.11432,8,0.0193741,11,0.000885011,-2.50664,-0.870773,-0.0677559,-8.23414,0.284175,
2,1,0,1,0,9819.44,0.29195,0.291659,3.08632,8,0.0196641,11,0.000900152,-2.51056,-1.41461,-0.0417077,-5.00859,0.291659,
2,1,0,1,0,9819.53,0.299438,0.299195,3.03862,8,0.0199509,11,0.000909139,-2.51732,-0.02082,-2.83381,-297.769,0.299195,
2,0,0,1,0,9819.61,0.29424,0.293932,-1.14647,8,0.0199619,11,-0.000336983,-2.94064,-0.0229924,-2.56606,104.756,0.293932,
2,0,0,1,0,9819.7,0.286753,0.28648,-1.4794,8,0.0198362,11,-0.00042382,-2.82991,-0.108963,-0.541466,31.2379,0.28648,
2,0,0,1,0,9819.8,0.279264,0.278977,-1.66734,8,0.0196879,11,-0.000465148,-2.77798,-0.189596,-0.311188,20.3383,0.278977,
2,0,0,1,0,9819.89,0.271776,0.27147,-1.8259,8,0.0195239,11,-0.000495677,-2.73852,-0.218717,-0.269756,19.1889,0.27147,
2,0,0,1,0,9819.98,0.26428,0.264005,-1.95379,8,0.0193468,11,-0.000515811,-2.70912,-0.25594,-0.230523,17.5285,0.264005,
2,0,0,1,0,9820.08,0.256786,0.256438,-2.05941,8,0.0191586,11,-0.000528111,-2.68626,-0.382199,-0.15437,12.3974,0.2564376,
2,0,0,1,0,9820.17,0.249296,0.249,-2.16457,8,0.0189608,11,-0.000538977,-2.66463,-0.527404,-0.111869,9.4378,0.249,
2,0,0,1,0,9820.27,0.241809,0.241498,-2.25197,8,0.0187539,11,-0.000543846,-2.64744,-0.35886,-0.16441,14.4778,0.241498,
2,0,0,1,0,9820.36,0.23432,0.234045,-2.33896,8,0.0185383,11,-0.000547422,-2.63098,-0.481147,-0.122624,11.2644,0.234045,
2,0,0,1,0,9820.45,0.226833,0.226522,-2.44264,8,0.018314,11,-0.000553312,-2.61214,-0.434028,-0.135936,12.9418,0.226522,
2,0,0,1,0,9820.55,0.219329,0.219005,-2.54912,8,0.0180806,11,-0.00055827,-2.59361,-0.347514,-0.169777,16.8015,0.219005,
2,0,0,1,0,9820.64,0.21184,0.211544,-2.63731,8,0.0178381,11,-0.000557907,-2.57884,-0.404574,-0.145832,15.0297,0.211544,
2,0,0,1,0,9820.73,0.204353,0.204003,-2.76177,8,0.0175852,11,-0.000563409,-2.55881,-0.75897,-0.077737,8.38312,0.204003,
2,0,0,1,0,9820.83,0.196863,0.196566,-2.8965,8,0.0173208,11,-0.000569354,-2.53813,-0.323601,-0.182323,20.6218,0.196566,
2,0,0,1,0,9820.92,0.189376,0.189083,-3.05903,8,0.0170419,11,-0.000578411,-2.51442,-0.26673,-0.221198,26.5055,0.189083,
2,0,0,1,0,9821.01,0.18188,0.181556,-3.28901,8,0.0167445,11,-0.000597141,-2.48293,-0.222592,-0.26506,34.0639,0.181556,
2,0,0,1,0,9821.11,0.174385,0.174043,-3.60652,8,0.0164223,11,-0.000627691,-2.44291,-0.163893,-0.359991,50.6423,0.174043,
2,0,0,1,0,9821.2,0.166896,0.166555,-4.0532,8,0.0160653,11,-0.000675082,-2.3922,-0.13013,-0.453393,71.6998,0.166555,
2,0,0,1,0,9821.3,0.159409,0.159081,-4.7231,8,0.0156569,11,-0.000751355,-2.32577,-0.10324,-0.571486,105.454,0.159081,
2,0,0,1,0,9821.39,0.151919,0.151621,-5.71298,8,0.0151712,11,-0.000866207,-2.24314,-0.0844203,-0.698884,156.09,0.151621,
2,0,0,1,0,9821.48,0.144425,0.144073,-7.03411,8,0.0145755,11,-0.00101342,-2.15279,-0.0816682,-0.722436,198.766,0.144073,
2,0,0,1,0,9821.58,0.136929,0.136618,-8.55039,8,0.0138446,11,-0.00116814,-2.06801,-0.100327,-0.588075,196.072,0.136618,
2,0,0,1,0,9821.67,0.129441,0.129175,-9.89351,8,0.0129786,11,-0.00127799,-2.00465,-0.147619,-0.399678,154.06,0.129175,
2,0,0,1,0,9821.76,0.121952,0.121666,-10.8239,8,0.0120051,11,-0.0013169,-1.96562,-0.277961,-0.21226,89.4137,0.121666,
2,0,0,1,0,9821.86,0.114465,0.114154,-11.201,8,0.01097,11,-0.00127864,-1.95074,-2.49725,-0.023626,10.3102,0.114154,
2,0,0,1,0,9821.95,0.106976,0.106681,-11.0457,8,0.00992508,11,-0.00117837,-1.95681,0.452316,0.13044,-56.1361,0.106681,
2,0,0,1,0,9822.05,0.0994721,0.099136,-10.4247,8,0.00891494,11,-0.00103346,-1.98194,0.237905,0.247998,-100.828,0.099136,
2,0,0,1,0,9822.14,0.0919847,0.091694,-9.53798,8,0.00797936,11,-0.000874575,-2.02054,0.191227,0.308533,-115.035,0.091694,
2,0,0,1,0,9822.23,0.0844973,0.0841306,-8.75305,8,0.00712469,11,-0.000736399,-2.05784,0.218504,0.270018,-92.2665,0.0841306,
2,0,0,1,0,9822.33,0.0770082,0.0766613,-8.1911,8,0.0063342,11,-0.000627941,-2.08666,0.30522,0.193303,-61.7733,0.0766613,
2,0,0,1,0,9822.42,0.0695208,0.0692411,-7.78567,8,0.00558728,11,-0.000539089,-2.1087,0.369622,0.159623,-48.5657,0.0692411,
2,0,0,1,0,9822.51,0.0620245,0.0617048,-7.46461,8,0.00487262,11,-0.000460602,-2.12699,0.354292,0.166529,-48.4975,0.0617048,
2,0,0,1,0,9822.61,0.0545282,0.0542269,-7.11494,8,0.00418947,11,-0.000385821,-2.14783,0.376217,0.156825,-43.535,0.0542269,
2,0,0,1,0,9822.7,0.0470408,0.0467246,-6.70108,8,0.00354212,11,-0.000313105,-2.17386,0.268339,0.219871,-57.5098,0.0467246,
2,0,0,1,0,9822.79,0.0395517,0.0392369,-6.24842,8,0.00293601,11,-0.000245168,-2.20423,0.220367,0.267735,-65.2001,0.0392369,
2,0,0,1,0,9822.89,0.0320643,0.0317455,-5.81375,8,0.00237268,11,-0.00018456,-2.23554,0.256752,0.229794,-52.0911,0.03174546,
2,0,0,1,0,9822.98,0.0245751,0.0242694,-5.4773,8,0.00184512,11,-0.000132931,-2.26143,0.372075,0.15857,-33.9743,0.0242694,
2,0,0,1,0,9823.08,0.0170735,0.0167762,-5.28175,8,0.00134078,11,-8.86079e-05,-2.27722,0.602839,0.0978702,-20.2229,0.0167762,
2,0,0,1,0,9823.17,0.00958429,0.00931616,-5.20117,8,0.000850398,11,-4.84549e-05,-2.2839,2.56501,0.0230019,-4.67131,0.00931616,
2,0,0,1,0,9823.26,0.0020969,0.00174565,-5.24687,8,0.000364508,11,-9.1592e-06,-2.2801,-0.84819,-0.0695599,14.1329,0.00174565,
2,0,0,1,0,9823.29,0.000199195,-0.000166899,-5.23428,8,0.000240316,11,8.73595e-07,-2.28114, , , ,-0.000166899,