File: Figure_codes/Fig_3-5/rawdata_trumpetplot_data/before 10th/20221101_1-115_002_TrumpetPlot_ParaChange_06_CV_C01_0.csv
mode,ox/red,error,control changes,counter inc.,time/s,control/V,Ewe/V,<I>/mA,cycle number,(Q-Qo)/C,I Range,P/W,log(|I|),Tafel slope mV/dec,alpha_eff,dI/d(E-IR),E-IR/V,
2,0,0,0,0,1078.99,2.44065e-05,-0.000325324,-0.487102,1,0.0000000E+000,11,1.58466e-07,-3.31238, , , ,-0.000325324,
2,1,0,1,0,1079.71,0.00729063,0.00699466,0.407675,1,0.000257127,11,2.85155e-06,-3.38969,0.125473,0.470222,7.41225,0.00699466,
2,1,0,1,0,1080.46,0.0147814,0.0145187,0.449033,1,0.000589635,11,6.51939e-06,-3.34772,0.279306,0.211238,3.68318,0.0145187,
2,1,0,1,0,1081.21,0.0222725,0.0219952,0.471284,1,0.000944514,11,1.0366e-05,-3.32672,0.444377,0.13277,2.43051,0.02199517,
2,1,0,1,0,1081.96,0.0297635,0.0294743,0.48778,1,0.00131367,11,1.4377e-05,-3.31178,0.502377,0.117442,2.22679,0.0294743,
2,1,0,1,0,1082.71,0.0372544,0.0369458,0.500618,1,0.00169476,11,1.84957e-05,-3.30049,0.511782,0.115283,2.26335,0.0369458,
2,1,0,1,0,1083.46,0.0447458,0.0444962,0.524006,1,0.00208872,11,2.33163e-05,-3.28066,0.391064,0.150871,3.07281,0.0444962,
2,1,0,1,0,1084.21,0.0522363,0.0519357,0.544647,1,0.00249868,11,2.82866e-05,-3.26389,0.262306,0.224928,4.78629,0.0519357,
2,1,0,1,0,1084.96,0.0597282,0.0594465,0.582057,1,0.00293037,11,3.46013e-05,-3.23503,0.270892,0.217799,4.94451,0.05944648,
2,1,0,1,0,1085.71,0.0672182,0.0669299,0.626131,1,0.00339123,11,4.19069e-05,-3.20334,0.212237,0.277991,6.77055,0.0669299,
2,1,0,1,0,1086.46,0.0747092,0.0744121,0.679842,1,0.00388924,11,5.05885e-05,-3.16759,0.208189,0.283396,7.52878,0.0744121,
2,1,0,1,0,1087.21,0.0822001,0.0819293,0.736456,1,0.00443157,11,6.03374e-05,-3.13285,0.213252,0.276668,7.99795,0.0819293,
2,1,0,1,0,1087.95,0.0896911,0.089402,0.809595,1,0.00502154,11,7.23795e-05,-3.09173,0.200168,0.294753,9.29596,0.08940202,
2,1,0,1,0,1088.7,0.097182,0.0969277,0.875324,1,0.00566261,11,8.48431e-05,-3.05783,0.175572,0.336045,11.4684,0.09692774,
2,1,0,1,0,1089.45,0.104673,0.104388,0.965139,1,0.00635925,11,0.000100749,-3.01541,0.179799,0.328145,12.2917,0.104388,
2,1,0,1,0,1090.2,0.112164,0.111847,1.08101,1,0.00713082,11,0.000120907,-2.96617,0.133071,0.443373,18.6959,0.111847,
2,1,0,1,0,1090.95,0.119655,0.119383,1.26611,1,0.00801561,11,0.000151152,-2.89753,0.104322,0.565556,28.0449,0.1193829,
2,1,0,1,0,1091.7,0.127146,0.126884,1.51389,1,0.00906738,11,0.000192089,-2.81991,0.0962089,0.613249,36.4269,0.126884,
2,1,0,1,0,1092.45,0.134637,0.134331,1.77574,1,0.0103176,11,0.000238538,-2.75062,0.143493,0.411169,28.5039,0.134331,
2,1,0,1,0,1093.2,0.142127,0.141851,1.92065,1,0.0117233,11,0.000272447,-2.71655,0.423108,0.139444,10.4072,0.141851,
2,1,0,1,0,1093.95,0.149619,0.149295,1.87874,1,0.0131702,11,0.000280486,-2.72613,-0.212724,-0.277355,-20.2518,0.149295,
2,1,0,1,0,1094.7,0.157109,0.15683,1.62041,1,0.0145033,11,0.000254128,-2.79038,-0.0790235,-0.746613,-46.9425,0.15683,
2,1,0,1,0,1095.45,0.164601,0.164322,1.25955,1,0.0155904,11,0.000206972,-2.89978,-0.0627695,-0.939947,-46.2037,0.164322,
2,1,0,1,0,1096.19,0.172091,0.171819,0.980334,1,0.0164317,11,0.00016844,-3.00863,-0.08226,-0.717238,-27.6116,0.171819,
2,1,0,1,0,1096.94,0.179582,0.179317,0.819088,1,0.0171122,11,0.000146877,-3.08667,-0.118333,-0.498595,-16.053,0.179317,
2,1,0,1,0,1097.69,0.187074,0.186806,0.722808,1,0.0176974,11,0.000135025,-3.14098,-0.170321,-0.346404,-9.78415,0.186806,
2,1,0,1,0,1098.44,0.194564,0.194287,0.659687,1,0.0182235,11,0.000128169,-3.18066,-0.24056,-0.245262,-6.32073,0.194287,
2,1,0,1,0,1099.19,0.202056,0.201778,0.6141,1,0.0187098,11,0.000123912,-3.21176,-0.256665,-0.229872,-5.50193,0.201778,
2,1,0,1,0,1099.94,0.209546,0.20923,0.583298,1,0.019169,11,0.000122043,-3.23411,-0.397111,-0.148573,-3.39267,0.20923,
2,1,0,1,0,1100.69,0.217038,0.216751,0.56114,1,0.0196077,11,0.000121628,-3.25093,-0.536428,-0.109987,-2.40952,0.216751,
2,1,0,1,0,1101.44,0.224528,0.224243,0.545367,1,0.0200319,11,0.000122295,-3.26331,-0.585227,-0.100816,-2.13899,0.224243,
2,1,0,1,0,1102.19,0.232019,0.231729,0.530686,1,0.0204445,11,0.000122975,-3.27516,-0.761128,-0.0775165,-1.60645,0.2317287,
2,1,0,1,0,1102.94,0.23951,0.23924,0.519408,1,0.0208483,11,0.000124263,-3.28449,-0.823386,-0.0716553,-1.45365,0.23924,
2,1,0,1,0,1103.69,0.247001,0.246695,0.511682,1,0.0212447,11,0.000126229,-3.291,-0.935448,-0.0630714,-1.25964,0.246695,
2,1,0,1,0,1104.43,0.254492,0.254205,0.50206,1,0.021635,11,0.000127626,-3.29924,-1.14893,-0.051352,-1.01092,0.254205,
2,1,0,1,0,1105.18,0.261983,0.261704,0.497939,1,0.0220198,11,0.000130313,-3.30282,-1.12741,-0.0523322,-1.01452,0.261704,
2,1,0,1,0,1105.93,0.269474,0.269177,0.489733,1,0.0223999,11,0.000131825,-3.31004,-4.15711,-0.0141926,-0.270507,0.269177,
2,1,0,1,0,1106.68,0.276965,0.276681,0.485292,1,0.0227759,11,0.000134271,-3.314,-0.919045,-0.0641971,-1.21875,0.276681,
2,1,0,1,0,1107.43,0.284456,0.284155,0.480228,1,0.023148,11,0.000136459,-3.31855,-5.24539,-0.011248,-0.21045,0.284155,
2,1,0,1,0,1108.18,0.291947,0.291669,0.476891,1,0.0235164,11,0.000139095,-3.32158,-2.16622,-0.0272364,-0.508073,0.291669,
2,1,0,1,0,1108.93,0.299437,0.29924,0.468294,1,0.0238818,11,0.000140132,-3.32948,-0.00147275,-40.0612,-283.832,0.2992397,
2,0,0,1,0,1109.61,0.293745,0.293483,-0.118233,1,0.0238585,11,-3.46992e-05,-3.92726,-0.0265975,-2.21825,9.75845,0.293483,
2,0,0,1,0,1110.36,0.286253,0.285962,-0.164189,1,0.0237401,11,-4.69517e-05,-3.78466,-0.0741012,-0.796208,5.20187,0.285962,
2,0,0,1,0,1111.11,0.278763,0.278495,-0.20056,1,0.0235919,11,-5.58549e-05,-3.69776,-0.117627,-0.501586,3.89214,0.278495,
2,0,0,1,0,1111.86,0.271272,0.27097,-0.226726,1,0.0234218,11,-6.14361e-05,-3.6445,-0.173628,-0.339806,2.97775,0.27097,
2,0,0,1,0,1112.61,0.263781,0.26351,-0.249078,1,0.0232333,11,-6.56346e-05,-3.60366,-0.212595,-0.277523,2.70236,0.26351,
2,0,0,1,0,1113.36,0.25629,0.255996,-0.269864,1,0.0230285,11,-6.9084e-05,-3.56886,-0.240709,-0.245109,2.56645,0.255996,
2,0,0,1,0,1114.11,0.248799,0.24848,-0.289377,1,0.0228089,11,-7.19043e-05,-3.53854,-0.295569,-0.199615,2.25513,0.24848,
2,0,0,1,0,1114.86,0.241308,0.24103,-0.309226,1,0.0225746,11,-7.45327e-05,-3.50972,-0.3091,-0.190877,2.30572,0.24103,
2,0,0,1,0,1115.61,0.233817,0.23352,-0.32747,1,0.0223259,11,-7.64706e-05,-3.48483,-0.284838,-0.207135,2.64571,0.23352,
2,0,0,1,0,1116.36,0.226326,0.226033,-0.346528,1,0.0220619,11,-7.83269e-05,-3.46026,-0.349914,-0.168613,2.30547,0.226033,
2,0,0,1,0,1117.1,0.218835,0.218582,-0.371451,1,0.0217815,11,-8.11925e-05,-3.4301,-0.262416,-0.224834,3.25962,0.218582,
2,0,0,1,0,1117.85,0.211344,0.211104,-0.398374,1,0.0214828,11,-8.40983e-05,-3.39971,-0.310655,-0.189921,2.96579,0.211104,
2,0,0,1,0,1118.6,0.203854,0.203505,-0.426765,1,0.021162,11,-8.68488e-05,-3.36981,-0.210043,-0.280895,4.72267,0.203505,
2,0,0,1,0,1119.35,0.196362,0.196081,-0.472821,1,0.0208147,11,-9.27113e-05,-3.3253,-0.16705,-0.353187,6.50287,0.196081,
2,0,0,1,0,1120.1,0.188872,0.18855,-0.525352,1,0.0204321,11,-9.90553e-05,-3.27955,-0.117099,-0.503849,10.3154,0.18855,
2,0,0,1,0,1120.85,0.18138,0.181077,-0.601372,1,0.0200019,11,-0.000108895,-3.22086,-0.117458,-0.502308,11.7898,0.181077,
2,0,0,1,0,1121.6,0.17389,0.173553,-0.711602,1,0.019504,11,-0.000123501,-3.14776,-0.087658,-0.67307,18.6277,0.173553,
2,0,0,1,0,1122.35,0.166398,0.166098,-0.877786,1,0.0189036,11,-0.000145799,-3.05661,-0.0775541,-0.760759,26.1935,0.166098,
2,0,0,1,0,1123.1,0.158907,0.158616,-1.13644,1,0.0181437,11,-0.000180257,-2.94445,-0.0630621,-0.935586,41.6332,0.158616,
2,0,0,1,0,1123.85,0.151417,0.151112,-1.4733,1,0.0171568,11,-0.000222634,-2.83171,-0.0762159,-0.774117,44.4013,0.151112,
2,0,0,1,0,1124.6,0.143925,0.143649,-1.76799,1,0.015925,11,-0.00025397,-2.75252,-0.1202,-0.490849,33.7892,0.143649,
2,0,0,1,0,1125.34,0.136435,0.136138,-1.91903,1,0.0145213,11,-0.000261253,-2.71692,-0.60314,-0.0978214,7.28858,0.136138,
2,0,0,1,0,1126.09,0.128943,0.128634,-1.86796,1,0.013081,11,-0.000240284,-2.72863,0.202072,0.291975,-21.1756,0.128634,
2,0,0,1,0,1126.84,0.121453,0.121158,-1.64328,1,0.0117496,11,-0.000199096,-2.78429,0.107445,0.549119,-35.2055,0.121158,
2,0,0,1,0,1127.59,0.113962,0.11367,-1.39302,1,0.010603,11,-0.000158345,-2.85604,0.1087,0.542781,-29.6181,0.11367,
2,0,0,1,0,1128.34,0.106471,0.106172,-1.21921,1,0.00961833,11,-0.000129446,-2.91392,0.158999,0.371071,-17.7343,0.106172,
2,0,0,1,0,1129.09,0.0989798,0.0987135,-1.11028,1,0.00873956,11,-0.000109599,-2.95457,0.264765,0.222839,-9.61098,0.0987135,
2,0,0,1,0,1129.84,0.0914889,0.0911771,-1.03604,1,0.00792923,11,-9.4463e-05,-2.98462,0.267255,0.220763,-8.8811,0.0911771,
2,0,0,1,0,1130.59,0.083998,0.0836875,-0.968155,1,0.00717008,11,-8.10225e-05,-3.01406,0.218369,0.270185,-10.1982,0.0836875,
2,0,0,1,0,1131.34,0.076507,0.0761851,-0.908116,1,0.00645686,11,-6.91849e-05,-3.04186,0.264219,0.2233,-7.91509,0.0761851,
2,0,0,1,0,1132.09,0.069016,0.0687071,-0.848161,1,0.00578822,11,-5.82747e-05,-3.07152,0.266592,0.221312,-7.36685,0.0687071,
2,0,0,1,0,1132.84,0.0615251,0.0612408,-0.805567,1,0.00515795,11,-4.93336e-05,-3.0939,0.41347,0.142695,-4.49593,0.0612408,
2,0,0,1,0,1133.58,0.0540341,0.0537565,-0.772877,1,0.00455807,11,-4.15471e-05,-3.11189,0.456155,0.129342,-3.89117,0.0537565,
2,0,0,1,0,1134.33,0.0465441,0.0462488,-0.75028,1,0.00397845,11,-3.46996e-05,-3.12478,1.03521,0.056993,-1.6723,0.0462488,
2,0,0,1,0,1135.08,0.0390523,0.0387432,-0.740791,1,0.00340996,11,-2.87006e-05,-3.1303,0.728374,0.0810024,-2.3385,0.0387432,
2,0,0,1,0,1135.83,0.0315618,0.0312316,-0.741072,1,0.00284577,11,-2.31449e-05,-3.13014,-1.63845,-0.0360096,1.04065,0.0312316,
2,0,0,1,0,1136.58,0.0240704,0.0237851,-0.744852,1,0.00227944,11,-1.77164e-05,-3.12793,-1.17435,-0.0502407,1.46683,0.0237851,
2,0,0,1,0,1137.33,0.0165796,0.0163021,-0.759092,1,0.00170645,11,-1.23748e-05,-3.11971,-0.61135,-0.0965078,2.85468,0.0163021,
2,0,0,1,0,1138.08,0.00908845,0.00878145,-0.77316,1,0.00112204,11,-6.78946e-06,-3.11173,-0.782408,-0.0754083,2.28595,0.00878145,
2,0,0,1,0,1138.83,0.00159728,0.0012461,-0.801843,1,0.000521814,11,-9.99176e-07,-3.09591, , , ,0.0012461,
2,0,0,1,0,1138.97,0.000199195,-0.000157355,-0.800073,1,0.000408016,11,1.25896e-07,-3.09687, , , ,-0.000157355,