File: Figure_codes/Fig_3-5/rawdata_trumpetplot_data/before 10th/20221101_1-115_002_TrumpetPlot_ParaChange_16_CV_C01.mpt
EC-Lab ASCII FILE
Nb header lines : 68

Cyclic Voltammetry

Run on channel : 1 (SN 65296)
User :
CE vs. WE compliance from -10 V to 10 V
Electrode connection : standard
Potential control : Ewe
Ewe ctrl range : min = -1.00 V, max = 1.00 V
Safety Limits :
	Do not start on E overload
Acquisition started on : 11/08/2022 17:30:03.488
Loaded Setting File :  NONE
Saved on :
	File : 20221101_1-115_002_TrumpetPlot_ParaChange_16_CV_C01.mpr
	Directory : C:\Users\NakamuraT\Documents\EC-Lab\Data\Yatsuzuka\20221108_1-115_001_TrumpetPlot\
	Host : 192.109.209.100
Device : SP-50e (SN .003219)
Address : 192.109.209.128
EC-Lab for windows v11.43 (software)
Internet server v11.40 (firmware)
Command interpretor v11.40 (firmware)
Electrode material : Au/Pd
Initial state :
Electrolyte : NaCl (0.2M)
Comments : Fe(CN)63-/Fe(CN)64- 5.10-3 M
Reference electrode : SCE Saturated Calomel Electrode (0.241 V)
Electrode surface area : 0.001 cm2
Characteristic mass : 0.001 g
Equivalent Weight : 0.000 g/eq.
Density : 0.000 g/cm3
Volume (V) : 0.001 cm3
Cycle Definition : Charge/Discharge alternance
Ei (V)              0.000
vs.                 Ref
dE/dt               1000.000
dE/dt unit          mV/s
E1 (V)              0.300
vs.                 Ref
Step percent        50
N                   10
E range min (V)     -1.000
E range max (V)     1.000
I Range             100 mA
I Range min         Unset
I Range max         Unset
I Range init        Unset
Bandwidth           5
E2 (V)              -0.200
vs.                 Ref
nc cycles           0
Reverse Scan        1
Ef (V)              0.000
vs.                 Ref

Number of loops : 8
Loop 0 from point number 0 to 508
Loop 1 from point number 509 to 1017
Loop 2 from point number 1018 to 1526
Loop 3 from point number 1527 to 2035
Loop 4 from point number 2036 to 2544
Loop 5 from point number 2545 to 3053
Loop 6 from point number 3054 to 3562
Loop 7 from point number 3563 to 4071

mode	ox/red	error	control changes	counter inc.	time/s	control/V	Ewe/V	<I>/mA	cycle number	(Q-Qo)/C	I Range	P/W
2	1	0	0	0	1219.08	2.44065e-05	-0.00145148	57.7662	1	0.0000000E+000	10	-8.38462e-05
2	1	0	1	0	1219.14	0.059103	0.0587255	57.1305	1	0.00337058	10	0.00335502
2	1	0	1	0	1219.2	0.119131	0.118833	63.3899	1	0.00690197	10	0.00753278
2	1	0	1	0	1219.26	0.179108	0.178731	91.9415	1	0.011442	10	0.0164328
2	1	0	1	0	1219.32	0.239136	0.238883	117.395	1	0.0180293	10	0.0280437
2	1	0	1	0	1219.38	0.298913	0.298702	44.4065	1	0.0229554	10	0.0132643
2	0	0	1	0	1219.43	0.246726	0.246508	-26.012	1	0.0225766	10	-0.00641215
2	0	0	1	0	1219.49	0.186735	0.186508	-35.5936	1	0.0207519	10	-0.00663848
2	0	0	1	0	1219.55	0.126721	0.126563	-66.9909	1	0.0178449	10	-0.00847856
2	0	0	1	0	1219.61	0.0667438	0.0665132	-110.266	1	0.0124021	10	-0.00733413
2	0	0	1	0	1219.67	0.00671632	0.00646764	-90.6558	1	0.00604654	10	-0.000586329
2	0	0	1	0	1219.73	-0.0532612	-0.0535132	-63.6088	1	0.00160369	10	0.00340391
2	0	0	1	0	1219.79	-0.113289	-0.113544	-66.1576	1	-0.00222076	10	0.00751179
2	0	0	1	0	1219.85	-0.173266	-0.173469	-76.0458	1	-0.00646576	10	0.0131916
2	0	0	1	1	1219.91	-0.172667	-0.17309	-13.855	1	-0.00980254	10	0.00239816
2	1	0	1	1	1219.97	-0.112689	-0.113058	48.8558	1	-0.00838566	10	-0.00552356
2	1	0	1	1	1220.03	-0.052662	-0.0529798	64.8601	1	-0.00484516	10	-0.00343627
2	1	0	1	0	2450.71	0.00112308	0.000842184	59.2403	2	6.52615e-05	10	4.98912e-05
2	1	0	1	0	2450.77	0.0611006	0.0607668	57.6392	2	0.00349863	10	0.00350255
2	1	0	1	0	2450.83	0.121128	0.120809	66.8315	2	0.00713451	10	0.00807386
2	1	0	1	0	2450.89	0.181106	0.180753	97.1546	2	0.0119522	10	0.017561
2	1	0	1	0	2450.95	0.241133	0.24091	112.236	2	0.0186787	10	0.0270388
2	1	0	0	0	2451.01	0.299812	0.299632	39.4783	2	0.0229818	10	0.011829
2	0	0	1	0	2451.06	0.244729	0.244474	-27.2028	2	0.022384	10	-0.00665038
2	0	0	1	0	2451.12	0.184701	0.184466	-36.0507	2	0.0205238	10	-0.00665014
2	0	0	1	0	2451.18	0.124724	0.124552	-68.8217	2	0.0175633	10	-0.00857191
2	0	0	1	0	2451.24	0.0647462	0.0645737	-110.839	2	0.012011	10	-0.00715729
2	0	0	1	0	2451.3	0.00471873	0.00441787	-90.8748	2	0.00568972	10	-0.000401473
2	0	0	1	0	2451.36	-0.0552588	-0.0555715	-63.9062	2	0.00122275	10	0.00355136
2	0	0	1	0	2451.42	-0.115286	-0.115584	-66.5933	2	-0.00262323	10	0.00769713
2	0	0	1	0	2451.48	-0.175264	-0.175506	-76.7237	2	-0.00690189	10	0.0134654
2	0	0	1	1	2451.54	-0.170669	-0.171144	-8.84303	2	-0.0100891	10	0.00151343
2	1	0	1	1	2451.6	-0.110692	-0.111072	51.6717	2	-0.00844618	10	-0.00573928
2	1	0	1	1	2451.66	-0.0506644	-0.0509873	66.6813	2	-0.00477017	10	-0.0033999
2	1	0	1	0	3682.34	0.00312067	0.0028262	57.2922	3	0.000181706	10	0.000161919
2	1	0	1	0	3682.4	0.0631481	0.0627593	55.5476	3	0.003504	10	0.00348613
2	1	0	1	0	3682.46	0.123126	0.122831	64.4704	3	0.00701822	10	0.00791899
2	1	0	1	0	3682.52	0.183103	0.182754	90.4539	3	0.0115875	10	0.0165308
2	1	0	1	0	3682.58	0.243131	0.242881	106.876	3	0.017836	10	0.0259581
2	1	0	1	0	3682.64	0.300012	0.299785	46.3494	3	0.022169	10	0.0138948
2	0	0	1	0	3682.69	0.242731	0.242464	-22.5133	3	0.0219521	10	-0.00545868
2	0	0	1	0	3682.75	0.182704	0.182415	-32.7426	3	0.0203015	10	-0.00597273
2	0	0	1	0	3682.81	0.122726	0.122577	-61.2368	3	0.0176407	10	-0.00750621
2	0	0	1	0	3682.87	0.0627403	0.0625483	-99.6906	3	0.0126975	10	-0.00623547
2	0	0	1	0	3682.93	0.00272115	0.00243173	-90.5941	3	0.00675588	10	-0.000220301
2	0	0	1	0	3682.99	-0.0572564	-0.0576255	-65.4246	3	0.00216635	10	0.00377012
2	0	0	1	0	3683.05	-0.117284	-0.117563	-65.2223	3	-0.00167587	10	0.00766773
2	0	0	1	0	3683.11	-0.177261	-0.177524	-73.5637	3	-0.00581721	10	0.0130593
2	0	0	1	1	3683.17	-0.168672	-0.169103	-10.7875	3	-0.00881178	10	0.00182419
2	1	0	1	1	3683.23	-0.108694	-0.109086	43.7679	3	-0.00753579	10	-0.00477447
2	1	0	1	1	3683.29	-0.0486668	-0.0489757	60.7013	3	-0.00428857	10	-0.00297289
2	1	0	1	0	4913.97	0.00511825	0.0048537	56.2538	4	0.000296116	10	0.000273039
2	1	0	1	0	4914.03	0.0651457	0.0647773	55.191	4	0.00358525	10	0.00357512
2	1	0	1	0	4914.09	0.125123	0.124804	65.3996	4	0.00711998	10	0.00816211
2	1	0	1	0	4914.15	0.185101	0.184753	90.619	4	0.0117357	10	0.0167421
2	1	0	1	0	4914.21	0.245128	0.244894	100.259	4	0.0178317	10	0.0245528
2	1	0	0	0	4914.26	0.299812	0.299899	45.9449	4	0.021784	10	0.0137788
2	0	0	1	0	4914.32	0.240734	0.240517	-21.133	4	0.0216171	10	-0.00508286
2	0	0	1	0	4914.38	0.180706	0.180458	-31.5392	4	0.0200416	10	-0.00569151
2	0	0	1	0	4914.44	0.120729	0.120571	-59.278	4	0.0174707	10	-0.00714718
2	0	0	1	0	4914.5	0.0607011	0.0605155	-95.9282	4	0.0127002	10	-0.00580514
2	0	0	1	0	4914.56	0.000723562	0.000371364	-89.2671	4	0.00694475	10	-3.31505e-05
2	0	0	1	0	4914.62	-0.059254	-0.0595416	-65.8599	4	0.00235531	10	0.00392141
2	0	0	1	0	4914.68	-0.119282	-0.11961	-65.2309	4	-0.00150002	10	0.0078023
2	0	0	1	0	4914.74	-0.179259	-0.179517	-73.2487	4	-0.0056326	10	0.0131494
2	0	0	1	1	4914.8	-0.166674	-0.167079	-9.35719	4	-0.00849563	10	0.00156339
2	1	0	1	1	4914.86	-0.106697	-0.107097	42.3497	4	-0.0072451	10	-0.00453551
2	1	0	1	1	4914.92	-0.0466692	-0.0470055	59.5104	4	-0.0040826	10	-0.00279732
2	1	0	1	0	6145.6	0.00711584	0.00679531	56.1884	5	0.000416381	10	0.000381817
2	1	0	1	0	6145.66	0.0671433	0.0667783	55.0779	5	0.00369476	10	0.00367801
2	1	0	1	0	6145.72	0.127121	0.126775	65.9938	5	0.00724922	10	0.00836636
2	1	0	1	0	6145.78	0.187146	0.186833	90.262	5	0.0118797	10	0.0168639
2	1	0	1	0	6145.84	0.247126	0.246923	96.6477	5	0.0178491	10	0.0238646
2	1	0	1	0	6145.89	0.298714	0.298755	44.0457	5	0.0216628	10	0.0131589
2	0	0	1	0	6145.95	0.238736	0.238493	-19.7713	5	0.0215717	10	-0.00471533
2	0	0	1	0	6146.01	0.178709	0.178421	-30.7992	5	0.0200511	10	-0.00549523
2	0	0	1	0	6146.07	0.118731	0.118576	-57.6596	5	0.0175447	10	-0.00683705
2	0	0	1	0	6146.13	0.0587035	0.0585177	-92.5273	5	0.0129276	10	-0.00541449
2	0	0	1	0	6146.19	-0.00127403	-0.00157979	-88.3117	5	0.00732984	10	0.000139514
2	0	0	1	0	6146.25	-0.0612544	-0.0616094	-66.8348	5	0.00270802	10	0.00411765
2	0	0	1	0	6146.31	-0.121279	-0.121573	-65.3465	5	-0.00117903	10	0.00794439
2	0	0	1	0	6146.37	-0.181257	-0.181526	-72.7414	5	-0.00530032	10	0.0132044
2	0	0	1	1	6146.43	-0.164677	-0.165097	-8.70165	5	-0.00803195	10	0.00143661
2	1	0	1	1	6146.49	-0.104699	-0.105055	39.7755	5	-0.00686829	10	-0.00417862
2	1	0	1	1	6146.55	-0.0446716	-0.0450278	57.4644	5	-0.0038519	10	-0.0025875
2	1	0	1	0	7377.23	0.00911343	0.00877402	56.7914	6	0.000541543	10	0.000498289
2	1	0	1	0	7377.29	0.0691409	0.0687867	56.4448	6	0.00388158	10	0.00388265
2	1	0	1	0	7377.35	0.129118	0.128761	68.4625	6	0.00755176	10	0.00881531
2	1	0	1	0	7377.41	0.189146	0.188765	92.9157	6	0.0123459	10	0.0175393
2	1	0	1	0	7377.47	0.249123	0.248876	92.352	6	0.0183228	10	0.0229841
2	1	0	1	0	7377.52	0.296716	0.296741	35.161	6	0.0218726	10	0.0104337
2	0	0	1	0	7377.58	0.236738	0.236474	-21.8492	6	0.0215449	10	-0.00516676
2	0	0	1	0	7377.64	0.176711	0.176492	-31.7282	6	0.019938	10	-0.00559978
2	0	0	1	0	7377.7	0.116733	0.116562	-58.3386	6	0.0173889	10	-0.00680008
2	0	0	1	0	7377.76	0.0567059	0.0564955	-92.6626	6	0.0127426	10	-0.00523502
2	0	0	1	0	7377.82	-0.00327161	-0.00357229	-88.9234	6	0.00712847	10	0.00031766
2	0	0	1	0	7377.88	-0.0632991	-0.0636263	-67.7458	6	0.00245376	10	0.00431041
2	0	0	1	0	7377.94	-0.123277	-0.123536	-65.8128	6	-0.00146789	10	0.00813026
2	0	0	1	0	7378	-0.183254	-0.183546	-73.275	6	-0.00561891	10	0.0134493
2	0	0	1	1	7378.06	-0.162679	-0.163114	-6.16216	6	-0.00822155	10	0.00100513
2	1	0	1	1	7378.12	-0.102654	-0.102999	41.2646	6	-0.00695123	10	-0.00425022
2	1	0	1	1	7378.18	-0.042674	-0.0430438	59.0287	6	-0.00384809	10	-0.00254082
2	1	0	1	0	8608.86	0.011111	0.010775	54.6244	7	0.000639426	10	0.000588578
2	1	0	1	0	8608.92	0.0711385	0.0707346	54.8854	7	0.00387033	10	0.0038823
2	1	0	1	0	8608.98	0.131116	0.130783	67.0964	7	0.00746399	10	0.00877509
2	1	0	1	0	8609.04	0.191143	0.190774	89.8765	7	0.0121352	10	0.0171461
2	1	0	1	0	8609.1	0.251121	0.250876	86.8215	7	0.0178376	10	0.0217815
2	1	0	1	0	8609.15	0.294718	0.294659	31.1876	7	0.0212103	10	0.0091897
2	0	0	1	0	8609.21	0.234741	0.23452	-19.5258	7	0.0209617	10	-0.00457919
2	0	0	1	0	8609.27	0.174713	0.17445	-29.8936	7	0.0194734	10	-0.00521493
2	0	0	1	0	8609.33	0.114736	0.114525	-55.2428	7	0.0170617	10	-0.00632669
2	0	0	1	0	8609.39	0.0547083	0.0545094	-87.2776	7	0.0126762	10	-0.00475745
2	0	0	1	0	8609.45	-0.0052692	-0.00555207	-85.2707	7	0.00735608	10	0.000473429
2	0	0	1	0	8609.51	-0.0652967	-0.065639	-66.7154	7	0.00280546	10	0.00437913
2	0	0	1	0	8609.57	-0.125274	-0.125572	-64.5767	7	-0.00105504	10	0.00810903
2	0	0	1	0	8609.63	-0.185252	-0.185543	-71.2546	7	-0.00511005	10	0.0132208
2	0	0	1	1	8609.69	-0.160682	-0.161095	-5.89803	7	-0.00754036	10	0.000950141
2	1	0	1	1	8609.75	-0.100654	-0.101013	37.788	7	-0.00639391	10	-0.00381709
2	1	0	1	1	8609.81	-0.0406764	-0.0410587	55.4341	7	-0.00351176	10	-0.00227606
2	1	0	1	0	9840.49	0.0131086	0.0127145	56.2285	8	0.000779262	10	0.000714917
2	1	0	1	0	9840.55	0.0731361	0.0727855	57.1565	8	0.00412411	10	0.00416017
2	1	0	1	0	9840.61	0.133114	0.132742	70.0743	8	0.00787756	10	0.0093018
2	1	0	1	0	9840.67	0.193141	0.192799	92.7027	8	0.0127334	10	0.017873
2	1	0	1	0	9840.73	0.253119	0.252909	84.0777	8	0.0184608	10	0.021264
2	1	0	1	0	9840.78	0.292721	0.292699	25.9124	8	0.0216936	10	0.00758452
2	0	0	1	0	9840.84	0.232743	0.232507	-21.4225	8	0.0212811	10	-0.00498088
2	0	0	1	0	9840.9	0.172716	0.17245	-31.3387	8	0.0196941	10	-0.00540436
2	0	0	1	0	9840.96	0.112738	0.112546	-56.7383	8	0.0171984	10	-0.0063857
2	0	0	1	0	9841.02	0.0527107	0.0524575	-88.5242	8	0.0127253	10	-0.00464376
2	0	0	1	0	9841.08	-0.00726679	-0.00762092	-86.7519	8	0.00732872	10	0.000661129
2	0	0	1	0	9841.14	-0.0672943	-0.0675816	-68.5212	8	0.00267169	10	0.00463077
2	0	0	1	0	9841.2	-0.127272	-0.127574	-65.938	8	-0.00128062	10	0.00841199
2	0	0	1	0	9841.26	-0.187299	-0.187601	-72.5492	8	-0.00541214	10	0.0136103
2	0	0	1	1	9841.32	-0.158684	-0.159104	-3.81113	8	-0.00773503	10	0.000606368
2	1	0	1	1	9841.38	-0.0986564	-0.0990185	39.3874	8	-0.00648467	10	-0.00390008
2	1	0	1	1	9841.44	-0.0386789	-0.0390673	57.3298	8	-0.00349851	10	-0.00223972
2	1	0	0	1	9841.48	2.44065e-05	-0.000401673	61.6498	8	-0.00117974	10	-2.4763e-05