File: Figure_codes/Fig_3-5/rawdata_trumpetplot_data/before 10th/20221101_1-115_002_TrumpetPlot_ParaChange_14_CV_C01_2.csv
mode,ox/red,error,control changes,counter inc.,time/s,control/V,Ewe/V,<I>/mA,cycle number,(Q-Qo)/C,I Range,P/W,log(|I|),Tafel slope mV/dec,alpha_eff,dI/d(E-IR),E-IR/V,
2,1,0,1,0,3679.55,2.44065e-05,-0.000649808,23.0611,3,0.0000000E+000,10,-1.49853e-05,-1.63712, , , ,-0.000649808,
2,1,0,1,0,3679.57,0.0102815,0.00995214,25.4004,3,0.000411163,10,0.000252788,-1.59516,0.224297,0.263044,259.561,0.00995214,
2,1,0,1,0,3679.58,0.0210878,0.0207693,27.6324,3,0.000890488,10,0.000573906,-1.55858,0.411557,0.143358,154.021,0.0207693,
2,1,0,1,0,3679.6,0.0318859,0.0315675,28.8578,3,0.00140032,10,0.000910968,-1.53974,0.790435,0.0746425,83.9187,0.0315675,
2,1,0,1,0,3679.62,0.042684,0.0423931,29.5551,3,0.00192665,10,0.00125293,-1.52937,1.28556,0.0458945,52.9171,0.0423931,
2,1,0,1,0,3679.64,0.0534793,0.0531605,30.0874,3,0.00246347,10,0.00159946,-1.52162,1.27891,0.0461331,54.2294,0.0531605,
2,1,0,1,0,3679.66,0.0642857,0.0639353,30.8073,3,0.00301135,10,0.00196967,-1.51135,0.860866,0.0685357,82.5164,0.0639353,
2,1,0,1,0,3679.67,0.0750837,0.074708,31.9718,3,0.00357565,10,0.00238855,-1.49523,0.555094,0.106288,132.815,0.074708,
2,1,0,1,0,3679.69,0.0858818,0.0855697,33.6521,3,0.0041656,10,0.0028796,-1.47299,0.439969,0.1341,176.28,0.0855697,
2,1,0,1,0,3679.71,0.0966882,0.0962544,35.8106,3,0.00478996,10,0.00344693,-1.44599,0.361744,0.163099,228.241,0.0962544,
2,1,0,1,0,3679.73,0.107483,0.107159,38.5161,3,0.00545872,10,0.00412733,-1.41436,0.339752,0.173656,260.98,0.107159,
2,1,0,1,0,3679.75,0.118282,0.117957,41.4416,3,0.00617803,10,0.00488831,-1.38256,0.33436,0.176456,285.485,0.117957,
2,1,0,1,0,3679.76,0.129088,0.128753,44.6614,3,0.00695272,10,0.00575028,-1.35007,0.326371,0.180776,315.273,0.128753,
2,1,0,1,0,3679.78,0.139886,0.139523,48.3164,3,0.00778914,10,0.00674126,-1.31591,0.3033,0.194527,367.193,0.139523,
2,1,0,1,0,3679.8,0.150681,0.150339,52.6164,3,0.00869707,10,0.00791032,-1.27888,0.282491,0.208857,429.366,0.150339,
2,1,0,1,0,3679.82,0.161485,0.16116,57.549,3,0.00968838,10,0.00927458,-1.23996,0.279018,0.211456,474.99,0.16116,
2,1,0,1,0,3679.84,0.172286,0.17191,62.8078,3,0.0107721,10,0.0107973,-1.20199,0.299334,0.197104,482.631,0.17191,
2,1,0,1,0,3679.85,0.183084,0.182762,67.8145,3,0.0119489,10,0.0123939,-1.16868,0.365704,0.161333,426.08,0.182762,
2,1,0,1,0,3679.87,0.193879,0.193514,71.6236,3,0.013207,10,0.0138601,-1.14494,0.676074,0.0872686,242.94,0.1935138,
2,1,0,1,0,3679.89,0.204688,0.204392,72.4739,3,0.0145103,10,0.0148131,-1.13982,-1.16784,-0.0505205,-141.814,0.204392,
2,1,0,1,0,3679.91,0.215484,0.215221,67.9483,3,0.0157829,10,0.0146239,-1.16782,-0.220271,-0.267852,-703.23,0.215221,
2,1,0,1,0,3679.93,0.226282,0.226019,57.5274,3,0.0169184,10,0.0130023,-1.24013,-0.114492,-0.515319,-1148.11,0.226019,
2,1,0,1,0,3679.94,0.237088,0.236857,44.5116,3,0.0178357,10,0.0105429,-1.35153,-0.0887882,-0.664502,-1154.27,0.236857,
2,1,0,1,0,3679.96,0.247886,0.247613,33.5826,3,0.0185317,10,0.00831548,-1.47389,-0.0953086,-0.619042,-818.555,0.247613,
2,1,0,1,0,3679.98,0.258681,0.258367,26.941,3,0.0190695,10,0.00696067,-1.56959,-0.143402,-0.411432,-437.536,0.258367,
2,1,0,1,0,3680,0.269488,0.269231,23.723,3,0.0195215,10,0.00638698,-1.62483,-0.275482,-0.21417,-199.697,0.269231,
2,1,0,1,0,3680.02,0.280286,0.280001,22.2904,3,0.0199339,10,0.00624134,-1.65188,-0.567119,-0.104035,-90.7394,0.280001,
2,1,0,1,0,3680.03,0.291084,0.290806,21.5906,3,0.0203281,10,0.00627867,-1.66574,-0.951289,-0.0620211,-52.318,0.290806,
2,1,0,1,0,3680.05,0.300012,0.299823,21.2166,3,0.0206468,10,0.00636121,-1.67332,0.000303375,194.479,122396,0.299823,
2,1,0,1,0,3680.07,0.290843,0.290587,0.725292,3,0.020788,10,0.00021076,-3.13949,0.0302078,1.95314,1382.96,0.290587,
2,0,0,1,0,3680.08,0.280047,0.279781,-8.13138,3,0.0207071,10,-0.00227501,-2.08984,-0.0347521,-1.69774,489.554,0.279781,
2,0,0,1,0,3680.1,0.269244,0.268956,-11.5455,3,0.0205256,10,-0.00310524,-1.93759,-0.123986,-0.475861,210.576,0.268956,
2,0,0,1,0,3680.12,0.258443,0.258146,-13.1847,3,0.0203016,10,-0.00340356,-1.87993,-0.253988,-0.232294,118.893,0.258146,
2,0,0,1,0,3680.14,0.247645,0.247341,-14.2576,3,0.0200541,10,-0.00352649,-1.84595,-0.363031,-0.16252,90.3682,0.247341,
2,0,0,1,0,3680.16,0.236849,0.23658,-15.1565,3,0.019789,10,-0.00358572,-1.8194,-0.426387,-0.138372,81.8738,0.23658,
2,0,0,1,0,3680.17,0.22604,0.225725,-16.0402,3,0.0195082,10,-0.00362068,-1.79479,-0.452551,-0.130372,81.6328,0.2257247,
2,0,0,1,0,3680.19,0.215245,0.214954,-16.976,3,0.019211,10,-0.00364906,-1.77016,-0.411214,-0.143478,95.2026,0.214954,
2,0,0,1,0,3680.21,0.204447,0.204192,-18.089,3,0.0188956,10,-0.00369363,-1.74259,-0.36599,-0.161207,113.945,0.204192,
2,0,0,1,0,3680.23,0.19364,0.19336,-19.4522,3,0.0185581,10,-0.00376128,-1.71103,-0.315738,-0.186864,142.089,0.19336,
2,0,0,1,0,3680.25,0.182842,0.182584,-21.2309,3,0.0181925,10,-0.00387643,-1.67303,-0.25572,-0.230721,191.59,0.1825842,
2,0,0,1,0,3680.26,0.172047,0.171765,-23.653,3,0.0177895,10,-0.00406275,-1.62611,-0.207263,-0.284663,263.494,0.171765,
2,0,0,1,0,3680.28,0.161241,0.160976,-26.9616,3,0.0173354,10,-0.00434018,-1.56925,-0.17436,-0.33838,356.865,0.160976,
2,0,0,1,0,3680.3,0.150443,0.15019,-31.3704,3,0.0168118,10,-0.00471151,-1.50348,-0.154619,-0.381583,468.151,0.15019,
2,0,0,1,0,3680.32,0.139645,0.139391,-37.0507,3,0.0161973,10,-0.00516452,-1.4312,-0.148192,-0.398131,576.034,0.139391,
2,0,0,1,0,3680.34,0.128849,0.128652,-43.6252,3,0.0154715,10,-0.00561247,-1.36026,-0.159926,-0.368921,626.895,0.128652,
2,0,0,1,0,3680.35,0.118043,0.117823,-50.4921,3,0.0146245,10,-0.00594913,-1.29678,-0.183721,-0.321139,631.578,0.117823,
2,0,0,1,0,3680.37,0.107245,0.107078,-57.0476,3,0.0136548,10,-0.00610854,-1.24376,-0.225713,-0.261394,581.083,0.107078,
2,0,0,1,0,3680.39,0.0964468,0.0961833,-62.8342,3,0.0125734,10,-0.0060436,-1.2018,-0.309746,-0.190479,465.719,0.0961833,
2,0,0,1,0,3680.41,0.0856404,0.085364,-66.9784,3,0.0114017,10,-0.00571754,-1.17407,-0.549028,-0.107463,279.866,0.085364,
2,0,0,1,0,3680.43,0.0748451,0.0745383,-68.7653,3,0.0101759,10,-0.00512565,-1.16263,-4.22535,-0.0139633,37.3147,0.0745383,
2,0,0,1,0,3680.44,0.0640471,0.0637147,-67.7337,3,0.00894334,10,-0.00431563,-1.1692,0.707374,0.0834071,-219.655,0.0637147,
2,0,0,1,0,3680.46,0.0532407,0.0529103,-64.3014,3,0.00775288,10,-0.0034022,-1.19178,0.382837,0.154112,-385.931,0.0529103,
2,0,0,1,0,3680.48,0.0424426,0.0421387,-59.7984,3,0.00663597,10,-0.00251982,-1.22331,0.324225,0.181972,-424.466,0.0421387,
2,0,0,1,0,3680.5,0.0316473,0.0313639,-55.2012,3,0.00560142,10,-0.00173132,-1.25805,0.296178,0.199204,-428.804,0.03136386,
2,0,0,1,0,3680.52,0.0208437,0.0205668,-50.4216,3,0.00465094,10,-0.00103701,-1.29738,0.254289,0.23202,-456.009,0.0205668,
2,0,0,1,0,3680.53,0.0100429,0.00970718,-45.3995,3,0.00378887,10,-0.000440701,-1.34295,0.229812,0.256732,-455.045,0.00970718,
2,0,0,1,0,3680.55,-0.000755207,-0.0011429,-40.9097,3,0.00301415,10,4.67556e-05,-1.38817,0.26408,0.223417,-357.534,-0.0011429,
2,0,0,1,0,3680.57,-0.0115505,-0.0118933,-37.6969,3,0.00230931,10,0.00044834,-1.42369,0.390893,0.150937,-222.984,-0.0118933,
2,0,0,1,0,3680.59,-0.0223597,-0.0226861,-36.009,3,0.00164797,10,0.000816904,-1.44359,0.805527,0.0732439,-103.226,-0.0226861,
2,0,0,1,0,3680.61,-0.033155,-0.033498,-35.4111,3,0.00100647,10,0.0011862,-1.45086,4.87655,0.0120987,-16.7544,-0.033498,
2,0,0,1,0,3680.62,-0.043953,-0.044259,-35.5281,3,0.0003689,10,0.00157244,-1.44943,-2.64758,-0.0222845,30.9239,-0.044259,
2,0,0,1,0,3680.64,-0.0547594,-0.0550922,-36.0571,3,-0.000274751,10,0.00198647,-1.44301,-1.37534,-0.0428983,60.3743,-0.0550922,
2,0,0,1,0,3680.66,-0.0655575,-0.0659041,-36.8328,3,-0.000930402,10,0.00242743,-1.43377,-1.01673,-0.0580289,83.4194,-0.0659041,
2,0,0,1,0,3680.68,-0.0763528,-0.0766767,-37.7829,3,-0.00160171,10,0.00289707,-1.4227,-0.918367,-0.0642445,94.7493,-0.0766767,
2,0,0,1,0,3680.7,-0.0871592,-0.0874855,-38.8699,3,-0.00229134,10,0.00340055,-1.41039,-0.832559,-0.0708658,107.536,-0.0874855,
2,0,0,1,0,3680.71,-0.0979573,-0.0982974,-40.0878,3,-0.00300193,10,0.00394052,-1.39699,-0.833739,-0.0707656,110.217,-0.09829738,
2,0,0,1,1,3680.72,-0.0955546,-0.0960472,-26.9771,3,-0.00339172,10,0.00259108,-1.569,-0.0223041,-2.64526,2687.5,-0.0960472,
2,0,0,1,1,3680.74,-0.0847538,-0.0852077,-4.69416,3,-0.0036581,10,0.000399979,-2.32844,-0.0124017,-4.75742,1623.74,-0.0852077,
2,1,0,1,1,3680.76,-0.0739557,-0.0744128,9.27674,3,-0.00360648,10,-0.000690308,-2.0326,0.0170788,3.45458,1046.57,-0.0744128,
2,1,0,1,1,3680.78,-0.0631604,-0.0636221,18.4489,3,-0.0033507,10,-0.00117376,-1.73403,0.0599506,0.984144,689.371,-0.06362208,
2,1,0,1,1,3680.8,-0.0523512,-0.0527264,24.4937,3,-0.00295946,10,-0.00129146,-1.61095,0.126452,0.46658,440.682,-0.0527264,
2,1,0,1,1,3680.81,-0.0415559,-0.0419421,28.2658,3,-0.00248179,10,-0.00118553,-1.54874,0.237161,0.248776,272.678,-0.0419421,
2,1,0,1,1,3680.83,-0.0307579,-0.031128,30.538,3,-0.00195065,10,-0.000950587,-1.51516,0.437184,0.134955,160.265,-0.031128,
2,1,0,1,1,3680.85,-0.0199515,-0.0203702,31.8,3,-0.00138836,10,-0.000647772,-1.49757,0.898422,0.0656707,81.2674,-0.0203702,
2,1,0,1,1,3680.87,-0.0091534,-0.00948406,32.3403,3,-0.000810328,10,-0.000306717,-1.49026,3.0055,0.0196307,24.7314,-0.00948406,
2,1,0,1,1,3680.88,-7.54729e-05,-0.000344411,32.3166,3,-0.000321224,10,-1.11302e-05,-1.49057, , , ,-0.000344411,