File: Figure_codes/Fig_3-5/rawdata_trumpetplot_data/before 10th/20221101_1-115_002_TrumpetPlot_ParaChange_12_CV_C01_1.csv
mode,ox/red,error,control changes,counter inc.,time/s,control/V,Ewe/V,<I>/mA,cycle number,(Q-Qo)/C,I Range,P/W,log(|I|),Tafel slope mV/dec,alpha_eff,dI/d(E-IR),E-IR/V,
2,1,0,0,0,2441.72,2.44065e-05,-0.000401673,6.93894,2,0.0000000E+000,10,-2.78718e-06,-2.15871, , , ,-0.000401673,
2,1,0,1,0,2441.77,0.00977853,0.00951592,10.2121,2,0.000436012,10,9.71777e-05,-1.99088,0.181508,0.325055,128.481,0.00951592,
2,1,0,1,0,2441.82,0.0197755,0.0195081,10.6948,2,0.000963016,10,0.000208635,-1.97083,4.56608,0.0129214,5.39349,0.0195081,
2,1,0,1,0,2441.87,0.0297726,0.0294813,10.6917,2,0.00149786,10,0.000315203,-1.97096,-6.22028,-0.0094851,-3.95346,0.0294813,
2,1,0,1,0,2441.92,0.0397514,0.0394336,10.7096,2,0.00203164,10,0.000422316,-1.97023,1.49058,0.0395819,16.5886,0.0394336,
2,1,0,1,0,2441.97,0.0497393,0.0494405,10.9365,2,0.00257077,10,0.000540705,-1.96112,0.78039,0.0756032,32.1909,0.0494405,
2,1,0,1,0,2442.02,0.0597364,0.059418,11.3629,2,0.00312681,10,0.000675158,-1.94451,0.426519,0.138329,61.4064,0.059418,
2,1,0,1,0,2442.07,0.0697152,0.0694054,12.0944,2,0.00371112,10,0.000839415,-1.91742,0.35036,0.168398,79.4934,0.0694054,
2,1,0,1,0,2442.12,0.0796941,0.0794154,13.0957,2,0.00433823,10,0.00104,-1.88287,0.254979,0.231391,118.334,0.0794154,
2,1,0,1,0,2442.17,0.0896911,0.089359,14.3146,2,0.00502365,10,0.00127914,-1.84422,0.245659,0.24017,134.281,0.089359,
2,1,0,1,0,2442.22,0.099679,0.0993447,15.6474,2,0.00577129,10,0.00155449,-1.80556,0.262384,0.224861,137.231,0.0993447,
2,1,0,1,0,2442.27,0.109658,0.109367,17.0607,2,0.00658652,10,0.00186588,-1.768,0.259933,0.226981,151.061,0.109367,
2,1,0,1,0,2442.32,0.119655,0.119345,18.7636,2,0.00748031,10,0.00223934,-1.72668,0.223922,0.263484,193.098,0.119345,
2,1,0,1,0,2442.37,0.129652,0.129352,21.1107,2,0.00847414,10,0.00273072,-1.6755,0.177564,0.332274,273.744,0.129352,
2,1,0,1,0,2442.42,0.139631,0.139334,24.1907,2,0.00960257,10,0.00337059,-1.61635,0.165768,0.35592,336.177,0.139334,
2,1,0,1,0,2442.47,0.149619,0.149318,27.5855,2,0.010895,10,0.00411902,-1.55932,0.194672,0.303073,325.924,0.1493184,
2,1,0,1,0,2442.52,0.159616,0.15929,30.4266,2,0.0123498,10,0.00484664,-1.51675,0.317818,0.185641,220.327,0.15929,
2,1,0,1,0,2442.57,0.169595,0.169291,31.5039,2,0.0139066,10,0.00533332,-1.50164,-1.27716,-0.0461964,-56.6339,0.169291,
2,1,0,1,0,2442.62,0.179573,0.179273,28.3668,2,0.0154231,10,0.00508541,-1.54719,-0.110543,-0.53373,-588.558,0.179273,
2,1,0,1,0,2442.67,0.18957,0.189316,20.3458,2,0.0166531,10,0.00385179,-1.69152,-0.0528122,-1.11717,-885.35,0.189316,
2,1,0,1,0,2442.72,0.199558,0.199257,12.9499,2,0.0174666,10,0.00258036,-1.88773,-0.0584582,-1.00927,-512.701,0.199257,
2,1,0,1,0,2442.77,0.209537,0.209253,9.96098,2,0.0180217,10,0.00208436,-2.0017,-0.153669,-0.383942,-149.662,0.209253,
2,1,0,1,0,2442.82,0.219534,0.219267,9.18501,2,0.0184963,10,0.00201397,-2.03692,-0.519664,-0.113535,-40.8092,0.219267,
2,1,0,1,0,2442.87,0.229531,0.229218,8.85982,2,0.0189475,10,0.00203083,-2.05257,-0.587887,-0.100359,-34.6711,0.229218,
2,1,0,1,0,2442.92,0.23951,0.239208,8.58104,2,0.0193826,10,0.00205265,-2.06646,-0.99117,-0.0595256,-19.9738,0.2392078,
2,1,0,1,0,2442.97,0.249498,0.249166,8.36555,2,0.0198051,10,0.00208441,-2.07751,-0.932091,-0.0632985,-20.6345,0.249166,
2,1,0,1,0,2443.02,0.259495,0.259202,8.16395,2,0.020218,10,0.00211611,-2.0881,-0.801186,-0.0736408,-23.4732,0.2592023,
2,1,0,1,0,2443.07,0.269474,0.269141,7.99007,2,0.020621,10,0.00215046,-2.09745,-1.36133,-0.04334,-13.5289,0.269141,
2,1,0,1,0,2443.12,0.279453,0.279134,7.84123,2,0.0210164,10,0.00218875,-2.10562,-1.38839,-0.0424953,-13.0219,0.2791338,
2,1,0,1,0,2443.17,0.28945,0.289117,7.70735,2,0.0214052,10,0.00222833,-2.1131,-1.98188,-0.0297698,-8.95179,0.289117,
2,1,0,1,0,2443.22,0.299438,0.29915,7.58963,2,0.0217869,10,0.00227044,-2.11978,-0.0386774,-1.52544,-422.797,0.2991499,
2,0,0,1,0,2443.26,0.291747,0.291471,-3.14998,2,0.0218032,10,-0.000918127,-2.50169,-0.0286417,-2.05993,239.824,0.291471,
2,0,0,1,0,2443.31,0.28175,0.281459,-4.0021,2,0.0216178,10,-0.00112643,-2.39771,-0.216392,-0.272653,42.5853,0.281459,
2,0,0,1,0,2443.36,0.27178,0.27147,-4.4087,2,0.0214083,10,-0.00119683,-2.35569,-0.240794,-0.245023,41.9599,0.27147,
2,0,0,1,0,2443.41,0.261783,0.261489,-4.76817,2,0.0211788,10,-0.00124683,-2.32165,-0.350964,-0.168108,31.3378,0.2614893,
2,0,0,1,0,2443.46,0.251786,0.251504,-5.11242,2,0.0209315,10,-0.0012858,-2.29137,-0.327923,-0.17992,35.8485,0.251504,
2,0,0,1,0,2443.51,0.241807,0.241523,-5.44345,2,0.0206677,10,-0.00131472,-2.26413,-0.364823,-0.161722,34.4959,0.241523,
2,0,0,1,0,2443.56,0.231824,0.231565,-5.79943,2,0.0203871,10,-0.00134294,-2.23662,-0.331197,-0.178142,40.2748,0.231565,
2,0,0,1,0,2443.61,0.221822,0.22153,-6.17029,2,0.0200876,10,-0.0013669,-2.20969,-0.327172,-0.180333,43.4892,0.22153,
2,0,0,1,0,2443.66,0.211844,0.211565,-6.64539,2,0.0197681,10,-0.00140593,-2.17748,-0.347135,-0.169963,43.977,0.211565,
2,0,0,1,0,2443.71,0.201865,0.20154,-7.20297,2,0.0194231,10,-0.00145169,-2.14249,-0.261378,-0.225727,63.6183,0.2015404,
2,0,0,1,0,2443.76,0.191868,0.191572,-7.99598,2,0.019044,10,-0.0015318,-2.09713,-0.194842,-0.302809,94.5435,0.191572,
2,0,0,1,0,2443.81,0.18188,0.181562,-9.1048,2,0.0186192,10,-0.00165308,-2.04073,-0.147464,-0.400096,142.229,0.181562,
2,0,0,1,0,2443.86,0.171901,0.171611,-10.7501,2,0.0181265,10,-0.00184484,-1.96859,-0.127042,-0.464415,194.621,0.171611,
2,0,0,1,0,2443.91,0.161904,0.161606,-13.1817,2,0.0175323,10,-0.00213024,-1.88003,-0.103192,-0.571751,294.412,0.161606,
2,0,0,1,0,2443.96,0.151907,0.151633,-16.639,2,0.0167901,10,-0.00252303,-1.77887,-0.0979496,-0.602351,391.628,0.151633,
2,0,0,1,0,2444.01,0.141928,0.141637,-20.903,2,0.0158551,10,-0.00296065,-1.67979,-0.107219,-0.550276,448.998,0.1416374,
2,0,0,1,0,2444.06,0.13194,0.131685,-25.1931,2,0.0147023,10,-0.00331756,-1.59872,-0.144552,-0.408157,400.806,0.131685,
2,0,0,1,0,2444.11,0.121943,0.121608,-28.649,2,0.0133501,10,-0.00348394,-1.54289,-0.252271,-0.233876,261.127,0.121608,
2,0,0,1,0,2444.16,0.111964,0.111704,-30.2517,2,0.0118708,10,-0.00337923,-1.51925,-2.01167,-0.0293289,34.5556,0.111704,
2,0,0,1,0,2444.21,0.101985,0.101645,-29.1081,2,0.0103771,10,-0.00295869,-1.53599,0.243217,0.242582,-275.025,0.1016452,
2,0,0,1,0,2444.26,0.0919883,0.0917137,-25.2427,2,0.00901055,10,-0.00231511,-1.59786,0.130138,0.453366,-446.311,0.0917137,
2,0,0,1,0,2444.31,0.0820004,0.0816627,-20.9423,2,0.00786217,10,-0.0017102,-1.67898,0.130326,0.452712,-370.593,0.0816627,
2,0,0,1,0,2444.36,0.0720215,0.0717406,-18.0472,2,0.00689598,10,-0.00129472,-1.74359,0.181917,0.324324,-228.44,0.0717406,
2,0,0,1,0,2444.41,0.0620245,0.0617189,-16.0963,2,0.0060448,10,-0.000993447,-1.79327,0.211821,0.278536,-175.203,0.0617189,
2,0,0,1,0,2444.46,0.0520275,0.0516954,-14.4636,2,0.00528138,10,-0.000747703,-1.83972,0.206488,0.28573,-161.119,0.0516954,
2,0,0,1,0,2444.51,0.0420486,0.0417479,-13.0501,2,0.00459659,10,-0.000544813,-1.88439,0.275898,0.213847,-109.209,0.0417479,
2,0,0,1,0,2444.56,0.0320607,0.0317613,-12.2348,2,0.00396836,10,-0.000388593,-1.9124,0.498329,0.118396,-56.4289,0.0317613,
2,0,0,1,0,2444.61,0.0220637,0.021809,-11.8726,2,0.00336768,10,-0.000258931,-1.92545,1.95459,0.0301853,-14.0048,0.021809,
2,0,0,1,0,2444.66,0.0120848,0.0117673,-11.8754,2,0.00277613,10,-0.000139741,-1.92535,-10.1812,-0.00579499,2.68313,0.0117673,
2,0,0,1,0,2444.71,0.00210598,0.00172483,-12.076,2,0.00218089,10,-2.0829e-05,-1.91808,-0.755484,-0.0780956,36.7045,0.00172483,
2,0,0,1,0,2444.76,-0.00789103,-0.00820579,-12.2768,2,0.001572,10,0.000100741,-1.91091,-0.921573,-0.064021,30.7216,-0.00820579,
2,0,0,1,0,2444.81,-0.017879,-0.0182459,-12.625,2,0.000950355,10,0.000230354,-1.89877,-0.75352,-0.0782991,38.571,-0.0182459,
2,0,0,1,0,2444.86,-0.0278578,-0.028198,-12.9981,2,0.0003112,10,0.000366521,-1.88612,-0.861621,-0.0684756,34.738,-0.028198,
2,0,0,1,0,2444.91,-0.0378548,-0.0382119,-13.4071,2,-0.000348815,10,0.000512313,-1.87266,-0.766164,-0.077007,40.2716,-0.0382119,
2,0,0,1,0,2444.96,-0.0478519,-0.0481538,-13.8233,2,-0.00102974,10,0.000665646,-1.85939,-0.636262,-0.0927291,50.0803,-0.0481538,
2,0,0,1,0,2445.01,-0.0578126,-0.0581608,-14.2948,2,-0.00173026,10,0.000831395,-1.84482,-0.635908,-0.0927807,51.805,-0.0581608,
2,0,0,1,0,2445.06,-0.0678187,-0.0681747,-14.8543,2,-0.00245882,10,0.00101269,-1.82815,-0.539467,-0.109367,63.3664,-0.0681747,
2,0,0,1,0,2445.11,-0.0778157,-0.0781955,-15.5044,2,-0.00321747,10,0.00121237,-1.80955,-0.512227,-0.115183,69.7582,-0.0781955,
2,0,0,1,0,2445.16,-0.0877945,-0.0880992,-16.3536,2,-0.00401163,10,0.00144074,-1.78639,-0.390507,-0.151086,96.335,-0.0880992,
2,0,0,1,0,2445.21,-0.0977734,-0.0980975,-17.2968,2,-0.00485119,10,0.00169678,-1.76203,-0.386679,-0.152581,103.144,-0.09809754,
2,0,0,1,1,2445.25,-0.0936874,-0.0940656,-1.59794,2,-0.00530705,10,0.000150311,-2.79644,-0.00613911,-9.61052,1593.71,-0.0940656,
2,1,0,1,1,2445.3,-0.0837086,-0.0841196,7.47041,2,-0.00511565,10,-0.000628408,-2.12666,0.0341243,1.72897,494.743,-0.0841196,
2,1,0,1,1,2445.35,-0.0737025,-0.0740527,10.4538,2,-0.00465361,10,-0.000774131,-1.98073,0.147736,0.39936,161.883,-0.0740527,
2,1,0,1,1,2445.4,-0.0637236,-0.0640969,11.3644,2,-0.00410501,10,-0.000728424,-1.94445,0.549506,0.107369,47.6705,-0.0640969,
2,1,0,1,1,2445.45,-0.0537447,-0.0541004,11.6853,2,-0.00352835,10,-0.000632177,-1.93236,2.49505,0.0236468,10.7581,-0.0541004,
2,1,0,1,1,2445.5,-0.0437477,-0.0441238,11.716,2,-0.00294281,10,-0.000516956,-1.93122,-14.7549,-0.00399867,-1.82971,-0.0441238,
2,1,0,1,1,2445.55,-0.0337507,-0.0341238,11.6644,2,-0.00235797,10,-0.000398033,-1.93314,-2.84898,-0.0207092,-9.42256,-0.0341238,
2,1,0,1,1,2445.6,-0.0237809,-0.0241567,11.5471,2,-0.00178013,10,-0.000278939,-1.93753,-2.53498,-0.0232743,-10.477,-0.0241567,
2,1,0,1,1,2445.65,-0.0137839,-0.0141541,11.3913,2,-0.00120678,10,-0.000161233,-1.94343,-1.26144,-0.0467721,-20.7731,-0.0141541,
2,1,0,1,1,2445.7,-0.0037869,-0.00416968,11.1994,2,-0.000641948,10,-4.66978e-05,-1.95081,-1.35235,-0.0436276,-19.0842,-0.00416968,
2,1,0,1,1,2445.72,-2.55332e-05,-0.000306236,11.1024,2,-0.000433137,10,-3.39996e-06,-1.95458, , , ,-0.000306236,