File: Figure_codes/Fig_3-5/rawdata_trumpetplot_data/before 10th/20221101_1-115_002_TrumpetPlot_ParaChange_04_CV_C01.mpt
EC-Lab ASCII FILE
Nb header lines : 68

Cyclic Voltammetry

Run on channel : 1 (SN 65296)
User :
CE vs. WE compliance from -10 V to 10 V
Electrode connection : standard
Potential control : Ewe
Ewe ctrl range : min = -1.00 V, max = 1.00 V
Safety Limits :
	Do not start on E overload
Acquisition started on : 11/08/2022 17:30:03.488
Loaded Setting File :  NONE
Saved on :
	File : 20221101_1-115_002_TrumpetPlot_ParaChange_04_CV_C01.mpr
	Directory : C:\Users\NakamuraT\Documents\EC-Lab\Data\Yatsuzuka\20221108_1-115_001_TrumpetPlot\
	Host : 192.109.209.100
Device : SP-50e (SN .003219)
Address : 192.109.209.128
EC-Lab for windows v11.43 (software)
Internet server v11.40 (firmware)
Command interpretor v11.40 (firmware)
Electrode material : Au/Pd
Initial state :
Electrolyte : NaCl (0.2M)
Comments : Fe(CN)63-/Fe(CN)64- 5.10-3 M
Reference electrode : SCE Saturated Calomel Electrode (0.241 V)
Electrode surface area : 0.001 cm2
Characteristic mass : 0.001 g
Equivalent Weight : 0.000 g/eq.
Density : 0.000 g/cm3
Volume (V) : 0.001 cm3
Cycle Definition : Charge/Discharge alternance
Ei (V)              0.000
vs.                 Ref
dE/dt               1.000
dE/dt unit          mV/s
E1 (V)              0.300
vs.                 Ref
Step percent        50
N                   10
E range min (V)     -1.000
E range max (V)     1.000
I Range             10 mA
I Range min         Unset
I Range max         Unset
I Range init        Unset
Bandwidth           5
E2 (V)              0.000
vs.                 Ref
nc cycles           0
Reverse Scan        0
Ef (V)              0.000
vs.                 Eoc

Number of loops : 8
Loop 0 from point number 0 to 1204
Loop 1 from point number 1205 to 2409
Loop 2 from point number 2410 to 3614
Loop 3 from point number 3615 to 4819
Loop 4 from point number 4820 to 6024
Loop 5 from point number 6025 to 7229
Loop 6 from point number 7230 to 8434
Loop 7 from point number 8435 to 9639

mode	ox/red	error	control changes	counter inc.	time/s	control/V	Ewe/V	<I>/mA	cycle number	(Q-Qo)/C	I Range	P/W
2	0	0	0	0	358.801	2.44065e-05	-0.000382585	-0.375388	1	0.0000000E+000	11	1.43618e-07
2	0	0	1	0	395.033	0.0362557	0.0359342	-0.0263294	1	-0.00171292	11	-9.46126e-07
2	1	0	1	0	431.489	0.0727116	0.0724546	0.0127273	1	-0.00119605	11	9.22152e-07
2	1	0	1	0	467.944	0.109167	0.108865	0.0661936	1	0.000979122	11	7.20614e-06
2	1	0	1	0	504.4	0.145623	0.145303	0.172895	1	0.00653495	11	2.51222e-05
2	1	0	1	0	540.856	0.182079	0.181822	0.0573998	1	0.0112594	11	1.04365e-05
2	1	0	1	0	577.312	0.218535	0.218196	0.0438287	1	0.0137997	11	9.56324e-06
2	1	0	1	0	613.768	0.254991	0.254677	0.0457782	1	0.016171	11	1.16587e-05
2	1	0	1	0	650.224	0.291447	0.291136	0.0484251	1	0.018617	11	1.40983e-05
2	1	0	1	0	686.032	0.27277	0.272477	-0.00393047	1	0.0188797	11	-1.07096e-06
2	0	0	1	0	722.488	0.236314	0.23603	-0.0218597	1	0.017656	11	-5.15955e-06
2	0	0	1	0	758.944	0.199858	0.199594	-0.0415906	1	0.015762	11	-8.30124e-06
2	0	0	1	0	795.4	0.163402	0.163111	-0.103042	1	0.0126259	11	-1.68073e-05
2	0	0	1	0	831.856	0.126946	0.126635	-0.193476	1	0.00537178	11	-2.45008e-05
2	0	0	1	0	868.312	0.0904901	0.0901793	-0.122926	1	-0.000938864	11	-1.10854e-05
2	0	0	1	0	904.767	0.0540342	0.0537364	-0.0974917	1	-0.00568873	11	-5.23886e-06
2	0	0	1	0	941.223	0.0175782	0.0172594	-0.100979	1	-0.010054	11	-1.74284e-06
2	0	0	1	0	1608.18	0.0177779	0.0174555	-0.055463	2	-0.00134957	11	-9.68134e-07
2	0	0	1	0	1644.64	0.0542339	0.0539484	-0.00653462	2	-0.00156103	11	-3.52532e-07
2	1	0	1	0	1681.1	0.0906899	0.0903999	0.0409377	2	-0.000126941	11	3.70076e-06
2	1	0	1	0	1717.55	0.127146	0.126834	0.130662	2	0.00348809	11	1.65724e-05
2	1	0	1	0	1754.01	0.163602	0.163292	0.0940857	2	0.00967436	11	1.53635e-05
2	1	0	1	0	1790.46	0.200058	0.19979	0.0456301	2	0.012684	11	9.11646e-06
2	1	0	1	0	1826.92	0.236514	0.236202	0.043736	2	0.0150626	11	1.03305e-05
2	1	0	1	0	1863.38	0.27297	0.272685	0.0473436	2	0.0174628	11	1.29099e-05
2	1	0	1	0	1899.18	0.291248	0.290932	0.0110247	2	0.0193005	11	3.20745e-06
2	1	0	1	0	1935.64	0.254792	0.25454	-0.012612	2	0.0184729	11	-3.21027e-06
2	0	0	1	0	1972.09	0.218336	0.218073	-0.029271	2	0.0169424	11	-6.38321e-06
2	0	0	1	0	2008.55	0.18188	0.181587	-0.0568393	2	0.0146504	11	-1.03213e-05
2	0	0	1	0	2045.01	0.145424	0.145114	-0.183651	2	0.00990357	11	-2.66502e-05
2	0	0	1	0	2081.46	0.108968	0.108687	-0.14769	2	0.00230361	11	-1.60519e-05
2	0	0	1	0	2117.92	0.0725118	0.0722181	-0.110944	2	-0.00319339	11	-8.01215e-06
2	0	0	1	0	2154.37	0.0360558	0.035756	-0.0963395	2	-0.00769202	11	-3.44472e-06
2	0	0	0	0	2190.4	2.44065e-05	-0.000191712	-0.109813	2	-0.0121649	11	2.10525e-08
2	0	0	1	0	2857.79	0.0357563	0.0354899	-0.0240051	3	-0.00169572	11	-8.51939e-07
2	1	0	1	0	2894.25	0.0722122	0.0718916	0.0220514	3	-0.00104885	11	1.58531e-06
2	1	0	1	0	2930.7	0.108668	0.108386	0.0754624	3	0.00140618	11	8.1791e-06
2	1	0	1	0	2967.16	0.145124	0.144836	0.162438	3	0.00683069	11	2.35269e-05
2	1	0	1	0	3003.61	0.18158	0.181307	0.0565593	3	0.01124	11	1.02546e-05
2	1	0	1	0	3040.07	0.218036	0.217758	0.0456857	3	0.0137139	11	9.94841e-06
2	1	0	1	0	3076.53	0.254492	0.254195	0.0476072	3	0.0160692	11	1.21015e-05
2	1	0	1	0	3112.98	0.290948	0.290643	0.0512343	3	0.0185115	11	1.48909e-05
2	0	0	1	0	3148.79	0.273269	0.272989	-0.00508339	3	0.0188291	11	-1.38771e-06
2	0	0	1	0	3185.25	0.236813	0.236525	-0.0229703	3	0.0176326	11	-5.43305e-06
2	0	0	1	0	3221.7	0.200357	0.200064	-0.0416311	3	0.0157931	11	-8.32889e-06
2	0	0	1	0	3258.16	0.163901	0.16361	-0.0938864	3	0.0128608	11	-1.53608e-05
2	0	0	1	0	3294.61	0.127445	0.127117	-0.195857	3	0.00606126	11	-2.48969e-05
2	0	0	1	0	3331.07	0.0909895	0.0907148	-0.133175	3	-0.000476048	11	-1.2081e-05
2	0	0	1	0	3367.52	0.0545335	0.0542347	-0.103171	3	-0.00550251	11	-5.59545e-06
2	0	0	1	0	3403.98	0.0180776	0.0177631	-0.102037	3	-0.0098906	11	-1.8125e-06
2	0	0	1	0	4070.94	0.0172785	0.0169635	-0.0549056	4	-0.00134683	11	-9.3139e-07
2	0	0	1	0	4107.4	0.0537345	0.0534341	-0.000578476	4	-0.00155179	11	-3.09104e-08
2	1	0	1	0	4143.85	0.0901905	0.0898856	0.0489392	4	7.54193e-05	11	4.39893e-06
2	1	0	1	0	4180.31	0.126646	0.12635	0.130166	4	0.00378902	11	1.64465e-05
2	1	0	1	0	4216.76	0.163102	0.162831	0.0876526	4	0.00954089	11	1.42725e-05
2	1	0	1	0	4253.22	0.199558	0.199275	0.0470257	4	0.0124031	11	9.37104e-06
2	1	0	1	0	4289.68	0.236014	0.235776	0.0456484	4	0.0147464	11	1.07628e-05
2	1	0	1	0	4326.13	0.27247	0.272175	0.0500191	4	0.0171355	11	1.36139e-05
2	1	0	1	0	4361.94	0.291747	0.291438	0.00880785	4	0.0190091	11	2.56694e-06
2	0	0	1	0	4398.4	0.255291	0.25502	-0.0152872	4	0.0182002	11	-3.89854e-06
2	0	0	1	0	4434.85	0.218835	0.218541	-0.0318589	4	0.0166974	11	-6.9625e-06
2	0	0	1	0	4471.31	0.182379	0.182123	-0.0554156	4	0.014491	11	-1.00925e-05
2	0	0	1	0	4507.76	0.145923	0.14566	-0.168603	4	0.010163	11	-2.45586e-05
2	0	0	1	0	4544.22	0.109467	0.109158	-0.157378	4	0.00270755	11	-1.71791e-05
2	0	0	1	0	4580.68	0.0730112	0.072741	-0.120711	4	-0.00299365	11	-8.7806e-06
2	0	0	1	0	4617.13	0.0365552	0.0362512	-0.100314	4	-0.00763007	11	-3.6365e-06
2	0	0	1	0	4653.49	0.000199235	-0.000159223	-0.11183	4	-0.0121018	11	1.78058e-08
2	0	0	1	0	5320.55	0.0352569	0.0350138	-0.0222503	5	-0.00169359	11	-7.79066e-07
2	1	0	1	0	5357	0.0717128	0.0714419	0.0290118	5	-0.000938683	11	2.07266e-06
2	1	0	1	0	5393.46	0.108169	0.107844	0.0789116	5	0.00164624	11	8.51011e-06
2	1	0	1	0	5429.92	0.144625	0.144322	0.149907	5	0.00690068	11	2.16347e-05
2	1	0	1	0	5466.37	0.181081	0.180783	0.0548559	5	0.0109657	11	9.917e-06
2	1	0	1	0	5502.83	0.217537	0.217258	0.0461618	5	0.0133713	11	1.0029e-05
2	1	0	1	0	5539.28	0.253993	0.253732	0.0488009	5	0.0157087	11	1.23824e-05
2	1	0	1	0	5575.74	0.290448	0.290149	0.0523177	5	0.0181463	11	1.51799e-05
2	0	0	1	0	5611.55	0.273769	0.273517	-0.00582244	5	0.0185148	11	-1.59254e-06
2	0	0	1	0	5648	0.237313	0.237024	-0.0234552	5	0.0173404	11	-5.55947e-06
2	0	0	1	0	5684.46	0.200857	0.200517	-0.0410478	5	0.0155422	11	-8.23076e-06
2	0	0	1	0	5720.91	0.164401	0.164118	-0.0860233	5	0.0127804	11	-1.4118e-05
2	0	0	1	0	5757.37	0.127945	0.127616	-0.193004	5	0.00645473	11	-2.46303e-05
2	0	0	1	0	5793.83	0.0914889	0.0912068	-0.137039	5	-0.000185281	11	-1.24989e-05
2	0	0	1	0	5830.28	0.0550329	0.0547681	-0.109214	5	-0.00537875	11	-5.98144e-06
2	0	0	1	0	5866.74	0.018577	0.0182647	-0.103115	5	-0.00981772	11	-1.88336e-06
2	0	0	1	0	6533.7	0.0167791	0.0165308	-0.0550731	6	-0.00135396	11	-9.10403e-07
2	0	0	1	0	6570.15	0.0532351	0.052941	0.00312777	6	-0.00153981	11	1.65587e-07
2	1	0	1	0	6606.61	0.0896911	0.0894095	0.0524842	6	0.000209043	11	4.69258e-06
2	1	0	1	0	6643.07	0.126147	0.125863	0.126911	6	0.00397223	11	1.59734e-05
2	1	0	1	0	6679.52	0.162603	0.162323	0.0786661	6	0.00930882	11	1.27693e-05
2	1	0	1	0	6715.98	0.199059	0.198706	0.0462756	6	0.0119968	11	9.19522e-06
2	1	0	1	0	6752.43	0.235515	0.235196	0.0462739	6	0.0143018	11	1.08834e-05
2	1	0	1	0	6788.89	0.271971	0.271687	0.0498144	6	0.0166743	11	1.35339e-05
2	1	0	1	0	6824.7	0.292246	0.29196	0.0089439	6	0.0185777	11	2.61126e-06
2	0	0	1	0	6861.15	0.25579	0.255444	-0.0150649	6	0.0177863	11	-3.84823e-06
2	0	0	1	0	6897.61	0.219334	0.21901	-0.0313763	6	0.0163063	11	-6.87173e-06
2	0	0	1	0	6934.07	0.182878	0.182606	-0.0530224	6	0.0141657	11	-9.68224e-06
2	0	0	1	0	6970.52	0.146423	0.146139	-0.154061	6	0.0102153	11	-2.25143e-05
2	0	0	1	0	7006.98	0.109967	0.109664	-0.162605	6	0.00297964	11	-1.78319e-05
2	0	0	1	0	7043.43	0.0735106	0.0731821	-0.126036	6	-0.00283439	11	-9.2236e-06
2	0	0	1	0	7079.89	0.0370546	0.0367432	-0.10243	6	-0.00761204	11	-3.76359e-06
2	0	0	1	0	7116.34	0.000598646	0.000246162	-0.1112	6	-0.0120932	11	-2.73733e-08
2	0	0	1	0	7783.3	0.0347575	0.0344614	-0.0210039	7	-0.00169325	11	-7.23824e-07
2	1	0	1	0	7819.76	0.0712134	0.0709011	0.0331023	7	-0.000843426	11	2.34699e-06
2	1	0	1	0	7856.22	0.107669	0.107397	0.0814386	7	0.00180711	11	8.74627e-06
2	1	0	1	0	7892.67	0.144125	0.143846	0.136464	7	0.00686246	11	1.96298e-05
2	1	0	1	0	7929.13	0.180581	0.18027	0.0525486	7	0.0105705	11	9.47296e-06
2	1	0	1	0	7965.58	0.217037	0.216735	0.0467579	7	0.0129168	11	1.01341e-05
2	1	0	1	0	8002.04	0.253493	0.253199	0.0492947	7	0.0152337	11	1.24814e-05
2	1	0	1	0	8038.5	0.289949	0.289654	0.0527369	7	0.0176552	11	1.52755e-05
2	0	0	1	0	8074.3	0.274268	0.273969	-0.00660797	7	0.0180658	11	-1.81038e-06
2	0	0	1	0	8110.76	0.237812	0.237509	-0.0247593	7	0.0169041	11	-5.88057e-06
2	0	0	1	0	8147.22	0.201356	0.201052	-0.0411159	7	0.0151339	11	-8.26644e-06
2	0	0	1	0	8183.67	0.1649	0.164607	-0.0778302	7	0.0125073	11	-1.28114e-05
2	0	0	1	0	8220.13	0.128444	0.128116	-0.186722	7	0.00669086	11	-2.39221e-05
2	0	0	1	0	8256.58	0.0919883	0.0916734	-0.140618	7	3.71744e-05	11	-1.28909e-05
2	0	0	1	0	8293.04	0.0555323	0.0552538	-0.114336	7	-0.00527069	11	-6.3175e-06
2	0	0	1	0	8329.5	0.0190764	0.0187652	-0.10455	7	-0.00977938	11	-1.96191e-06
2	0	0	1	0	8996.46	0.0162797	0.0159709	-0.0552067	8	-0.00131048	11	-8.81703e-07
2	0	0	1	0	9032.91	0.0527357	0.0524564	0.00742462	8	-0.00144221	11	3.89469e-07
2	1	0	1	0	9069.37	0.0891917	0.0888888	0.0540739	8	0.000389427	11	4.80656e-06
2	1	0	1	0	9105.82	0.125648	0.125325	0.122428	8	0.00416235	11	1.53433e-05
2	1	0	1	0	9142.28	0.162104	0.161804	0.0724123	8	0.00913936	11	1.17166e-05
2	1	0	1	0	9178.74	0.19856	0.198297	0.0461603	8	0.0117186	11	9.15347e-06
2	1	0	1	0	9215.19	0.235016	0.234677	0.0475095	8	0.0140072	11	1.11494e-05
2	1	0	1	0	9251.65	0.271471	0.27118	0.0507066	8	0.0163758	11	1.37506e-05
2	1	0	1	0	9287.45	0.292746	0.292491	0.00874042	8	0.0183158	11	2.55649e-06
2	0	0	1	0	9323.91	0.25629	0.255957	-0.0161565	8	0.0175406	11	-4.13537e-06
2	0	0	1	0	9360.37	0.219834	0.219546	-0.032007	8	0.0160766	11	-7.02701e-06
2	0	0	1	0	9396.82	0.183378	0.183092	-0.0517449	8	0.0139825	11	-9.47408e-06
2	0	0	1	0	9433.28	0.146922	0.146614	-0.139025	8	0.0103369	11	-2.0383e-05
2	0	0	1	0	9469.73	0.110466	0.110178	-0.164177	8	0.00334626	11	-1.80887e-05
2	0	0	1	0	9506.19	0.07401	0.0737028	-0.128664	8	-0.00254564	11	-9.48287e-06
2	0	0	1	0	9542.65	0.037554	0.0372502	-0.105687	8	-0.00744756	11	-3.93685e-06
2	0	0	1	0	9579.1	0.00109804	0.000733942	-0.111601	8	-0.0119473	11	-8.19083e-08
2	0	0	0	0	9580.17	2.44065e-05	-0.000363498	-0.111204	8	-0.0120862	11	4.04224e-08