File: Figure_codes/Fig_3-5/rawdata_trumpetplot_data/before 10th/20221101_1-115_002_TrumpetPlot_ParaChange_13_CV_C01_7.csv
mode,ox/red,error,control changes,counter inc.,time/s,control/V,Ewe/V,<I>/mA,cycle number,(Q-Qo)/C,I Range,P/W,log(|I|),Tafel slope mV/dec,alpha_eff,dI/d(E-IR),E-IR/V,
2,1,0,0,0,9835.59,2.44065e-05,-0.000439847,14.4098,8,0.0000000E+000,10,-6.3381e-06,-1.84134, , , ,-0.000439847,
2,1,0,1,0,9835.62,0.0100623,0.00970506,16.0869,8,0.000368756,10,0.000156124,-1.79353,0.137087,0.430385,268.668,0.00970506,
2,1,0,1,0,9835.64,0.0204636,0.0201554,18.1917,8,0.00081723,10,0.000366661,-1.74013,0.274053,0.215287,152.629,0.0201554,
2,1,0,1,0,9835.67,0.0308677,0.0305336,19.4759,8,0.00130831,10,0.00059467,-1.7105,0.434433,0.135809,103.11,0.0305336,
2,1,0,1,0,9835.69,0.0412635,0.040986,20.4598,8,0.00182758,10,0.000838567,-1.6891,0.52087,0.113272,90.3515,0.040986,
2,1,0,1,0,9835.72,0.051662,0.0513186,21.4576,8,0.00237239,10,0.00110117,-1.66842,0.464978,0.126888,106.417,0.0513186,
2,1,0,1,0,9835.75,0.0620633,0.0617551,22.7086,8,0.00294635,10,0.00140237,-1.64381,0.386345,0.152713,135.513,0.0617551,
2,1,0,1,0,9835.77,0.0724674,0.0721185,24.2732,8,0.00355687,10,0.00175055,-1.61487,0.353239,0.167026,158.173,0.0721185,
2,1,0,1,0,9835.8,0.0828632,0.0825105,25.9949,8,0.00420979,10,0.00214485,-1.58511,0.334858,0.176194,178.733,0.0825105,
2,1,0,1,0,9835.82,0.0932618,0.0929798,27.9003,8,0.00491076,10,0.00259417,-1.55439,0.348895,0.169105,184.207,0.0929798,
2,1,0,1,0,9835.85,0.103669,0.103343,29.8255,8,0.00566127,10,0.00308226,-1.52541,0.368699,0.160022,186.227,0.103343,
2,1,0,1,0,9835.88,0.114067,0.113765,31.794,8,0.0064622,10,0.00361704,-1.49766,0.369373,0.15973,198.099,0.113765,
2,1,0,1,0,9835.9,0.124463,0.12415,33.9538,8,0.00731639,10,0.00421538,-1.46911,0.349271,0.168923,223.942,0.1241505,
2,1,0,1,0,9835.93,0.134861,0.134516,36.5089,8,0.00823199,10,0.00491103,-1.4376,0.30989,0.19039,271.618,0.134516,
2,1,0,1,0,9835.95,0.145268,0.144901,39.4771,8,0.00921971,10,0.00572026,-1.40365,0.314274,0.187734,289.04,0.144901,
2,1,0,1,0,9835.98,0.155667,0.155335,42.4341,8,0.010285,10,0.0065915,-1.37228,0.356235,0.165621,274.1,0.1553349,
2,1,0,1,0,9836.01,0.166063,0.165744,45.046,8,0.0114238,10,0.00746609,-1.34634,0.471206,0.125211,220.027,0.165744,
2,1,0,1,0,9836.03,0.176461,0.176127,46.7349,8,0.0126206,10,0.0082313,-1.33036,1.45928,0.0404309,73.5537,0.176127,
2,1,0,1,0,9836.06,0.186868,0.186577,45.9723,8,0.013833,10,0.00857736,-1.3375,-0.407917,-0.144637,-258.221,0.1865766,
2,1,0,1,0,9836.08,0.197267,0.196973,41.1184,8,0.0149738,10,0.0080992,-1.38596,-0.144281,-0.408924,-653.095,0.196973,
2,1,0,1,0,9836.11,0.207662,0.207366,33.2126,8,0.0159423,10,0.00688717,-1.4787,-0.096392,-0.612084,-792.154,0.2073659,
2,1,0,1,0,9836.14,0.218061,0.217781,25.6927,8,0.0167029,10,0.00559539,-1.59019,-0.0983405,-0.599956,-603.925,0.2177812,
2,1,0,1,0,9836.16,0.228468,0.22815,20.8344,8,0.0173012,10,0.00475337,-1.68122,-0.141349,-0.417407,-340.658,0.22815,
2,1,0,1,0,9836.19,0.238866,0.238566,18.2652,8,0.0178053,10,0.00435747,-1.73837,-0.246875,-0.238987,-170.788,0.238566,
2,1,0,1,0,9836.21,0.249262,0.248907,16.95,8,0.0182613,10,0.00421898,-1.77083,-0.413152,-0.142805,-94.6316,0.248907,
2,1,0,1,0,9836.24,0.259661,0.259349,16.1858,8,0.0186914,10,0.00419777,-1.79087,-0.62982,-0.0936776,-59.2327,0.259349,
2,1,0,1,0,9836.27,0.270068,0.26977,15.6661,8,0.0191051,10,0.00422623,-1.80504,-0.83316,-0.0708148,-43.3127,0.26977,
2,1,0,1,0,9836.29,0.280466,0.280189,15.2674,8,0.0195069,10,0.00427776,-1.81624,-0.93629,-0.0630147,-37.5116,0.280189,
2,1,0,1,0,9836.32,0.290862,0.290599,14.9088,8,0.019899,10,0.0043325,-1.82656,-1.01591,-0.058076,-33.7843,0.290599,
2,1,0,0,0,9836.34,0.300012,0.299766,14.6368,8,0.0202373,10,0.00438762,-1.83455,0.000160022,368.7,167377,0.299766,
2,0,0,1,0,9836.36,0.290704,0.290432,-0.977895,8,0.0203554,10,-0.000284012,-3.00971,-0.0461054,-1.27968,852.898,0.290432,
2,0,0,1,0,9836.39,0.280305,0.280005,-5.97757,8,0.0202522,10,-0.00167375,-2.22348,-0.050349,-1.17182,265.771,0.2800048,
2,0,0,1,0,9836.42,0.269909,0.269608,-7.801,8,0.0200696,10,-0.00210321,-2.10785,-0.149762,-0.393958,119.402,0.269608,
2,0,0,1,0,9836.44,0.2595,0.259226,-8.76914,8,0.0198532,10,-0.00227319,-2.05704,-0.265675,-0.222076,75.7699,0.259226,
2,0,0,1,0,9836.47,0.249104,0.248816,-9.44394,8,0.0196161,10,-0.0023498,-2.02485,-0.394547,-0.149539,55.0177,0.2488161,
2,0,0,1,0,9836.49,0.238705,0.238393,-10.0222,8,0.0193629,10,-0.00238922,-1.99904,-0.433191,-0.136198,53.3142,0.238393,
2,0,0,1,0,9836.52,0.22831,0.227997,-10.5589,8,0.0190953,10,-0.0024074,-1.97638,-0.45891,-0.128565,53.0184,0.227997,
2,0,0,1,0,9836.55,0.2179,0.217592,-11.1249,8,0.0188135,10,-0.00242069,-1.9537,-0.4743,-0.124394,53.8867,0.217592,
2,0,0,1,0,9836.57,0.207504,0.20725,-11.688,8,0.018517,10,-0.00242234,-1.93226,-0.469621,-0.125633,57.4278,0.2072503,
2,0,0,1,0,9836.6,0.197106,0.196801,-12.371,8,0.0182042,10,-0.00243462,-1.9076,-0.382931,-0.154075,74.5083,0.196801,
2,0,0,1,0,9836.62,0.18671,0.186413,-13.2199,8,0.0178719,10,-0.00246436,-1.87877,-0.330804,-0.178354,91.9853,0.1864133,
2,0,0,1,0,9836.65,0.1763,0.175988,-14.3212,8,0.0175146,10,-0.00252036,-1.84402,-0.262674,-0.224613,125.727,0.175988,
2,0,0,1,0,9836.68,0.165905,0.165628,-15.8862,8,0.0171229,10,-0.0026312,-1.79898,-0.201116,-0.293363,182.225,0.165628,
2,0,0,1,0,9836.7,0.155506,0.155177,-18.156,8,0.0166819,10,-0.0028174,-1.74098,-0.160345,-0.367957,261.145,0.155177,
2,0,0,1,0,9836.73,0.145105,0.144823,-21.371,8,0.0161701,10,-0.00309502,-1.67017,-0.134199,-0.439647,367.3,0.1448231,
2,0,0,1,0,9836.75,0.134701,0.134427,-25.6642,8,0.0155602,10,-0.00344996,-1.59067,-0.13103,-0.450277,450.961,0.134427,
2,0,0,1,0,9836.78,0.124305,0.124069,-30.4941,8,0.0148294,10,-0.00378337,-1.51578,-0.148065,-0.398473,474.71,0.124069,
2,0,0,1,0,9836.81,0.113906,0.113631,-35.4079,8,0.0139711,10,-0.00402345,-1.4509,-0.185425,-0.318187,438.857,0.113631,
2,0,0,1,0,9836.83,0.103505,0.103242,-39.5418,8,0.0129947,10,-0.00408239,-1.40294,-0.257062,-0.229516,353.707,0.103242,
2,0,0,1,0,9836.86,0.0931008,0.0928261,-42.6835,8,0.0119225,10,-0.00396215,-1.36974,-0.418779,-0.140886,234.318,0.0928261,
2,0,0,1,0,9836.88,0.0827051,0.0823726,-44.369,8,0.0107873,10,-0.00365479,-1.35292,-1.24769,-0.0472875,81.692,0.0823726,
2,0,0,1,0,9836.91,0.0723065,0.0719573,-44.3547,8,0.00963021,10,-0.00319164,-1.35306,1.2683,0.0465189,-80.3909,0.0719573,
2,0,0,1,0,9836.94,0.0618996,0.0615801,-42.8163,8,0.00849446,10,-0.00263663,-1.36839,0.500991,0.117767,-196.642,0.06158014,
2,0,0,1,0,9836.96,0.0515011,0.0511606,-40.5569,8,0.00741042,10,-0.00207491,-1.39194,0.42498,0.13883,-219.61,0.0511606,
2,0,0,1,0,9836.99,0.0411053,0.0407888,-38.2746,8,0.00638622,10,-0.00156117,-1.41709,0.405172,0.145617,-217.527,0.0407888,
2,0,0,1,0,9837.01,0.0307068,0.030366,-36.0414,8,0.00541994,10,-0.00109443,-1.4432,0.377911,0.156121,-219.653,0.03036602,
2,0,0,1,0,9837.04,0.0202999,0.0199762,-33.6017,8,0.00451402,10,-0.000671234,-1.47364,0.302609,0.194971,-255.315,0.0199762,
2,0,0,1,0,9837.07,0.00990136,0.00963295,-30.7391,8,0.00367748,10,-0.000296108,-1.51231,0.250362,0.235659,-282.592,0.00963295,
2,0,0,1,0,9837.09,-0.000494411,-0.000867191,-28.0045,8,0.00291535,10,2.42853e-05,-1.55277,0.277579,0.212552,-232.318,-0.000867191,
2,0,0,1,0,9837.12,-0.010893,-0.0112708,-25.9527,8,0.00221622,10,0.000292509,-1.58582,0.40531,0.145568,-147.666,-0.0112708,
2,0,0,1,0,9837.14,-0.0212998,-0.0216384,-24.8124,8,0.00155816,10,0.000536902,-1.60533,0.823607,0.0716361,-69.4496,-0.0216384,
2,0,0,1,0,9837.17,-0.0316984,-0.0320421,-24.3841,8,0.000919765,10,0.000781318,-1.61289,3.70522,0.0159235,-15.1681,-0.0320421,
2,0,0,1,0,9837.2,-0.0420942,-0.0424585,-24.4315,8,0.000285746,10,0.00103733,-1.61205,-2.70713,-0.0217943,20.8139,-0.0424585,
2,0,0,1,0,9837.22,-0.0524927,-0.0528335,-24.7982,8,-0.000354011,10,0.00131018,-1.60558,-1.2722,-0.0463762,44.9056,-0.0528335,
2,0,0,1,0,9837.25,-0.0628996,-0.0632425,-25.3709,8,-0.00100578,10,0.00160452,-1.59566,-0.950951,-0.0620432,61.3933,-0.0632425,
2,0,0,1,0,9837.27,-0.0732982,-0.0736366,-26.0443,8,-0.00167389,10,0.00191781,-1.58429,-0.816295,-0.0722778,73.5344,-0.0736366,
2,0,0,1,0,9837.3,-0.0836939,-0.0840699,-26.8861,8,-0.00236187,10,0.00226031,-1.57047,-0.720024,-0.0819417,85.965,-0.0840699,
2,0,0,1,0,9837.33,-0.0940925,-0.0944152,-27.8426,8,-0.00307304,10,0.00262877,-1.55529,-0.642966,-0.0917622,99.7008,-0.09441524,
2,0,0,1,1,9837.35,-0.0978574,-0.0982857,-22.3196,8,-0.00363055,10,0.0021937,-1.65131,-0.0196728,-2.99906,2477.78,-0.0982857,
2,0,0,1,1,9837.37,-0.0874588,-0.0878853,-3.92845,8,-0.00394394,10,0.000345253,-2.40578,-0.00375746,-15.7021,1282.09,-0.0878853,
2,1,0,1,1,9837.4,-0.077052,-0.0774816,6.40629,8,-0.00389918,10,-0.00049637,-2.19339,0.0176598,3.34093,767.215,-0.07748159,
2,1,0,1,1,9837.42,-0.0666562,-0.0671225,12.8026,8,-0.00364254,10,-0.000859343,-1.8927,0.0607454,0.971267,478.966,-0.0671225,
2,1,0,1,1,9837.45,-0.0562576,-0.0566425,16.8025,8,-0.00325285,10,-0.000951734,-1.77463,0.129316,0.456245,297.75,-0.0566425,
2,1,0,1,1,9837.48,-0.0458563,-0.0462367,19.2268,8,-0.00278158,10,-0.000888985,-1.71609,0.250565,0.235468,176.107,-0.0462367,
2,1,0,1,1,9837.5,-0.0354522,-0.0358076,20.6365,8,-0.00226167,10,-0.000738943,-1.68536,0.477833,0.123474,99.2259,-0.0358076,
2,1,0,1,1,9837.53,-0.0250564,-0.0253923,21.3518,8,-0.00171453,10,-0.000542172,-1.67056,1.08159,0.0545494,45.4398,-0.0253923,
2,1,0,1,1,9837.55,-0.0146579,-0.0150204,21.6333,8,-0.00115481,10,-0.000324942,-1.66488,4.05474,0.0145509,12.2757,-0.0150204,
2,1,0,1,1,9837.58,-0.00425653,-0.00463694,21.6134,8,-0.000591991,10,-0.00010022,-1.66528,-4.54895,-0.01297,-10.9422,-0.00463694,
2,1,0,0,1,9837.59,-7.54729e-05,-0.000439847,21.546,8,-0.000365229,10,-9.47697e-06,-1.66663, , , ,-0.000439847,