File: Figure_codes/Fig_3-5/rawdata_trumpetplot_data/before 10th/20221101_1-115_002_TrumpetPlot_ParaChange_14_CV_C01_7.csv
mode,ox/red,error,control changes,counter inc.,time/s,control/V,Ewe/V,<I>/mA,cycle number,(Q-Qo)/C,I Range,P/W,log(|I|),Tafel slope mV/dec,alpha_eff,dI/d(E-IR),E-IR/V,
2,1,0,1,0,9837.69,2.44065e-05,-0.000649808,26.5294,8,0.0000000E+000,10,-1.7239e-05,-1.57627, , , ,-0.000649808,
2,1,0,1,0,9837.71,0.0102815,0.00999455,25.1245,8,0.000421826,10,0.000251108,-1.5999,0.343747,0.171638,168.601,0.00999455,
2,1,0,1,0,9837.73,0.0210878,0.0207534,26.9395,8,0.000891206,10,0.000559088,-1.56961,0.425108,0.138788,145.648,0.0207534,
2,1,0,1,0,9837.74,0.0318859,0.0315176,28.3083,8,0.00138926,10,0.00089221,-1.54809,0.569822,0.103541,114.306,0.0315176,
2,1,0,1,0,9837.76,0.042684,0.0423497,29.4651,8,0.00190954,10,0.00124784,-1.53069,0.647659,0.0910973,104.795,0.0423497,
2,1,0,1,0,9837.78,0.0534793,0.0531669,30.6432,8,0.00245048,10,0.0016292,-1.51367,0.598797,0.0985308,117.974,0.0531669,
2,1,0,1,0,9837.8,0.0642857,0.0639152,32.0821,8,0.00301489,10,0.00205053,-1.49374,0.499445,0.118131,148.076,0.0639152,
2,1,0,1,0,9837.82,0.0750837,0.0747154,33.8758,8,0.00360814,10,0.00253104,-1.47011,0.421197,0.140077,185.361,0.0747154,
2,1,0,1,0,9837.83,0.0858818,0.0855188,36.013,8,0.00423701,10,0.00307979,-1.44354,0.404603,0.145822,204.917,0.0855188,
2,1,0,1,0,9837.85,0.0966882,0.096301,38.4062,8,0.00490612,10,0.00369856,-1.4156,0.370404,0.159286,238.599,0.096301,
2,1,0,1,0,9837.87,0.107483,0.10713,41.0028,8,0.005621,10,0.00439263,-1.38719,0.387886,0.152106,243.329,0.1071299,
2,1,0,1,0,9837.89,0.118282,0.11797,43.6613,8,0.00638295,10,0.00515074,-1.3599,0.395872,0.149038,254.014,0.11797,
2,1,0,1,0,9837.91,0.129088,0.128734,46.5055,8,0.00719438,10,0.00598682,-1.3325,0.383315,0.15392,279.542,0.128734,
2,1,0,1,0,9837.92,0.139886,0.139585,49.7157,8,0.00806025,10,0.00693955,-1.30351,0.360975,0.163446,317.351,0.139585,
2,1,0,1,0,9837.94,0.150681,0.150346,53.3169,8,0.00898755,10,0.00801597,-1.27313,0.354759,0.16631,346.184,0.1503457,
2,1,0,1,0,9837.96,0.161485,0.161122,57.0966,8,0.00998181,10,0.0091995,-1.24339,0.379425,0.155498,346.348,0.161122,
2,1,0,1,0,9837.98,0.172286,0.171932,60.7152,8,0.0110431,10,0.0104389,-1.2167,0.451467,0.130685,309.24,0.171932,
2,1,0,1,0,9838,0.183084,0.182694,63.6517,8,0.0121641,10,0.0116288,-1.19619,0.69533,0.0848518,210.186,0.182694,
2,1,0,1,0,9838.01,0.193879,0.19356,64.8824,8,0.0133246,10,0.0125587,-1.18787,-7.46763,-0.00790077,-19.9024,0.19356,
2,1,0,1,0,9838.03,0.204688,0.204429,62.746,8,0.0144794,10,0.0128271,-1.20241,-0.360173,-0.16381,-398.141,0.204429,
2,1,0,1,0,9838.05,0.215484,0.215126,56.2818,8,0.0155561,10,0.0121077,-1.24963,-0.16894,-0.349236,-761.948,0.215126,
2,1,0,1,0,9838.07,0.226282,0.226044,46.9589,8,0.0164862,10,0.0106148,-1.32828,-0.121097,-0.487213,-891.132,0.226044,
2,1,0,1,0,9838.09,0.237088,0.236838,37.8924,8,0.0172466,10,0.00897436,-1.42145,-0.118688,-0.497101,-737.983,0.236838,
2,1,0,1,0,9838.1,0.247886,0.247595,31.2201,8,0.0178639,10,0.00772992,-1.50557,-0.146943,-0.401517,-492.406,0.247595,
2,1,0,1,0,9838.12,0.258681,0.258379,27.0872,8,0.018385,10,0.00699877,-1.56724,-0.21619,-0.272907,-290.267,0.258379,
2,1,0,1,0,9838.14,0.269488,0.269195,24.7049,8,0.0188491,10,0.00665043,-1.60722,-0.338692,-0.174199,-168.582,0.269195,
2,1,0,1,0,9838.16,0.280286,0.279989,23.306,8,0.0192801,10,0.00652541,-1.63253,-0.52272,-0.112871,-102.821,0.279989,
2,1,0,1,0,9838.18,0.291084,0.290739,22.3981,8,0.0196907,10,0.00651201,-1.64979,-0.710195,-0.0830757,-72.6894,0.2907393,
2,1,0,1,0,9838.19,0.300012,0.299746,21.831,8,0.0200201,10,0.00654376,-1.66093,0.000472423,124.888,84393.7,0.299746,
2,1,0,1,0,9838.21,0.290843,0.290607,3.06278,8,0.0201872,10,0.000890064,-2.51388,0.0130568,4.51873,1320.33,0.290607,
2,0,0,1,0,9838.22,0.280047,0.279783,-6.06672,8,0.0201476,10,-0.00169737,-2.21705,-0.0217357,-2.71443,546.393,0.279783,
2,0,0,1,0,9838.24,0.269244,0.268952,-10.1584,8,0.0199969,10,-0.00273213,-1.99317,-0.0850697,-0.693549,267.945,0.268952,
2,0,0,1,0,9838.26,0.258443,0.258165,-12.2853,8,0.0197932,10,-0.00317162,-1.91062,-0.186062,-0.317099,150.715,0.258165,
2,0,0,1,0,9838.28,0.247645,0.247354,-13.6066,8,0.0195593,10,-0.00336563,-1.86625,-0.293265,-0.201184,106.608,0.247354,
2,0,0,1,0,9838.3,0.236849,0.236533,-14.5933,8,0.019305,10,-0.00345181,-1.83585,-0.394216,-0.149664,85.2305,0.236533,
2,0,0,1,0,9838.31,0.22604,0.225729,-15.458,8,0.0190342,10,-0.00348933,-1.81085,-0.464818,-0.126931,76.5335,0.225729,
2,0,0,1,0,9838.33,0.215245,0.214926,-16.2623,8,0.0187486,10,-0.00349518,-1.78882,-0.476519,-0.123815,78.6358,0.214926,
2,0,0,1,0,9838.35,0.204447,0.204107,-17.1302,8,0.018448,10,-0.0034964,-1.76624,-0.474454,-0.124353,83.1655,0.204107,
2,0,0,1,0,9838.37,0.19364,0.193318,-18.1101,8,0.0181311,10,-0.003501,-1.74208,-0.436585,-0.13514,95.5267,0.193318,
2,0,0,1,0,9838.39,0.182842,0.182558,-19.285,8,0.0177951,10,-0.00352062,-1.71478,-0.356757,-0.165379,124.642,0.182558,
2,0,0,1,0,9838.4,0.172047,0.171771,-20.8409,8,0.0174345,10,-0.00357987,-1.68108,-0.28267,-0.208724,170.163,0.171771,
2,0,0,1,0,9838.42,0.161241,0.160912,-23.0023,8,0.017041,10,-0.00370134,-1.63823,-0.225542,-0.261592,235.446,0.160912,
2,0,0,1,0,9838.44,0.150443,0.150159,-26.0251,8,0.016601,10,-0.00390791,-1.58461,-0.182319,-0.323608,329.495,0.150159,
2,0,0,1,0,9838.46,0.139645,0.139361,-30.1289,8,0.0160969,10,-0.0041988,-1.52102,-0.158423,-0.37242,439.285,0.139361,
2,0,0,1,0,9838.48,0.128849,0.128583,-35.4144,8,0.0155077,10,-0.00455369,-1.45082,-0.154221,-0.382567,529.036,0.128583,
2,0,0,1,0,9838.49,0.118043,0.117815,-41.315,8,0.0148166,10,-0.00486751,-1.38389,-0.17294,-0.341159,549.365,0.117815,
2,0,0,1,0,9838.51,0.107245,0.107016,-47.2227,8,0.0140191,10,-0.00505361,-1.32585,-0.205413,-0.287226,528.327,0.107016,
2,0,0,1,0,9838.53,0.0964468,0.0962374,-52.521,8,0.0131193,10,-0.00505448,-1.27967,-0.267798,-0.220316,450.947,0.0962374,
2,0,0,1,0,9838.55,0.0856404,0.0853396,-56.9865,8,0.0121314,10,-0.0048632,-1.24423,-0.3763,-0.15679,347.659,0.0853396,
2,0,0,1,0,9838.57,0.0748451,0.074586,-60.0022,8,0.011076,10,-0.00447533,-1.22183,-0.665385,-0.0886705,207.046,0.074586,
2,0,0,1,0,9838.58,0.0640471,0.0637603,-61.3926,8,0.00998073,10,-0.00391441,-1.21188,-3.18091,-0.0185481,44.3017,0.06376034,
2,0,0,1,0,9838.6,0.0532407,0.052923,-61.0039,8,0.00887698,10,-0.00322851,-1.21464,1.30561,0.0451895,-107.312,0.052923,
2,0,0,1,0,9838.62,0.0424426,0.0421896,-59.2856,8,0.00779332,10,-0.00250123,-1.22705,0.712542,0.0828021,-191.356,0.0421896,
2,0,0,1,0,9838.64,0.0316473,0.0313077,-57.0197,8,0.00674648,10,-0.00178515,-1.24398,0.605402,0.0974559,-216.789,0.03130766,
2,0,0,1,0,9838.66,0.0208437,0.0205435,-54.5468,8,0.00574233,10,-0.00112058,-1.26323,0.519297,0.113615,-241.696,0.0205435,
2,0,0,1,0,9838.67,0.0100429,0.00969764,-51.7251,8,0.00478534,10,-0.000501612,-1.2863,0.416031,0.141816,-285.928,0.00969764,
2,0,0,1,0,9838.69,-0.000755208,-0.00110684,-48.41,8,0.00388362,10,5.35823e-05,-1.31506,0.335374,0.175923,-331.822,-0.00110684,
2,0,0,1,0,9838.71,-0.0115505,-0.011923,-44.6347,8,0.00304648,10,0.000532179,-1.35033,0.302385,0.195115,-340.176,-0.011923,
2,0,0,1,0,9838.73,-0.0223597,-0.0227317,-41.2929,8,0.00227462,10,0.000938659,-1.38412,0.352623,0.167318,-270.228,-0.0227317,
2,0,0,1,0,9838.75,-0.033155,-0.0335118,-38.9505,8,0.00155423,10,0.0013053,-1.40949,0.550313,0.107212,-163.424,-0.0335118,
2,0,0,1,0,9838.76,-0.043953,-0.0443449,-37.6692,8,0.000866209,10,0.00167044,-1.42401,1.06549,0.0553737,-81.5588,-0.0443449,
2,0,0,1,0,9838.78,-0.0547594,-0.0551367,-37.1682,8,0.000193875,10,0.00204933,-1.42983,4.7041,0.0125422,-18.2121,-0.0551367,
2,0,0,1,0,9838.8,-0.0655575,-0.0659136,-37.2309,8,-0.000474984,10,0.00245403,-1.4291,-3.09616,-0.0190559,27.7133,-0.06591361,
2,0,0,1,0,9838.82,-0.0763528,-0.0766863,-37.6922,8,-0.00114879,10,0.00289047,-1.42375,-1.48613,-0.0397004,58.4414,-0.0766863,
2,0,0,1,0,9838.84,-0.0871592,-0.0875629,-38.4447,8,-0.00183365,10,0.00336633,-1.41516,-1.08916,-0.0541704,81.3107,-0.0875629,
2,0,0,1,0,9838.85,-0.0979573,-0.0983249,-39.4125,8,-0.0025342,10,0.00387523,-1.40437,-1.01204,-0.0582982,89.3384,-0.0983249,
2,0,0,1,1,9838.87,-0.0955546,-0.0960207,-27.5264,8,-0.00292065,10,0.00264311,-1.56025,-0.0263042,-2.24299,2369.07,-0.0960207,
2,0,0,1,1,9838.88,-0.0847538,-0.0851664,-7.80496,8,-0.0032228,10,0.00066472,-2.10763,-0.00940538,-6.273,1456.41,-0.0851664,
2,1,0,1,1,9838.9,-0.0739557,-0.0744255,5.04932,8,-0.00323897,10,-0.000375798,-2.29677,0.00414646,14.229,987.944,-0.0744255,
2,1,0,1,1,9838.92,-0.0631604,-0.0636444,13.9491,8,-0.00306248,10,-0.000887781,-1.85545,0.0446356,1.32182,693.123,-0.06364435,
2,1,0,1,1,9838.94,-0.0523512,-0.0527306,20.2973,8,-0.00275016,10,-0.00107029,-1.69256,0.0958406,0.615605,480.431,-0.0527306,
2,1,0,1,1,9838.96,-0.0415559,-0.0419049,24.6393,8,-0.00234295,10,-0.00103251,-1.60837,0.169245,0.348606,332.765,-0.0419049,
2,1,0,1,1,9838.97,-0.0307579,-0.0311673,27.5747,8,-0.00187102,10,-0.000859427,-1.55949,0.288338,0.204621,219.277,-0.0311673,
2,1,0,1,1,9838.99,-0.0199515,-0.0203564,29.4902,8,-0.00135599,10,-0.000600314,-1.53032,0.490832,0.120204,137.881,-0.0203564,
2,1,0,1,1,9839.01,-0.0091534,-0.00952966,30.6266,8,-0.000814035,10,-0.000291861,-1.5139,0.935776,0.0630493,75.1704,-0.00952966,
2,1,0,1,1,9839.03,-7.54729e-05,-0.00042076,31.0191,8,-0.000347523,10,-1.30516e-05,-1.50837, , , ,-0.00042076,