File: Figure_codes/Fig_3-5/rawdata_trumpetplot_data/before 10th/20221101_1-115_002_TrumpetPlot_ParaChange_11_CV_C01_7.csv
mode,ox/red,error,control changes,counter inc.,time/s,control/V,Ewe/V,<I>/mA,cycle number,(Q-Qo)/C,I Range,P/W,log(|I|),Tafel slope mV/dec,alpha_eff,dI/d(E-IR),E-IR/V,
2,0,0,1,0,9823.39,2.44065e-05,0.000476344,-7.22551,8,0.0000000E+000,11,-3.44183e-06,-2.14113, , , ,0.000476344,
2,1,0,1,0,9823.49,0.00978761,0.0094925,3.31422,8,1.72006e-05,11,3.14602e-05,-2.47962,0.032594,1.81015,224.426,0.0094925,
2,1,0,1,0,9823.59,0.0197755,0.0194724,4.24909,8,0.00040837,11,8.27399e-05,-2.3717,0.234797,0.251281,41.6714,0.0194724,
2,1,0,1,0,9823.69,0.0297635,0.0294379,4.61265,8,0.000852005,11,0.000135787,-2.33605,0.311682,0.189295,34.0713,0.0294379,
2,1,0,1,0,9823.79,0.0397514,0.0394311,5.01915,8,0.00133303,11,0.00019791,-2.29937,0.217397,0.271393,53.2771,0.0394311,
2,1,0,1,0,9823.89,0.0497484,0.049434,5.56983,8,0.00186134,11,0.000275339,-2.25416,0.217747,0.270956,58.7611,0.04943401,
2,1,0,1,0,9823.99,0.0597273,0.059447,6.1886,8,0.00244741,11,0.000367894,-2.20841,0.207975,0.283688,68.4926,0.059447,
2,1,0,1,0,9824.09,0.0697152,0.0694388,6.86134,8,0.00310012,11,0.000476443,-2.16359,0.245395,0.240429,64.4112,0.0694388,
2,1,0,1,0,9824.19,0.0797031,0.0793911,7.51005,8,0.00381931,11,0.000596231,-2.12436,0.274137,0.215221,63.0944,0.0793911,
2,1,0,1,0,9824.29,0.0896911,0.08939,8.09082,8,0.00459999,11,0.000723239,-2.09201,0.320753,0.183942,58.1688,0.08939,
2,1,0,1,0,9824.39,0.099679,0.0993943,8.70133,8,0.00543727,11,0.000864862,-2.06041,0.295396,0.199732,67.7437,0.0993943,
2,1,0,1,0,9824.49,0.109667,0.10934,9.47877,8,0.00634251,11,0.00103641,-2.02325,0.223363,0.264144,97.78,0.10934,
2,1,0,1,0,9824.59,0.119655,0.119354,10.6093,8,0.00734406,11,0.00126626,-1.97431,0.204587,0.288387,119.366,0.119354,
2,1,0,1,0,9824.69,0.129643,0.129356,11.8264,8,0.00846538,11,0.00152982,-1.92715,0.231947,0.254368,117.331,0.129356,
2,1,0,1,0,9824.79,0.139631,0.139341,12.8763,8,0.00970219,11,0.0017942,-1.89021,0.328559,0.179572,90.2284,0.139341,
2,1,0,1,0,9824.89,0.149619,0.149286,13.5287,8,0.0110255,11,0.00201964,-1.86875,1.3586,0.043427,22.8678,0.149286,
2,1,0,1,0,9824.99,0.159607,0.159324,12.8669,8,0.0123607,11,0.00205001,-1.89053,-0.162385,-0.363333,-181.794,0.159324,
2,1,0,1,0,9825.08,0.169595,0.169294,9.97978,8,0.0135169,11,0.00168951,-2.00088,-0.0664973,-0.887254,-344.929,0.169294,
2,1,0,1,0,9825.18,0.179582,0.179303,7.0245,8,0.0143532,11,0.00125951,-2.15338,-0.0793102,-0.743914,-205.059,0.179303,
2,1,0,1,0,9825.28,0.18957,0.189261,5.65423,8,0.0149777,11,0.00107012,-2.24763,-0.146932,-0.401546,-88.818,0.189261,
2,1,0,1,0,9825.38,0.199558,0.199282,4.99772,8,0.0155062,11,0.000995954,-2.30123,-0.251414,-0.234673,-45.7699,0.199282,
2,1,0,1,0,9825.48,0.209546,0.209265,4.62345,8,0.0159851,11,0.000967527,-2.33503,-0.305078,-0.193393,-34.9242,0.209265,
2,1,0,1,0,9825.58,0.219534,0.219289,4.38181,8,0.0164337,11,0.000960883,-2.35835,-0.566515,-0.104145,-17.8095,0.2192892,
2,1,0,1,0,9825.68,0.229522,0.229264,4.21847,8,0.0168635,11,0.000967143,-2.37484,-0.695361,-0.084848,-14.0042,0.229264,
2,1,0,1,0,9825.78,0.23951,0.239234,4.12043,8,0.0172803,11,0.000985746,-2.38506,-1.54184,-0.038266,-6.15716,0.239234,
2,1,0,1,0,9825.88,0.249498,0.249245,4.04252,8,0.0176875,11,0.00100758,-2.39335,-1.39531,-0.0422844,-6.66288,0.249245,
2,1,0,1,0,9825.98,0.259486,0.259216,3.96993,8,0.0180875,11,0.00102907,-2.40122,-0.959515,-0.0614894,-9.52194,0.259216,
2,1,0,1,0,9826.08,0.269474,0.269193,3.90463,8,0.0184808,11,0.0010511,-2.40842,-1.67804,-0.0351601,-5.36142,0.269193,
2,1,0,1,0,9826.18,0.279462,0.279211,3.84503,8,0.0188684,11,0.00107357,-2.4151,-1.3759,-0.042881,-6.44196,0.2792106,
2,1,0,1,0,9826.28,0.28945,0.289204,3.78976,8,0.01925,11,0.00109602,-2.42139,-2.89799,-0.020359,-3.01105,0.289204,
2,1,0,1,0,9826.38,0.299438,0.299149,3.74087,8,0.0196258,11,0.00111908,-2.42703,-0.0259522,-2.27341,-299.363,0.299149,
2,0,0,1,0,9826.47,0.291747,0.291443,-1.60446,8,0.0196118,11,-0.00046761,-2.79467,-0.0476294,-1.23873,76.004,0.291443,
2,0,0,1,0,9826.57,0.281759,0.281452,-2.01542,8,0.0194285,11,-0.000567244,-2.69563,-0.156865,-0.37612,29.4525,0.281452,
2,0,0,1,0,9826.67,0.271771,0.271459,-2.26912,8,0.0192147,11,-0.000615972,-2.64414,-0.20722,-0.284722,25.1225,0.271459,
2,0,0,1,0,9826.77,0.261783,0.261465,-2.46597,8,0.0189785,11,-0.000644764,-2.60801,-0.354874,-0.166256,15.9758,0.261465,
2,0,0,1,0,9826.87,0.251795,0.25153,-2.62903,8,0.0187241,11,-0.000661278,-2.58021,-0.369926,-0.159491,16.3906,0.25153,
2,0,0,1,0,9826.97,0.241807,0.241516,-2.78172,8,0.0184535,11,-0.000671828,-2.55569,-0.370568,-0.159215,17.3726,0.241516,
2,0,0,1,0,9827.07,0.231815,0.231553,-2.94198,8,0.018168,11,-0.000681225,-2.53136,-0.431765,-0.136648,15.6882,0.231553,
2,0,0,1,0,9827.17,0.221831,0.221517,-3.08899,8,0.0178675,11,-0.000684262,-2.51018,-0.461282,-0.127904,15.4135,0.221517,
2,0,0,1,0,9827.27,0.211843,0.211503,-3.2567,8,0.0175511,11,-0.000688802,-2.48722,-0.523931,-0.11261,14.3041,0.211503,
2,0,0,1,0,9827.37,0.201856,0.201515,-3.44947,8,0.0172168,11,-0.000695121,-2.46225,-0.409545,-0.144062,19.4038,0.201515,
2,0,0,1,0,9827.47,0.191868,0.191559,-3.69258,8,0.0168612,11,-0.000707346,-2.43267,-0.321153,-0.183713,26.5301,0.191559,
2,0,0,1,0,9827.57,0.18188,0.18158,-4.0423,8,0.0164773,11,-0.000734001,-2.39337,-0.204931,-0.287902,45.3006,0.18158,
2,0,0,1,0,9827.67,0.171892,0.171607,-4.55806,8,0.0160508,11,-0.000782194,-2.34122,-0.16297,-0.362031,64.3647,0.171607,
2,0,0,1,0,9827.77,0.161904,0.161615,-5.40064,8,0.0155579,11,-0.000872824,-2.26755,-0.114689,-0.514435,108.586,0.161615,
2,0,0,1,0,9827.87,0.151916,0.151612,-6.80004,8,0.0149541,11,-0.00103097,-2.16749,-0.0894228,-0.659787,175.522,0.151612,
2,0,0,1,0,9827.97,0.141928,0.141643,-8.87914,8,0.0141757,11,-0.00125767,-2.05163,-0.0857741,-0.687854,238.316,0.141643,
2,0,0,1,0,9828.07,0.13194,0.13163,-11.1802,8,0.0131732,11,-0.00147165,-1.95155,-0.119996,-0.491682,214.197,0.13163,
2,0,0,1,0,9828.17,0.121952,0.121707,-12.9412,8,0.0119628,11,-0.00157503,-1.88803,-0.232672,-0.253576,127.735,0.121707,
2,0,0,1,0,9828.27,0.111964,0.111673,-13.6844,8,0.0106245,11,-0.00152819,-1.86377,-1.46332,-0.0403192,21.5056,0.111673,
2,0,0,1,0,9828.37,0.101976,0.101692,-13.3886,8,0.00926422,11,-0.00136151,-1.87326,0.36624,0.161097,-84.0151,0.101692,
2,0,0,1,0,9828.47,0.0919883,0.0916863,-12.1982,8,0.00798157,11,-0.00111841,-1.9137,0.208537,0.282924,-134.773,0.0916863,
2,0,0,1,0,9828.57,0.0820004,0.0816829,-10.872,8,0.00683322,11,-0.000888058,-1.96369,0.222945,0.26464,-112.334,0.0816829,
2,0,0,1,0,9828.67,0.0720124,0.0716811,-9.9687,8,0.00579655,11,-0.000714568,-2.00136,0.326881,0.180494,-70.3325,0.0716811,
2,0,0,1,0,9828.77,0.0620245,0.0616981,-9.36572,8,0.00483232,11,-0.000577847,-2.02846,0.373302,0.158049,-57.7879,0.0616981,
2,0,0,1,0,9828.87,0.0520366,0.0517019,-8.7829,8,0.00392589,11,-0.000454093,-2.05636,0.31901,0.184947,-63.3497,0.0517019,
2,0,0,1,0,9828.97,0.0420486,0.0417676,-8.07138,8,0.00308308,11,-0.000337122,-2.09305,0.254629,0.23171,-73.0926,0.0417676,
2,0,0,1,0,9829.07,0.0320607,0.0317318,-7.32594,8,0.0023158,11,-0.000232466,-2.13514,0.244447,0.241361,-68.9351,0.0317318,
2,0,0,1,0,9829.17,0.0220728,0.0217761,-6.74682,8,0.00161632,11,-0.000146919,-2.1709,0.361447,0.163233,-43.0182,0.0217761,
2,0,0,1,0,9829.27,0.0120848,0.0117399,-6.46337,8,0.000959192,11,-7.58795e-05,-2.18954,0.776661,0.0759662,-19.1685,0.0117399,
2,0,0,1,0,9829.37,0.0020969,0.00176344,-6.44293,8,0.000319471,11,-1.13617e-05,-2.19092,-1.4143,-0.0417168,10.4283,0.00176344,
2,0,0,1,0,9829.47,-0.00789103,-0.00824449,-6.45002,8,-0.000322556,11,5.31771e-05,-2.19044,-1.16325,-0.0507201,12.8012,-0.00824449,
2,0,0,1,0,9829.57,-0.017879,-0.0182313,-6.63108,8,-0.000974415,11,0.000120893,-2.17842,-0.691818,-0.0852826,22.039,-0.0182313,
2,0,0,1,0,9829.67,-0.0278669,-0.0282427,-6.84869,8,-0.00164639,11,0.000193426,-2.16439,-0.65588,-0.0899554,24.075,-0.0282427,
2,0,0,1,0,9829.77,-0.0378548,-0.0381643,-7.12956,8,-0.0023436,11,0.000272095,-2.14694,-0.56873,-0.10374,28.8248,-0.0381643,
2,0,0,1,0,9829.87,-0.0478428,-0.0481955,-7.4367,8,-0.00307029,11,0.000358416,-2.12862,-0.428436,-0.13771,40.0228,-0.04819547,
2,0,0,1,0,9829.97,-0.0578216,-0.0582007,-7.81521,8,-0.00383072,11,0.000454851,-2.10706,-0.420959,-0.140156,42.7477,-0.0582007,
2,0,0,1,0,9830.07,-0.0678187,-0.0681816,-8.2711,8,-0.00463315,11,0.000563937,-2.08244,-0.357234,-0.165158,53.2877,-0.0681816,
2,0,0,1,0,9830.17,-0.0778066,-0.078153,-8.81604,8,-0.00548554,11,0.000689,-2.05473,-0.357153,-0.165195,56.8761,-0.078153,
2,0,0,1,0,9830.27,-0.0877945,-0.0881453,-9.46376,8,-0.00639742,11,0.000834186,-2.02394,-0.331021,-0.178236,65.7782,-0.0881453,
2,0,0,1,0,9830.37,-0.0977825,-0.0981335,-10.0849,8,-0.00737407,11,0.000989668,-1.99633,-0.384339,-0.15351,60.4767,-0.0981335,
2,0,0,1,1,9830.46,-0.0927386,-0.0931448,0.00335348,8,-0.00787827,11,-3.12359e-07,-5.4745,-0.0304136,-1.93992,672.974,-0.0931448,
2,1,0,1,1,9830.56,-0.0827529,-0.083101,3.59933,8,-0.00766084,11,-0.000299108,-2.44378,0.0425428,1.38684,191.959,-0.083101,
2,1,0,1,1,9830.66,-0.0727627,-0.0730941,4.79773,8,-0.00723261,11,-0.000350686,-2.31896,0.145636,0.405119,75.4101,-0.0730941,
2,1,0,1,1,9830.76,-0.0627748,-0.0630719,5.30871,8,-0.00672512,11,-0.00033483,-2.27501,0.331673,0.177886,36.8413,-0.0630719,
2,1,0,1,1,9830.86,-0.0527868,-0.0531151,5.56966,8,-0.00618012,11,-0.000295833,-2.25417,0.810634,0.0727826,15.8013,-0.0531151,
2,1,0,1,1,9830.96,-0.0427989,-0.0431555,5.67664,8,-0.00561744,11,-0.000244979,-2.24591,1.24876,0.0472469,10.473,-0.0431555,
2,1,0,1,1,9831.06,-0.0328109,-0.0331165,5.7169,8,-0.00504865,11,-0.000189324,-2.24284,-6.51321,-0.00905852,-2.01684,-0.0331165,
2,1,0,1,1,9831.16,-0.022823,-0.0232069,5.68449,8,-0.00447973,11,-0.000131919,-2.24531,-3.48917,-0.0169094,-3.74823,-0.0232069,
2,1,0,1,1,9831.26,-0.0128351,-0.0131976,5.61726,8,-0.00391504,11,-7.41341e-05,-2.25048,-1.59648,-0.0369564,-8.11163,-0.0131976,
2,1,0,1,1,9831.36,-0.00284713,-0.00320295,5.56262,8,-0.00335637,11,-1.78168e-05,-2.25472,-1.61281,-0.0365821,-7.93935,-0.00320295,
2,1,0,0,1,9831.39,-2.55332e-05,-0.000325324,5.54353,8,-0.0032004,11,-1.80344e-06,-2.25621, , , ,-0.000325324,