File: Figure_codes/Fig_3-5/rawdata_trumpetplot_data/before 10th/20221101_1-115_002_TrumpetPlot_ParaChange_15_CV_C01_7.csv
mode,ox/red,error,control changes,counter inc.,time/s,control/V,Ewe/V,<I>/mA,cycle number,(Q-Qo)/C,I Range,P/W,log(|I|),Tafel slope mV/dec,alpha_eff,dI/d(E-IR),E-IR/V,
2,1,0,0,0,9839.13,2.44065e-05,-0.000764332,36.959,8,0.0000000E+000,10,-2.82489e-05,-1.43228, , , ,-0.0007643319,
2,1,0,1,0,9839.14,0.0121015,0.0117453,34.0726,8,0.000512952,10,0.000400192,-1.46759,0.643038,0.0917519,122.707,0.0117453,
2,1,0,1,0,9839.16,0.0249027,0.0245539,35.9815,8,0.00107399,10,0.000883486,-1.44392,0.605546,0.0974327,136.607,0.0245539,
2,1,0,1,0,9839.17,0.0377094,0.0373933,37.574,8,0.00166296,10,0.00140502,-1.42511,0.75622,0.0780196,114.274,0.0373933,
2,1,0,1,0,9839.19,0.0505051,0.0501532,38.9995,8,0.0022756,10,0.00195595,-1.40894,0.761247,0.0775044,118.016,0.0501532,
2,1,0,1,0,9839.21,0.0633063,0.0629767,40.6352,8,0.0029124,10,0.00255907,-1.3911,0.651721,0.0905295,143.758,0.0629767,
2,1,0,1,0,9839.22,0.0761019,0.0757313,42.7184,8,0.00357891,10,0.00323512,-1.36939,0.52746,0.111857,186.835,0.0757313,
2,1,0,1,0,9839.24,0.0889087,0.0885176,45.4277,8,0.00428367,10,0.00402116,-1.34268,0.458148,0.128779,228.435,0.0885176,
2,1,0,1,0,9839.25,0.101702,0.101261,48.4806,8,0.00503492,10,0.00490917,-1.31443,0.426096,0.138466,262.576,0.101261,
2,1,0,1,0,9839.27,0.114506,0.114182,52.1284,8,0.0058401,10,0.0059521,-1.28293,0.416808,0.141552,287.916,0.114182,
2,1,0,1,0,9839.29,0.127301,0.126928,55.8794,8,0.00670429,10,0.00709264,-1.25275,0.421937,0.139831,305.169,0.1269277,
2,1,0,1,0,9839.3,0.140105,0.139697,59.9943,8,0.00763127,10,0.00838103,-1.22189,0.405736,0.145415,340.778,0.139697,
2,1,0,1,0,9839.32,0.152904,0.152547,64.6065,8,0.00862799,10,0.00985553,-1.18972,0.394764,0.149456,377.013,0.152547,
2,1,0,1,0,9839.33,0.165705,0.16533,69.6285,8,0.00970216,10,0.0115117,-1.15721,0.403959,0.146054,396.671,0.16533,
2,1,0,1,0,9839.35,0.178506,0.178193,74.6066,8,0.0108569,10,0.0132944,-1.12722,0.462803,0.127484,370.666,0.178193,
2,1,0,1,0,9839.37,0.191302,0.190965,78.8871,8,0.0120869,10,0.0150646,-1.10299,0.654702,0.0901173,276.617,0.190965,
2,1,0,1,0,9839.38,0.204108,0.203807,81.2472,8,0.0133722,10,0.0165588,-1.09019,4.13186,0.0142793,44.9867,0.203807,
2,1,0,1,0,9839.4,0.216904,0.216602,79.4181,8,0.0146646,10,0.0172021,-1.10008,-0.498871,-0.118267,-363.03,0.216602,
2,1,0,1,0,9839.41,0.229705,0.229448,71.9093,8,0.0158816,10,0.0164994,-1.14321,-0.212028,-0.278265,-773.889,0.2294478,
2,1,0,1,0,9839.43,0.242501,0.242235,60.4398,8,0.0169418,10,0.0146406,-1.21868,-0.14874,-0.396666,-932.601,0.242235,
2,1,0,1,0,9839.45,0.255308,0.255056,48.9497,8,0.0178134,10,0.0124849,-1.31025,-0.141431,-0.417165,-800.353,0.255056,
2,1,0,1,0,9839.46,0.268101,0.267802,40.2812,8,0.0185221,10,0.0107874,-1.3949,-0.169981,-0.347097,-550.034,0.267802,
2,1,0,1,0,9839.48,0.280905,0.280604,34.793,8,0.0191186,10,0.00976304,-1.45851,-0.241495,-0.244312,-333.921,0.280604,
2,1,0,1,0,9839.49,0.2937,0.293408,31.5092,8,0.0196464,10,0.00924506,-1.50156,-0.366097,-0.161159,-199.307,0.293408,
2,1,0,1,0,9839.5,0.298983,0.29888,27.2858,8,0.0199272,10,0.00815518,-1.56406,0.0171313,3.44399,2664.75,0.29888,
2,1,0,1,0,9839.52,0.286187,0.285975,2.35611,8,0.0201317,10,0.000673789,-2.6278,0.0274036,2.15301,1250.2,0.285975,
2,0,0,1,0,9839.53,0.273386,0.273124,-8.4571,8,0.0200709,10,-0.00230984,-2.07278,-0.0282257,-2.0903,585.839,0.2731238,
2,0,0,1,0,9839.55,0.260585,0.260332,-13.7969,8,0.0198876,10,-0.00359178,-1.86022,-0.101247,-0.582736,305.504,0.260332,
2,0,0,1,0,9839.57,0.247783,0.247505,-16.7871,8,0.0196405,10,-0.00415491,-1.77502,-0.209373,-0.281794,182.914,0.247505,
2,0,0,1,0,9839.58,0.234982,0.234713,-18.7279,8,0.0193553,10,-0.00439568,-1.72751,-0.332157,-0.177627,129.256,0.234713,
2,0,0,1,0,9839.6,0.222187,0.221938,-20.1967,8,0.0190434,10,-0.00448242,-1.69472,-0.429172,-0.137474,108.204,0.221938,
2,0,0,1,0,9839.61,0.20938,0.20914,-21.5061,8,0.0187094,10,-0.00449779,-1.66744,-0.482793,-0.122206,102.634,0.20914,
2,0,0,1,0,9839.63,0.196587,0.196251,-22.8633,8,0.0183542,10,-0.00448693,-1.64086,-0.46933,-0.125711,112.334,0.196251,
2,0,0,1,0,9839.65,0.183783,0.183484,-24.4517,8,0.0179758,10,-0.00448651,-1.61169,-0.408324,-0.144493,138.149,0.183484,
2,0,0,1,0,9839.66,0.170987,0.170684,-26.5004,8,0.0175689,10,-0.00452321,-1.57675,-0.321594,-0.183461,190.378,0.170684,
2,0,0,1,0,9839.68,0.158183,0.157878,-29.4071,8,0.0171226,10,-0.00464273,-1.53155,-0.248198,-0.237713,273.967,0.157878,
2,0,0,1,0,9839.69,0.145385,0.145131,-33.563,8,0.0166203,10,-0.00487103,-1.47414,-0.202559,-0.291273,383.259,0.145131,
2,0,0,1,0,9839.71,0.132584,0.132346,-39.3107,8,0.0160387,10,-0.00520262,-1.40549,-0.176219,-0.334811,515.288,0.132346,
2,0,0,1,0,9839.73,0.119783,0.119529,-46.5543,8,0.0153523,10,-0.0055646,-1.33204,-0.180095,-0.327605,594.754,0.119529,
2,0,0,1,0,9839.74,0.106987,0.106832,-54.2405,8,0.0145449,10,-0.00579461,-1.26568,-0.205935,-0.286498,605.943,0.106832,
2,0,0,1,0,9839.76,0.0941801,0.0939756,-61.7829,8,0.0136145,10,-0.00580608,-1.20913,-0.258745,-0.228023,547.917,0.0939756,
2,0,0,1,0,9839.77,0.0813844,0.0811849,-68.2524,8,0.0125722,10,-0.00554107,-1.16588,-0.34503,-0.171,453.962,0.0811849,
2,0,0,1,0,9839.79,0.0685832,0.0682862,-73.2209,8,0.0114372,10,-0.00499998,-1.13536,-0.549374,-0.107395,305.726,0.0682862,
2,0,0,1,0,9839.81,0.0557876,0.0555178,-76.0658,8,0.0102396,10,-0.004223,-1.11881,-1.31794,-0.0447669,132.372,0.0555178,
2,0,0,1,0,9839.82,0.0429808,0.0427229,-76.5957,8,0.0090152,10,-0.00327239,-1.1158,4.30688,0.013699,-40.8179,0.0427229,
2,0,0,1,0,9839.84,0.030188,0.0298464,-75.2167,8,0.00779889,10,-0.00224495,-1.12369,1.12986,0.0522189,-153.057,0.0298464,
2,0,0,1,0,9839.85,0.017384,0.0171162,-72.8759,8,0.00661343,10,-0.00124736,-1.13742,0.819743,0.0719737,-204.524,0.0171162,
2,0,0,1,0,9839.87,0.00458834,0.00428214,-69.9548,8,0.00547007,10,-0.000299557,-1.15518,0.643868,0.0916337,-249.948,0.004282142,
2,0,0,1,0,9839.89,-0.00821564,-0.00857635,-66.3255,8,0.0043784,10,0.000568831,-1.17832,0.46805,0.126055,-325.624,-0.00857635,
2,0,0,1,0,9839.9,-0.0210196,-0.0213977,-61.7553,8,0.00335328,10,0.00132142,-1.20933,0.379062,0.155647,-374.776,-0.02139773,
2,0,0,1,0,9839.92,-0.0338153,-0.0341746,-57.075,8,0.00240387,10,0.00195051,-1.24355,0.399634,0.147635,-329.543,-0.0341746,
2,0,0,1,0,9839.93,-0.0466193,-0.0469769,-53.4923,8,0.00152153,10,0.0025129,-1.27171,0.55511,0.106285,-222.625,-0.0469769,
2,0,0,1,0,9839.95,-0.0594121,-0.0597633,-51.3502,8,0.000684629,10,0.00306885,-1.28946,1.02256,0.0576981,-116.003,-0.0597633,
2,0,0,1,0,9839.97,-0.0722189,-0.0725518,-50.4629,8,-0.000128566,10,0.00366118,-1.29703,3.38039,0.0174536,-34.4402,-0.0725518,
2,0,0,1,0,9839.98,-0.0850146,-0.085335,-50.4265,8,-0.000934726,10,0.00430314,-1.29734,-4.61763,-0.0127771,25.1821,-0.085335,
2,0,0,1,0,9840,-0.0978158,-0.0981542,-51.0364,8,-0.00174587,10,0.00500943,-1.29212,-1.72539,-0.0341952,68.1907,-0.0981542,
2,0,0,1,0,9840.01,-0.110611,-0.110945,-52.0984,8,-0.00257073,10,0.00578004,-1.28318,-1.20332,-0.0490308,99.8344,-0.110945,
2,0,0,1,0,9840.03,-0.123418,-0.123743,-53.5882,8,-0.00341623,10,0.00663116,-1.27093,-0.954477,-0.061814,129.393,-0.123743,
2,0,0,1,0,9840.05,-0.136214,-0.136538,-55.384,8,-0.00428792,10,0.007562,-1.25662,-0.86115,-0.0685131,148.154,-0.136538,
2,0,0,1,0,9840.06,-0.149015,-0.149343,-57.4028,8,-0.00519027,10,0.00857272,-1.24107,-0.804875,-0.0733033,164.238,-0.149343,
2,0,0,1,0,9840.08,-0.161816,-0.162149,-59.5581,8,-0.00612612,10,0.00965727,-1.22506,-0.799492,-0.0737968,171.533,-0.162149,
2,0,0,1,0,9840.09,-0.174615,-0.174932,-61.7737,8,-0.00709709,10,0.0108062,-1.2092,-0.799373,-0.0738079,177.99,-0.174932,
2,0,0,1,0,9840.11,-0.187419,-0.187746,-64.0816,8,-0.00810427,10,0.012031,-1.19327,-0.810008,-0.0728388,182.196,-0.187746,
2,0,0,1,0,9840.13,-0.199647,-0.19996,-66.369,8,-0.00910243,10,0.0132711,-1.17803,0.361397,0.163255,-408.832,-0.19996,
2,0,0,1,1,9840.14,-0.192535,-0.193035,-47.5162,8,-0.00967594,10,0.0091723,-1.32316,-0.0513505,-1.14897,2148.41,-0.193035,
2,0,0,1,1,9840.15,-0.179739,-0.18015,-25.227,8,-0.0102452,10,0.00454465,-1.59813,-0.0385107,-1.53204,1479.24,-0.18015,
2,0,0,1,1,9840.17,-0.166932,-0.16736,-8.80331,8,-0.0105101,10,0.00147332,-2.05535,-0.0140112,-4.21091,1132.11,-0.16736,
2,1,0,1,1,9840.18,-0.154139,-0.154607,3.97418,8,-0.0105434,10,-0.000614436,-2.40075,0.0191111,3.08721,895.629,-0.154607,
2,1,0,1,1,9840.2,-0.141335,-0.141838,14.2888,8,-0.0103933,10,-0.00202669,-1.845,0.0428874,1.3757,728.259,-0.141838,
2,1,0,1,1,9840.22,-0.12854,-0.12898,22.8204,8,-0.0100932,10,-0.00294338,-1.64168,0.0865103,0.681999,595.965,-0.12898,
2,1,0,1,1,9840.23,-0.115736,-0.116095,29.6932,8,-0.00967042,10,-0.00344724,-1.52734,0.14013,0.421038,483.365,-0.116095,
2,1,0,1,1,9840.25,-0.102932,-0.103317,35.241,8,-0.00914885,10,-0.00364101,-1.45295,0.207888,0.283807,388.164,-0.103317,
2,1,0,1,1,9840.26,-0.0901362,-0.090532,39.6884,8,-0.00854751,10,-0.00359307,-1.40134,0.292505,0.201706,311.383,-0.09053202,
2,1,0,1,1,9840.28,-0.0773322,-0.0777011,43.2371,8,-0.0078825,10,-0.00335957,-1.36414,0.406884,0.145004,244.049,-0.0777011,
2,1,0,1,1,9840.3,-0.0645393,-0.0649221,45.9991,8,-0.00716739,10,-0.00298636,-1.33725,0.558794,0.105585,189.146,-0.0649221,
2,1,0,1,1,9840.31,-0.0517325,-0.0521273,48.1222,8,-0.00641348,10,-0.00250848,-1.31765,0.770435,0.0765801,143.568,-0.0521273,
2,1,0,1,1,9840.33,-0.0389369,-0.0392857,49.666,8,-0.00563031,10,-0.00195116,-1.30394,1.13397,0.0520295,100.728,-0.0392857,
2,1,0,1,1,9840.34,-0.0261357,-0.0265142,50.6984,8,-0.00482645,10,-0.00134423,-1.29501,1.88338,0.0313266,61.9257,-0.0265142,
2,1,0,1,1,9840.36,-0.01334,-0.0137045,51.2472,8,-0.00401001,10,-0.000702316,-1.29033,4.73481,0.0124609,24.9025,-0.01370448,
2,1,0,1,1,9840.38,-0.000774628,-0.00118584,51.3627,8,-0.00320379,10,-6.09081e-05,-1.28935, , , ,-0.00118584,
2,1,0,0,1,9840.38,-0.000125413,-0.000592546,51.3683,8,-0.0031627,10,-3.04381e-05,-1.2893, , , ,-0.000592546,