File: Figure_codes/Fig_3-5/rawdata_trumpetplot_data/before 10th/20221101_1-115_002_TrumpetPlot_ParaChange_05_CV_C01_7.csv
mode,ox/red,error,control changes,counter inc.,time/s,control/V,Ewe/V,<I>/mA,cycle number,(Q-Qo)/C,I Range,P/W,log(|I|),Tafel slope mV/dec,alpha_eff,dI/d(E-IR),E-IR/V,
2,0,0,1,0,9580.29,2.44065e-05,-0.000363498,-0.0413291,8,0.0000000E+000,11,1.50231e-08,-4.38374, , , ,-0.000363498,
2,1,0,1,0,9581.74,0.00729041,0.00696378,0.208599,8,0.000289975,11,1.45264e-06,-3.68069,0.108956,0.541502,4.36997,0.00696378,
2,1,0,1,0,9583.24,0.0147815,0.0144639,0.231963,8,0.000649078,11,3.3551e-06,-3.63458,0.215775,0.273433,2.47892,0.0144639,
2,1,0,1,0,9584.73,0.0222725,0.0219316,0.25036,8,0.00103786,11,5.49081e-06,-3.60143,0.258036,0.228651,2.22719,0.0219316,
2,1,0,1,0,9586.23,0.0297635,0.0294774,0.268536,8,0.00145258,11,7.91574e-06,-3.571,0.26501,0.222633,2.33114,0.0294774,
2,1,0,1,0,9587.73,0.0372545,0.0369355,0.287878,8,0.00189652,11,1.06329e-05,-3.54079,0.232612,0.253641,2.86866,0.03693546,
2,1,0,1,0,9589.23,0.0447456,0.0444496,0.316254,8,0.00237577,11,1.40574e-05,-3.49996,0.187282,0.315033,3.87959,0.0444496,
2,1,0,1,0,9590.73,0.0522367,0.0519138,0.345114,8,0.00289802,11,1.79162e-05,-3.46204,0.143284,0.411771,5.56671,0.0519138,
2,1,0,1,0,9592.23,0.0597277,0.0594364,0.381371,8,0.00346926,11,2.26673e-05,-3.41865,0.192187,0.306993,4.55252,0.0594364,
2,1,0,1,0,9593.72,0.0672187,0.0668985,0.412956,8,0.00408992,11,2.76261e-05,-3.3841,0.24725,0.238625,3.8293,0.0668985,
2,1,0,1,0,9595.22,0.0747092,0.0744047,0.441153,8,0.00475682,11,3.28239e-05,-3.35541,0.296268,0.199144,3.4281,0.0744047,
2,1,0,0,0,9596.72,0.0822001,0.0818944,0.464618,8,0.00546499,11,3.80496e-05,-3.3329,0.3331,0.177124,3.23403,0.08189436,
2,1,0,1,0,9598.22,0.0896911,0.0894349,0.492555,8,0.00621089,11,4.40516e-05,-3.30755,0.318465,0.185264,3.57086,0.0894349,
2,1,0,0,0,9599.72,0.097182,0.0969002,0.524181,8,0.00699873,11,5.07932e-05,-3.28052,0.182982,0.322435,6.60177,0.0969002,
2,1,0,1,0,9601.21,0.104673,0.104361,0.57473,8,0.00784511,11,5.99795e-05,-3.24054,0.16555,0.356387,7.96162,0.104361,
2,1,0,0,0,9602.71,0.112164,0.111857,0.636405,8,0.00877579,11,7.11865e-05,-3.19627,0.167792,0.351626,8.69957,0.111857,
2,1,0,1,0,9604.21,0.119655,0.119351,0.702723,8,0.00980616,11,8.38708e-05,-3.15322,0.226688,0.26027,7.1506,0.1193511,
2,1,0,0,0,9605.71,0.127146,0.126845,0.756876,8,0.010931,11,9.60059e-05,-3.12098,0.250028,0.235974,7.01166,0.126845,
2,1,0,1,0,9607.21,0.134637,0.134314,0.807637,8,0.0121367,11,0.000108477,-3.09278,0.533225,0.110648,3.48285,0.134314,
2,1,0,1,0,9608.71,0.142127,0.141865,0.803569,8,0.0133799,11,0.000113998,-3.09498,-0.355614,-0.16591,-5.1866,0.141865,
2,1,0,1,0,9610.2,0.149618,0.149328,0.712002,8,0.0145539,11,0.000106322,-3.14752,-0.0935302,-0.630812,-17.4703,0.149328,
2,1,0,1,0,9611.7,0.157109,0.156833,0.566287,8,0.0155383,11,8.88125e-05,-3.24696,-0.0675385,-0.873576,-19.3042,0.156833,
2,1,0,1,0,9613.2,0.1646,0.164288,0.454326,8,0.0163216,11,7.46401e-05,-3.34263,-0.0889209,-0.663511,-11.7723,0.164288,
2,1,0,1,0,9614.7,0.172091,0.171809,0.385525,8,0.0169716,11,6.62368e-05,-3.41395,-0.140505,-0.419915,-6.3393,0.171809,
2,1,0,1,0,9616.2,0.179582,0.179312,0.346821,8,0.0175458,11,6.21892e-05,-3.45989,-0.216047,-0.273089,-3.72411,0.179312,
2,1,0,1,0,9617.69,0.187074,0.186796,0.324775,8,0.0180757,11,6.06668e-05,-3.48842,-0.287685,-0.205085,-2.59461,0.186796,
2,1,0,1,0,9619.19,0.194564,0.194237,0.310359,8,0.0185774,11,6.02833e-05,-3.50814,-0.454028,-0.129948,-1.57124,0.194237,
2,1,0,1,0,9620.69,0.202056,0.201768,0.299811,8,0.01906,11,6.04922e-05,-3.52315,-0.461122,-0.127949,-1.49027,0.201768,
2,1,0,1,0,9622.19,0.209547,0.209289,0.29206,8,0.019529,11,6.11248e-05,-3.53453,-0.52123,-0.113194,-1.29042,0.209289,
2,1,0,1,0,9623.69,0.217038,0.21673,0.284661,8,0.0199871,11,6.16945e-05,-3.54567,-1.08596,-0.0543298,-0.604493,0.21673,
2,1,0,1,0,9625.19,0.224529,0.224226,0.280695,8,0.0204374,11,6.29391e-05,-3.55177,-1.07209,-0.0550325,-0.601055,0.224226,
2,1,0,1,0,9626.68,0.232019,0.231691,0.276393,8,0.0208807,11,6.40377e-05,-3.55847,-0.6793,-0.0868542,-0.939835,0.231691,
2,1,0,0,0,9628.18,0.23951,0.239222,0.273232,8,0.0213188,11,6.5363e-05,-3.56347,-1.55958,-0.0378307,-0.403099,0.239222,
2,1,0,1,0,9629.68,0.247001,0.246718,0.269656,8,0.0217523,11,6.65288e-05,-3.56919,-1.58579,-0.0372054,-0.391728,0.246718,
2,1,0,0,0,9631.18,0.254492,0.254205,0.266722,8,0.0221816,11,6.78021e-05,-3.57394,-1.51123,-0.0390411,-0.408252,0.254205,
2,1,0,1,0,9632.68,0.261983,0.261681,0.265653,8,0.0226074,11,6.95164e-05,-3.57568,-5.38809,-0.0109501,-0.113487,0.261681,
2,1,0,0,0,9634.18,0.269474,0.269188,0.262063,8,0.02303,11,7.05441e-05,-3.58159,6.16298,0.0095733,0.098184,0.2691876,
2,1,0,1,0,9635.67,0.276965,0.276684,0.26157,8,0.0234499,11,7.23721e-05,-3.58241,-3.59121,-0.016429,-0.16785,0.2766836,
2,1,0,0,0,9637.17,0.284456,0.284161,0.260351,8,0.0238668,11,7.39814e-05,-3.58444,-1.65315,-0.0356893,-0.361479,0.284161,
2,1,0,1,0,9638.67,0.291947,0.291681,0.256827,8,0.0242807,11,7.49116e-05,-3.59036,-3.04093,-0.0194019,-0.195401,0.2916809,
2,1,0,1,0,9640.17,0.299437,0.299146,0.254836,8,0.024692,11,7.62332e-05,-3.59374,-0.00162048,-36.409,-135.188,0.299146,
2,0,0,1,0,9641.54,0.293744,0.293435,-0.030253,8,0.0246974,11,-8.87728e-06,-4.51923,-0.0125303,-4.7086,4.96584,0.293435,
2,0,0,1,0,9643.03,0.286253,0.285902,-0.0581774,8,0.0246024,11,-1.66331e-05,-4.23525,-0.0469875,-1.25565,2.86058,0.285902,
2,0,0,0,0,9644.53,0.278763,0.278436,-0.0783702,8,0.0244731,11,-2.18211e-05,-4.10585,-0.0827476,-0.713012,2.14666,0.278436,
2,0,0,1,0,9646.03,0.271272,0.27096,-0.0920792,8,0.0243186,11,-2.49497e-05,-4.03584,-0.0997203,-0.591655,2.14746,0.27096,
2,0,0,0,0,9647.53,0.263781,0.263489,-0.105622,8,0.0241429,11,-2.78302e-05,-3.97625,-0.154299,-0.382374,1.58504,0.263489,
2,0,0,1,0,9649.03,0.25629,0.25601,-0.117816,8,0.0239491,11,-3.01621e-05,-3.9288,-0.198021,-0.297949,1.35546,0.25601,
2,0,0,0,0,9650.53,0.248799,0.248495,-0.12815,8,0.0237385,11,-3.18446e-05,-3.89228,-0.208166,-0.283428,1.42033,0.248495,
2,0,0,1,0,9652.02,0.241308,0.241016,-0.138483,8,0.0235123,11,-3.33767e-05,-3.8586,-0.285753,-0.206472,1.11392,0.241016,
2,0,0,0,0,9653.52,0.233817,0.23352,-0.148578,8,0.0232711,11,-3.46959e-05,-3.82805,-0.269037,-0.2193,1.26745,0.23352,
2,0,0,1,0,9655.02,0.226326,0.226044,-0.157595,8,0.0230148,11,-3.56234e-05,-3.80246,-0.278872,-0.211566,1.30674,0.226044,
2,0,0,0,0,9656.52,0.218835,0.218528,-0.168781,8,0.0227433,11,-3.68834e-05,-3.77268,-0.215549,-0.273719,1.80124,0.218528,
2,0,0,1,0,9658.02,0.211344,0.21104,-0.179904,8,0.0224559,11,-3.7967e-05,-3.74496,-0.317232,-0.185984,1.30373,0.2110402,
2,0,0,1,0,9659.51,0.203854,0.203516,-0.191082,8,0.022151,11,-3.88882e-05,-3.71878,-0.226103,-0.260943,1.96076,0.203516,
2,0,0,1,0,9661.01,0.196363,0.196035,-0.205825,8,0.0218271,11,-4.03489e-05,-3.6865,-0.24157,-0.244235,1.95705,0.1960348,
2,0,0,1,0,9662.51,0.188871,0.188593,-0.223057,8,0.0214795,11,-4.20669e-05,-3.65158,-0.164135,-0.35946,3.12404,0.188593,
2,0,0,1,0,9664.01,0.181381,0.181094,-0.246295,8,0.0211023,11,-4.46026e-05,-3.60854,-0.164497,-0.358669,3.44524,0.181094,
2,0,0,1,0,9665.51,0.173889,0.173572,-0.278467,8,0.0206851,11,-4.83342e-05,-3.55523,-0.128062,-0.460714,4.98748,0.173572,
2,0,0,1,0,9667.01,0.166398,0.166106,-0.324744,8,0.0202094,11,-5.39417e-05,-3.48846,-0.0958236,-0.615715,7.86119,0.166106,
2,0,0,1,0,9668.5,0.158907,0.158603,-0.401742,8,0.0196418,11,-6.37174e-05,-3.39605,-0.0715224,-0.824916,13.0212,0.158603,
2,0,0,1,0,9670,0.151416,0.15109,-0.52426,8,0.018926,11,-7.92104e-05,-3.28045,-0.063756,-0.925403,18.9024,0.15109,
2,0,0,1,0,9671.5,0.143925,0.143604,-0.67239,8,0.0180024,11,-9.65582e-05,-3.17238,-0.0763941,-0.772311,20.1983,0.143604,
2,0,0,1,0,9673,0.136434,0.136135,-0.790064,8,0.0168715,11,-0.000107555,-3.10234,-0.167547,-0.35214,10.7995,0.136135,
2,0,0,1,0,9674.5,0.128943,0.128605,-0.832617,8,0.0156215,11,-0.000107078,-3.07955,4.94873,0.0119223,-0.384586,0.128605,
2,0,0,0,0,9676,0.121453,0.121138,-0.811101,8,0.0143597,11,-9.8255e-05,-3.09093,0.354354,0.1665,-5.26218,0.121138,
2,0,0,1,0,9677.49,0.113962,0.113662,-0.758513,8,0.0131514,11,-8.62142e-05,-3.12004,0.248017,0.237887,-7.08342,0.113662,
2,0,0,0,0,9678.99,0.106471,0.106189,-0.705788,8,0.0120239,11,-7.49471e-05,-3.15133,0.235535,0.250494,-6.91735,0.106189,
2,0,0,1,0,9680.49,0.0989799,0.0986477,-0.652915,8,0.0109813,11,-6.44086e-05,-3.18514,0.253694,0.232563,-5.91657,0.0986477,
2,0,0,0,0,9681.99,0.0914889,0.09114,-0.614411,8,0.0100099,11,-5.59974e-05,-3.21154,0.32818,0.179779,-4.29389,0.09114,
2,0,0,1,0,9683.49,0.083998,0.0837119,-0.581116,8,0.00908963,11,-4.86463e-05,-3.23574,0.325843,0.181069,-4.11505,0.0837119,
2,0,0,0,0,9684.98,0.076507,0.0762074,-0.560654,8,0.00820723,11,-4.2726e-05,-3.2513,0.453292,0.130159,-2.84837,0.0762074,
2,0,0,1,0,9686.48,0.0690161,0.0687347,-0.533191,8,0.00735964,11,-3.66487e-05,-3.27312,0.350375,0.168391,-3.52855,0.0687347,
2,0,0,0,0,9687.98,0.0615251,0.0611973,-0.510728,8,0.00654902,11,-3.12552e-05,-3.29181,0.321228,0.18367,-3.65955,0.0611973,
2,0,0,1,0,9689.48,0.0540342,0.0537851,-0.48088,8,0.00578036,11,-2.58642e-05,-3.31796,0.294065,0.200636,-3.7585,0.0537851,
2,0,0,1,0,9690.98,0.0465436,0.0462184,-0.454389,8,0.00505415,11,-2.10011e-05,-3.34257,0.288353,0.20461,-3.62772,0.0462184,
2,0,0,1,0,9692.48,0.0390526,0.0387393,-0.432177,8,0.00436566,11,-1.67422e-05,-3.36434,0.335609,0.1758,-2.95513,0.0387393,
2,0,0,1,0,9693.97,0.0315615,0.0312294,-0.417099,8,0.00370566,11,-1.30257e-05,-3.37976,0.594303,0.099276,-1.61386,0.03122939,
2,0,0,1,0,9695.47,0.0240706,0.0237747,-0.40733,8,0.00306297,11,-9.68414e-06,-3.39005,5.93611,0.00993918,-0.158753,0.0237747,
2,0,0,1,0,9696.97,0.0165795,0.016248,-0.407811,8,0.00242668,11,-6.6261e-06,-3.38954,-2.56832,-0.0229722,0.365661,0.016248,
2,0,0,1,0,9698.47,0.00908846,0.00876766,-0.410262,8,0.00178775,11,-3.59704e-06,-3.38694,-0.989558,-0.0596226,0.95858,0.00876766,
2,0,0,1,0,9699.97,0.00159739,0.00127901,-0.421796,8,0.00113746,11,-5.39482e-07,-3.3749, , , ,0.00127901,
2,0,0,0,0,9700.25,0.000199195,-0.000206982,-0.421863,8,0.00101469,11,8.7318e-08,-3.37483, , , ,-0.000206982,