File: Figure_codes/Fig_3-5/rawdata_trumpetplot_data/before 10th/20221101_1-115_002_TrumpetPlot_ParaChange_07_CV_C01_3.csv
mode,ox/red,error,control changes,counter inc.,time/s,control/V,Ewe/V,<I>/mA,cycle number,(Q-Qo)/C,I Range,P/W,log(|I|),Tafel slope mV/dec,alpha_eff,dI/d(E-IR),E-IR/V,
2,0,0,0,0,4833.97,2.44065e-05,-0.000306236,-1.18145,4,0.0000000E+000,11,3.61802e-07,-2.92759, , , ,-0.000306236,
2,1,0,1,0,4834.34,0.00729063,0.00699905,0.812669,4,0.000219396,11,5.68792e-06,-3.09009,0.119726,0.492794,15.5777,0.00699905,
2,1,0,1,0,4834.71,0.0147802,0.0145081,0.895583,4,0.000544027,11,1.29932e-05,-3.04789,0.220235,0.267896,9.33543,0.0145081,
2,1,0,1,0,4835.09,0.0222725,0.0219879,0.944455,4,0.000892363,11,2.07666e-05,-3.02482,0.396027,0.14898,5.49623,0.0219879,
2,1,0,1,0,4835.46,0.0297644,0.0295064,0.989258,4,0.00125723,11,2.91894e-05,-3.00469,0.383814,0.15372,5.92684,0.0295064,
2,1,0,1,0,4835.84,0.0372544,0.0369498,1.03311,4,0.00163849,11,3.81733e-05,-2.98585,0.376257,0.156808,6.33898,0.0369498,
2,1,0,1,0,4836.21,0.0447449,0.0444898,1.09622,4,0.00204005,11,4.87708e-05,-2.9601,0.25456,0.231773,9.92101,0.0444898,
2,1,0,1,0,4836.58,0.0522363,0.0519155,1.17931,4,0.00246844,11,6.12245e-05,-2.92837,0.189165,0.311897,14.3526,0.0519155,
2,1,0,1,0,4836.96,0.0597291,0.0594499,1.28438,4,0.00293231,11,7.63565e-05,-2.89131,0.191324,0.308377,15.4579,0.05944993,
2,1,0,1,0,4837.33,0.0672182,0.066949,1.40997,4,0.00343932,11,9.4396e-05,-2.85079,0.195327,0.302058,16.5872,0.066949,
2,1,0,1,0,4837.71,0.0747092,0.0744354,1.53957,4,0.0039937,11,0.000114599,-2.8126,0.223851,0.263568,15.7907,0.0744354,
2,1,0,1,0,4838.08,0.0822001,0.0819252,1.65631,4,0.00459576,11,0.000135693,-2.78086,0.264905,0.222721,14.4211,0.0819252,
2,1,0,1,0,4838.46,0.0896911,0.0894158,1.76839,4,0.00524057,11,0.000158122,-2.75242,0.285626,0.206564,14.2691,0.0894158,
2,1,0,1,0,4838.83,0.097182,0.096845,1.87682,4,0.00592643,11,0.00018176,-2.72658,0.23473,0.251353,18.4095,0.096845,
2,1,0,1,0,4839.21,0.104673,0.104364,2.02404,4,0.00665761,11,0.000211237,-2.69378,0.199295,0.296043,23.3532,0.104364,
2,1,0,1,0,4839.58,0.112164,0.111845,2.22619,4,0.00745306,11,0.000248989,-2.65244,0.162345,0.363424,31.5758,0.111845,
2,1,0,1,0,4839.96,0.119655,0.11942,2.5233,4,0.00834255,11,0.000301332,-2.59803,0.138177,0.426989,42.052,0.1194199,
2,1,0,1,0,4840.33,0.127146,0.126877,2.85343,4,0.00935315,11,0.000362034,-2.54463,0.149437,0.394815,44.0395,0.126877,
2,1,0,1,0,4840.7,0.134637,0.134375,3.16569,4,0.0104871,11,0.000425389,-2.49953,0.213474,0.276381,34.132,0.134375,
2,1,0,1,0,4841.08,0.142128,0.141859,3.34343,4,0.0117153,11,0.000474297,-2.47581,0.516809,0.114162,14.8599,0.141859,
2,1,0,1,0,4841.45,0.149619,0.149343,3.28487,4,0.01297,11,0.000490571,-2.48348,-0.246589,-0.239265,-30.5389,0.149343,
2,1,0,1,0,4841.83,0.157108,0.156789,2.8759,4,0.0141362,11,0.000450911,-2.54123,-0.0870101,-0.678082,-75.7494,0.156789,
2,1,0,1,0,4842.2,0.164601,0.164332,2.28046,4,0.0151038,11,0.000374752,-2.64198,-0.068612,-0.859908,-76.5198,0.164332,
2,1,0,1,0,4842.58,0.172092,0.171768,1.79408,4,0.0158644,11,0.000308165,-2.74616,-0.0812417,-0.726228,-51.1851,0.1717678,
2,1,0,1,0,4842.95,0.179582,0.179268,1.49535,4,0.0164793,11,0.000268069,-2.82526,-0.116878,-0.504802,-29.5614,0.179268,
2,1,0,1,0,4843.33,0.187073,0.186785,1.31457,4,0.017005,11,0.000245542,-2.88122,-0.167272,-0.352719,-18.0676,0.186785,
2,1,0,1,0,4843.7,0.194564,0.194285,1.20056,4,0.0174766,11,0.000233251,-2.92062,-0.238276,-0.247612,-11.5928,0.194285,
2,1,0,1,0,4844.08,0.202057,0.201788,1.12667,4,0.017914,11,0.000227348,-2.94821,-0.283156,-0.208366,-9.14454,0.2017884,
2,1,0,1,0,4844.45,0.209546,0.209245,1.07579,4,0.018329,11,0.000225104,-2.96827,-0.369488,-0.15968,-6.72354,0.209245,
2,1,0,1,0,4844.82,0.217037,0.216734,1.03781,4,0.0187275,11,0.00022493,-2.98388,-0.77916,-0.0757226,-3.08062,0.216734,
2,1,0,1,0,4845.2,0.224528,0.22424,1.0107,4,0.0191146,11,0.000226639,-2.99538,-0.764223,-0.0772026,-3.04666,0.22424,
2,1,0,1,0,4845.57,0.232019,0.231753,0.991253,4,0.0194924,11,0.000229726,-3.00382,-0.851127,-0.0693199,-2.68023,0.231753,
2,1,0,1,0,4845.95,0.23951,0.239244,0.972797,4,0.0198627,11,0.000232736,-3.01198,-1.14396,-0.0515753,-1.95615,0.239244,
2,1,0,1,0,4846.32,0.247001,0.246706,0.957719,4,0.0202268,11,0.000236275,-3.01876,-0.816998,-0.0722156,-2.69061,0.246706,
2,1,0,1,0,4846.7,0.254492,0.254178,0.942192,4,0.0205855,11,0.000239485,-3.02586,-1.21227,-0.0486691,-1.79165,0.254178,
2,1,0,1,0,4847.07,0.261983,0.261704,0.931819,4,0.0209391,11,0.000243861,-3.03067,-1.34908,-0.0437335,-1.58818,0.261704,
2,1,0,1,0,4847.45,0.269474,0.269205,0.918515,4,0.0212884,11,0.000247269,-3.03691,-263.544,-0.000223872,-0.00802189,0.269205,
2,1,0,1,0,4847.82,0.276965,0.276684,0.907847,4,0.0216336,11,0.000251186,-3.04199,-1.53913,-0.0383333,-1.35814,0.276684,
2,1,0,1,0,4848.2,0.284456,0.284196,0.900575,4,0.021975,11,0.00025594,-3.04548,-1.29561,-0.0455384,-1.59571,0.284196,
2,1,0,1,0,4848.57,0.291947,0.291659,0.888185,4,0.0223125,11,0.000259047,-3.0515,-1.25157,-0.0471409,-1.6371,0.291659,
2,1,0,1,0,4848.94,0.299436,0.299146,0.875634,4,0.0226465,11,0.000261942,-3.05768,-0.0012769,-46.2056,-527.954,0.299146,
2,0,0,1,0,4849.29,0.293745,0.293414,-0.266987,4,0.0226227,11,-7.83376e-05,-3.57351,-0.0361795,-1.63076,16.6943,0.293414,
2,0,0,1,0,4849.66,0.286254,0.285977,-0.356867,4,0.0225006,11,-0.000102056,-3.44749,-0.0819692,-0.719782,10.1229,0.285977,
2,0,0,1,0,4850.04,0.278763,0.278478,-0.419343,4,0.0223512,11,-0.000116778,-3.37743,-0.141927,-0.415708,6.7789,0.278478,
2,0,0,1,0,4850.41,0.271272,0.270958,-0.464542,4,0.0221827,11,-0.000125871,-3.33298,-0.187103,-0.315335,5.71369,0.270958,
2,0,0,1,0,4850.78,0.263781,0.263486,-0.503141,4,0.0219981,11,-0.00013257,-3.29831,-0.222646,-0.264994,5.21339,0.263486,
2,0,0,1,0,4851.16,0.25629,0.255973,-0.540414,4,0.0217999,11,-0.000138331,-3.26727,-0.341399,-0.172818,3.62762,0.255973,
2,0,0,1,0,4851.53,0.248799,0.248513,-0.56976,4,0.0215891,11,-0.000141593,-3.24431,-0.309034,-0.190917,4.25842,0.248513,
2,0,0,1,0,4851.91,0.241308,0.241004,-0.602364,4,0.0213664,11,-0.000145172,-3.22014,-0.312748,-0.18865,4.44143,0.241004,
2,0,0,1,0,4852.28,0.233817,0.233529,-0.635884,4,0.0211318,11,-0.000148497,-3.19662,-0.280666,-0.210214,5.21776,0.233529,
2,0,0,1,0,4852.66,0.226326,0.226003,-0.666017,4,0.0208852,11,-0.000150522,-3.17651,-0.393687,-0.149865,3.90604,0.2260035,
2,0,0,1,0,4853.03,0.218835,0.218506,-0.703816,4,0.0206257,11,-0.000153788,-3.15254,-0.289293,-0.203945,5.59217,0.218506,
2,0,0,1,0,4853.41,0.211344,0.211049,-0.743594,4,0.0203525,11,-0.000156935,-3.12866,-0.371585,-0.158779,4.60017,0.2110489,
2,0,0,1,0,4853.78,0.203855,0.203599,-0.787877,4,0.020063,11,-0.000160411,-3.10354,-0.2983,-0.197788,6.11045,0.203599,
2,0,0,1,0,4854.16,0.196362,0.196016,-0.845587,4,0.0197543,11,-0.000165749,-3.07284,-0.242862,-0.242937,8.04047,0.196016,
2,0,0,1,0,4854.53,0.188871,0.18858,-0.92277,4,0.0194205,11,-0.000174016,-3.03491,-0.154972,-0.380713,13.7082,0.18858,
2,0,0,1,0,4854.9,0.18138,0.18107,-1.03141,4,0.0190534,11,-0.000186757,-2.98657,-0.142619,-0.413689,16.6429,0.18107,
2,0,0,1,0,4855.28,0.173891,0.173563,-1.18269,4,0.0186387,11,-0.000205272,-2.92713,-0.107723,-0.547699,25.2902,0.1735633,
2,0,0,1,0,4855.65,0.166398,0.166113,-1.41517,4,0.0181523,11,-0.000235078,-2.84919,-0.0842759,-0.700081,38.8536,0.166113,
2,0,0,1,0,4856.03,0.158906,0.158613,-1.7824,4,0.0175546,11,-0.000282712,-2.74899,-0.0695424,-0.848403,59.2202,0.158613,
2,0,0,1,0,4856.4,0.151417,0.151117,-2.29869,4,0.0167903,11,-0.000347371,-2.63852,-0.0719958,-0.819493,73.4901,0.151117,
2,0,0,1,0,4856.78,0.143926,0.143625,-2.84488,4,0.0158223,11,-0.000408595,-2.54594,-0.0911254,-0.647459,71.6449,0.143625,
2,0,0,1,0,4857.15,0.136435,0.136086,-3.24915,4,0.0146705,11,-0.000442165,-2.48823,-0.197169,-0.299236,37.7923,0.136086,
2,0,0,1,0,4857.53,0.128942,0.128662,-3.40315,4,0.0134142,11,-0.000437855,-2.46812,-7.81051,-0.00755393,0.998103,0.128662,
2,0,0,1,0,4857.9,0.121453,0.121151,-3.27554,4,0.0121546,11,-0.000396836,-2.48472,0.234325,0.251787,-32.1028,0.121151,
2,0,0,1,0,4858.28,0.113962,0.113651,-2.96375,4,0.0109787,11,-0.000336833,-2.52816,0.140984,0.418488,-48.4961,0.113651,
2,0,0,1,0,4858.65,0.106471,0.106186,-2.62956,4,0.00992868,11,-0.000279223,-2.58012,0.152269,0.387473,-39.8813,0.106186,
2,0,0,1,0,4859.02,0.0989799,0.0986514,-2.37926,4,0.00899145,11,-0.000234717,-2.62356,0.214528,0.275022,-25.5259,0.0986514,
2,0,0,1,0,4859.4,0.0914889,0.0911887,-2.2186,4,0.00813086,11,-0.000202311,-2.65392,0.307433,0.191912,-16.5926,0.0911887,
2,0,0,1,0,4859.77,0.083998,0.0836957,-2.10635,4,0.00732038,11,-0.000176292,-2.67647,0.305666,0.193021,-15.8205,0.0836957,
2,0,0,1,0,4860.15,0.076507,0.0761737,-2.00499,4,0.00654833,11,-0.000152727,-2.69789,0.310294,0.190142,-14.8659,0.0761737,
2,0,0,1,0,4860.52,0.0690161,0.0686987,-1.88867,4,0.00581562,11,-0.000129749,-2.72384,0.273192,0.215965,-15.9622,0.0686987,
2,0,0,1,0,4860.9,0.0615251,0.0612398,-1.76514,4,0.00512673,11,-0.000108097,-2.75322,0.247558,0.238328,-16.4444,0.0612398,
2,0,0,1,0,4861.27,0.0540342,0.0537248,-1.64775,4,0.00448518,11,-8.85252e-05,-2.78311,0.273535,0.215694,-13.837,0.0537248,
2,0,0,1,0,4861.65,0.0465432,0.0462703,-1.54541,4,0.00388551,11,-7.15065e-05,-2.81096,0.329537,0.179039,-10.8184,0.0462703,
2,0,0,1,0,4862.02,0.0390523,0.038739,-1.47645,4,0.00331752,11,-5.71961e-05,-2.83078,0.379286,0.155555,-8.95948,0.038739,
2,0,0,1,0,4862.4,0.0315626,0.0312837,-1.44078,4,0.00276973,11,-4.50729e-05,-2.8414,1.24023,0.0475718,-2.67118,0.0312837,
2,0,0,1,0,4862.77,0.0240704,0.0237647,-1.41874,4,0.00223179,11,-3.37159e-05,-2.8481,3.19114,0.0184887,-1.02866,0.0237647,
2,0,0,1,0,4863.15,0.0165785,0.0162543,-1.42338,4,0.00169613,11,-2.3136e-05,-2.84668,-1.2253,-0.0481515,2.68418,0.0162543,
2,0,0,1,0,4863.52,0.00908846,0.00878803,-1.43969,4,0.00115675,11,-1.26521e-05,-2.84173,-1.17496,-0.0502143,2.81999,0.00878803,
2,0,0,1,0,4863.89,0.0015984,0.0012504,-1.49298,4,0.000607985,11,-1.86683e-06,-2.82595, , , ,0.0012504,
2,0,0,1,0,4863.96,0.000199195,-0.000199409,-1.4768,4,0.000503723,11,2.94488e-07,-2.83068, , , ,-0.000199409,