File: Figure_codes/Fig_3-5/rawdata_trumpetplot_data/before 10th/20221101_1-115_002_TrumpetPlot_ParaChange_06_CV_C01_7.csv
mode,ox/red,error,control changes,counter inc.,time/s,control/V,Ewe/V,<I>/mA,cycle number,(Q-Qo)/C,I Range,P/W,log(|I|),Tafel slope mV/dec,alpha_eff,dI/d(E-IR),E-IR/V,
2,0,0,1,0,9700.39,2.44065e-05,-0.000363498,-0.553176,8,0.0000000E+000,11,2.01078e-07,-3.25714, , , ,-0.000363498,
2,1,0,1,0,9701.11,0.00729063,0.00697558,0.398307,8,0.000236647,11,2.77842e-06,-3.39978,0.095709,0.616452,9.51438,0.00697558,
2,1,0,1,0,9701.86,0.0147814,0.0144939,0.449915,8,0.000566045,11,6.52101e-06,-3.34687,0.17827,0.330959,5.81177,0.01449385,
2,1,0,1,0,9702.61,0.0222725,0.0219676,0.484904,8,0.000926895,11,1.06522e-05,-3.31434,0.2366,0.249366,4.72221,0.0219676,
2,1,0,1,0,9703.36,0.0297635,0.0294689,0.524616,8,0.0013144,11,1.54599e-05,-3.28016,0.269664,0.218791,4.46231,0.0294689,
2,1,0,1,0,9704.11,0.0372544,0.0369925,0.561311,8,0.0017308,11,2.07643e-05,-3.2508,0.228228,0.258514,5.70293,0.0369925,
2,1,0,1,0,9704.86,0.0447458,0.0444391,0.615401,8,0.00218182,11,2.73479e-05,-3.21084,0.189231,0.311788,7.47206,0.0444391,
2,1,0,1,0,9705.61,0.0522363,0.0518859,0.671917,8,0.00267442,11,3.4863e-05,-3.17268,0.163739,0.360331,9.47333,0.0518859,
2,1,0,1,0,9706.36,0.0597282,0.0594481,0.739847,8,0.00321375,11,4.39825e-05,-3.13086,0.199886,0.295168,8.51882,0.05944806,
2,1,0,1,0,9707.11,0.0672182,0.0668588,0.802738,8,0.00380131,11,5.36701e-05,-3.09543,0.2181,0.270518,8.44366,0.06685885,
2,1,0,1,0,9707.85,0.0747092,0.0743814,0.858014,8,0.00443338,11,6.38203e-05,-3.06651,0.30991,0.190378,6.37294,0.0743814,
2,1,0,1,0,9708.6,0.0822001,0.0819028,0.905228,8,0.00510564,11,7.41407e-05,-3.04324,0.335005,0.176117,6.24384,0.0819028,
2,1,0,1,0,9709.35,0.0896911,0.089367,0.95641,8,0.00581367,11,8.54715e-05,-3.01936,0.309431,0.190672,7.12894,0.089367,
2,1,0,1,0,9710.1,0.097182,0.0968588,1.01657,8,0.0065622,11,9.84637e-05,-2.99286,0.190256,0.310109,12.2975,0.0968588,
2,1,0,1,0,9710.85,0.104673,0.104385,1.11136,8,0.00736562,11,0.000116009,-2.95414,0.178643,0.330267,14.2837,0.104385,
2,1,0,1,0,9711.6,0.112164,0.111908,1.22849,8,0.00824875,11,0.000137478,-2.91063,0.180779,0.326366,15.6129,0.111908,
2,1,0,1,0,9712.35,0.119655,0.119327,1.35545,8,0.00922594,11,0.000161742,-2.86792,0.214565,0.274974,14.5458,0.1193267,
2,1,0,1,0,9713.1,0.127146,0.126845,1.46062,8,0.0102932,11,0.000185272,-2.83546,0.238981,0.246882,14.117,0.126845,
2,1,0,1,0,9713.85,0.134637,0.134296,1.55144,8,0.0114366,11,0.000208352,-2.80927,0.469359,0.125703,7.61683,0.134296,
2,1,0,1,0,9714.6,0.142127,0.14185,1.56247,8,0.012621,11,0.000221637,-2.80619,-0.565611,-0.104312,-6.32914,0.14185,
2,1,0,1,0,9715.35,0.149619,0.149304,1.4095,8,0.0137559,11,0.000210444,-2.85094,-0.100997,-0.584175,-32.0076,0.1493044,
2,1,0,1,0,9716.09,0.157109,0.15681,1.13284,8,0.0147204,11,0.00017764,-2.94583,-0.0665089,-0.887099,-39.1519,0.15681,
2,1,0,1,0,9716.84,0.164601,0.164317,0.894732,8,0.0154833,11,0.000147019,-3.04831,-0.0792817,-0.744182,-26.0003,0.164317,
2,1,0,1,0,9717.59,0.172091,0.171824,0.74473,8,0.0161031,11,0.000127963,-3.128,-0.121898,-0.484013,-14.1918,0.171824,
2,1,0,1,0,9718.34,0.179582,0.179298,0.664954,8,0.0166398,11,0.000119225,-3.17721,-0.179615,-0.32848,-8.54778,0.179298,
2,1,0,1,0,9719.09,0.187074,0.186786,0.616855,8,0.0171284,11,0.00011522,-3.20982,-0.300332,-0.196449,-4.71669,0.186786,
2,1,0,1,0,9719.84,0.194564,0.194256,0.584212,8,0.0175874,11,0.000113487,-3.23343,-0.459043,-0.128528,-2.93575,0.1942561,
2,1,0,1,0,9720.59,0.202056,0.201779,0.563224,8,0.0180266,11,0.000113647,-3.24932,-0.428904,-0.13756,-3.01435,0.201779,
2,1,0,1,0,9721.34,0.209546,0.209275,0.545997,8,0.018452,11,0.000114263,-3.26281,-0.708395,-0.0832869,-1.77824,0.209275,
2,1,0,1,0,9722.09,0.217038,0.216752,0.532247,8,0.0188665,11,0.000115366,-3.27389,-0.76551,-0.0770728,-1.60738,0.216752,
2,1,0,1,0,9722.84,0.224528,0.224263,0.525294,8,0.0192728,11,0.000117804,-3.2796,-0.762665,-0.0773603,-1.5825,0.224263,
2,1,0,1,0,9723.59,0.232019,0.231671,0.516132,8,0.0196722,11,0.000119573,-3.28724,-1.39501,-0.0422937,-0.850363,0.231671,
2,1,0,1,0,9724.33,0.23951,0.239224,0.509591,8,0.0200662,11,0.000121906,-3.29278,-2.47737,-0.0238155,-0.473958,0.239224,
2,1,0,1,0,9725.08,0.247001,0.246765,0.50337,8,0.0204552,11,0.000124214,-3.29811,-0.917426,-0.0643104,-1.25955,0.2467653,
2,1,0,1,0,9725.83,0.254492,0.254177,0.497043,8,0.0208399,11,0.000126337,-3.30361,-3.65143,-0.016158,-0.314546,0.2541765,
2,1,0,1,0,9726.58,0.261983,0.2617,0.492621,8,0.0212206,11,0.000128919,-3.30749,-1.59564,-0.0369758,-0.708286,0.2617,
2,1,0,1,0,9727.33,0.269474,0.269217,0.489197,8,0.0215978,11,0.0001317,-3.31052,6.90185,0.00854843,0.162554,0.269217,
2,1,0,1,0,9728.08,0.276965,0.2767,0.482547,8,0.0219716,11,0.00013352,-3.31646,-1.08308,-0.0544744,-1.02742,0.2767,
2,1,0,1,0,9728.83,0.284456,0.284182,0.479767,8,0.0223422,11,0.000136341,-3.31897,-2.31887,-0.0254435,-0.475301,0.284182,
2,1,0,1,0,9729.58,0.291947,0.291628,0.473356,8,0.0227095,11,0.000138044,-3.32481,-1.4556,-0.0405331,-0.752598,0.291628,
2,1,0,1,0,9730.33,0.299437,0.299155,0.467702,8,0.0230738,11,0.000139916,-3.33003,-0.0011334,-52.056,-271.586,0.299155,
2,0,0,1,0,9731.01,0.293745,0.293422,-0.112272,8,0.0230572,11,-3.29431e-05,-3.94973,-0.0264997,-2.22644,9.3523,0.293422,
2,0,0,1,0,9731.76,0.286253,0.285941,-0.160089,8,0.0229432,11,-4.5776e-05,-3.79564,-0.0733863,-0.803965,5.05619,0.285941,
2,0,0,1,0,9732.51,0.278763,0.278501,-0.193281,8,0.0227996,11,-5.3829e-05,-3.71381,-0.133121,-0.443206,3.33455,0.278501,
2,0,0,1,0,9733.26,0.271272,0.270981,-0.220933,8,0.0226346,11,-5.98686e-05,-3.65574,-0.182723,-0.322894,2.76874,0.270981,
2,0,0,1,0,9734.01,0.263781,0.263524,-0.238303,8,0.0224519,11,-6.27985e-05,-3.62287,-0.21646,-0.272567,2.54587,0.263524,
2,0,0,1,0,9734.76,0.25629,0.255988,-0.261415,8,0.022254,11,-6.69191e-05,-3.58267,-0.2868,-0.205718,2.08461,0.255988,
2,0,0,1,0,9735.51,0.248799,0.248491,-0.276133,8,0.0220422,11,-6.86165e-05,-3.55888,-0.322374,-0.183017,1.9811,0.248491,
2,0,0,1,0,9736.26,0.241308,0.240988,-0.296248,8,0.0218173,11,-7.13922e-05,-3.52834,-0.333963,-0.176666,2.03667,0.240988,
2,0,0,1,0,9737,0.233817,0.233487,-0.310944,8,0.0215799,11,-7.26014e-05,-3.50732,-0.326206,-0.180867,2.19896,0.233487,
2,0,0,1,0,9737.75,0.226326,0.226034,-0.329051,8,0.0213298,11,-7.43768e-05,-3.48274,-0.413749,-0.142599,1.83453,0.226034,
2,0,0,1,0,9738.5,0.218835,0.218501,-0.345753,8,0.0210669,11,-7.55474e-05,-3.46123,-0.302048,-0.195333,2.62914,0.218501,
2,0,0,1,0,9739.25,0.211344,0.211029,-0.365359,8,0.0207906,11,-7.71011e-05,-3.43728,-0.379024,-0.155663,2.2223,0.211029,
2,0,0,1,0,9740,0.203854,0.203547,-0.3845,8,0.0204992,11,-7.82638e-05,-3.4151,-0.300869,-0.196099,2.95304,0.203547,
2,0,0,1,0,9740.75,0.196362,0.196095,-0.411346,8,0.0201912,11,-8.06628e-05,-3.38579,-0.274445,-0.21498,3.44046,0.196095,
2,0,0,1,0,9741.5,0.188872,0.188504,-0.440376,8,0.0198624,11,-8.30126e-05,-3.35618,-0.17712,-0.333107,5.72228,0.188504,
2,0,0,1,0,9742.25,0.18138,0.181085,-0.482707,8,0.0195074,11,-8.74108e-05,-3.31632,-0.173417,-0.34022,6.40673,0.1810848,
2,0,0,1,0,9743,0.17389,0.173567,-0.54028,8,0.0191162,11,-9.37746e-05,-3.26738,-0.124126,-0.475324,9.99349,0.173567,
2,0,0,1,0,9743.75,0.166398,0.166065,-0.625536,8,0.0186716,11,-0.00010388,-3.20375,-0.105617,-0.558622,13.7634,0.166065,
2,0,0,1,0,9744.5,0.158907,0.158576,-0.764792,8,0.0181427,11,-0.000121278,-3.11646,-0.0750829,-0.785798,23.6522,0.158576,
2,0,0,1,0,9745.24,0.151417,0.151117,-0.990899,8,0.0174789,11,-0.000149741,-3.00397,-0.0670535,-0.879894,34.0602,0.151117,
2,0,0,1,0,9745.99,0.143925,0.143627,-1.26864,8,0.0166239,11,-0.000182212,-2.89666,-0.0750534,-0.786107,38.79,0.143627,
2,0,0,1,0,9746.74,0.136435,0.136141,-1.50006,8,0.0155706,11,-0.000204219,-2.82389,-0.149085,-0.395748,23.0486,0.136141,
2,0,0,1,0,9747.49,0.128943,0.128605,-1.60487,8,0.0143901,11,-0.000206395,-2.79456,-1.10891,-0.0532055,3.31509,0.128605,
2,0,0,1,0,9748.24,0.121453,0.121165,-1.58267,8,0.0131815,11,-0.000191765,-2.80061,0.401133,0.147083,-9.06419,0.121165,
2,0,0,1,0,9748.99,0.113962,0.113636,-1.4916,8,0.012016,11,-0.000169499,-2.82635,0.237367,0.24856,-14.4978,0.1136355,
2,0,0,1,0,9749.74,0.106471,0.106199,-1.3778,8,0.0109285,11,-0.000146321,-2.86081,0.216641,0.27234,-14.6971,0.106199,
2,0,0,1,0,9750.49,0.0989799,0.0986859,-1.27061,8,0.00992658,11,-0.000125391,-2.89599,0.251216,0.234858,-11.6374,0.09868589,
2,0,0,1,0,9751.24,0.0914889,0.0911326,-1.19192,8,0.00899756,11,-0.000108623,-2.92375,0.299148,0.197227,-9.15526,0.0911326,
2,0,0,1,0,9751.99,0.083998,0.0837013,-1.13239,8,0.00812031,11,-9.47825e-05,-2.946,0.316835,0.186217,-8.21131,0.08370129,
2,0,0,1,0,9752.74,0.076507,0.0762127,-1.0849,8,0.00728062,11,-8.26834e-05,-2.96461,0.396614,0.148759,-6.30131,0.0762127,
2,0,0,1,0,9753.48,0.0690161,0.0687167,-1.0361,8,0.00647475,11,-7.11976e-05,-2.9846,0.362216,0.162886,-6.62371,0.06871669,
2,0,0,1,0,9754.23,0.0615251,0.0612292,-0.986563,8,0.00570409,11,-6.04064e-05,-3.00588,0.321319,0.183618,-7.09086,0.0612292,
2,0,0,1,0,9754.98,0.0540342,0.0537119,-0.9326,8,0.00497462,11,-5.00918e-05,-3.0303,0.29883,0.197436,-7.16673,0.0537119,
2,0,0,1,0,9755.73,0.0465441,0.046255,-0.872123,8,0.00428866,11,-4.03401e-05,-3.05942,0.287532,0.205195,-6.99528,0.046255,
2,0,0,1,0,9756.48,0.0390523,0.0387188,-0.824736,8,0.00364259,11,-3.19328e-05,-3.08368,0.281583,0.20953,-6.74446,0.0387188,
2,0,0,1,0,9757.23,0.0315618,0.0312562,-0.792854,8,0.00302765,11,-2.47816e-05,-3.10081,0.503606,0.117155,-3.62529,0.03125618,
2,0,0,1,0,9757.98,0.0240704,0.0237427,-0.769597,8,0.00243305,11,-1.82723e-05,-3.11374,1.18686,0.0497112,-1.50239,0.02374272,
2,0,0,1,0,9758.73,0.0165796,0.0162583,-0.76614,8,0.00184829,11,-1.24561e-05,-3.11569,-2.27324,-0.0259541,0.776124,0.0162583,
2,0,0,1,0,9759.48,0.00908846,0.00877509,-0.769965,8,0.00126419,11,-6.75651e-06,-3.11353,-1.36588,-0.0431956,1.29671,0.00877509,
2,0,0,1,0,9760.23,0.00159728,0.00121082,-0.790687,8,0.000672321,11,-9.57381e-07,-3.102, , , ,0.00121082,
2,0,0,1,0,9760.37,0.000199195,-0.000128724,-0.784231,8,0.000560631,11,1.00949e-07,-3.10556, , , ,-0.000128724,