File: Figure_codes/Fig_3-5/rawdata_trumpetplot_data/before 10th/20221101_1-115_002_TrumpetPlot_ParaChange_05_CV_C01_2.csv
mode,ox/red,error,control changes,counter inc.,time/s,control/V,Ewe/V,<I>/mA,cycle number,(Q-Qo)/C,I Range,P/W,log(|I|),Tafel slope mV/dec,alpha_eff,dI/d(E-IR),E-IR/V,
2,1,0,1,0,3422.14,2.44065e-05,-0.000268062,0.00545697,3,0.0000000E+000,11,-1.4628e-09,-5.26305, , , ,-0.000268062,
2,1,0,1,0,3423.6,0.0072904,0.0070231,0.21017,3,0.000296293,11,1.47605e-06,-3.67743,0.119069,0.49551,4.0199,0.0070231,
2,1,0,1,0,3425.09,0.0147815,0.0144842,0.229885,3,0.000655701,11,3.3297e-06,-3.63849,0.27633,0.213513,1.91336,0.0144842,
2,1,0,1,0,3426.59,0.0222725,0.0219676,0.243414,3,0.00103884,11,5.34724e-06,-3.61365,0.340462,0.173294,1.64186,0.02196764,
2,1,0,1,0,3428.09,0.0297635,0.0294508,0.253123,3,0.00143903,11,7.45468e-06,-3.59667,0.419639,0.140597,1.39521,0.0294508,
2,1,0,1,0,3429.59,0.0372545,0.0369821,0.263707,3,0.00185582,11,9.75245e-06,-3.57888,0.405935,0.145343,1.50906,0.0369821,
2,1,0,1,0,3431.09,0.0447456,0.0444665,0.281206,3,0.00229201,11,1.25042e-05,-3.55098,0.319805,0.184487,2.01123,0.0444665,
2,1,0,1,0,3432.59,0.0522367,0.0519234,0.299538,3,0.00275378,11,1.5553e-05,-3.52355,0.194864,0.302775,3.54139,0.05192339,
2,1,0,1,0,3434.08,0.0597277,0.0594535,0.326516,3,0.00325027,11,1.94125e-05,-3.4861,0.195147,0.302337,3.85369,0.05945351,
2,1,0,1,0,3435.58,0.0672187,0.0669293,0.359501,3,0.00379031,11,2.40611e-05,-3.4443,0.18042,0.327014,4.57094,0.0669293,
2,1,0,1,0,3437.08,0.0747092,0.074445,0.392266,3,0.00438085,11,2.92022e-05,-3.40642,0.222058,0.265697,4.09257,0.074445,
2,1,0,0,0,3438.58,0.0822001,0.0819495,0.425763,3,0.00502378,11,3.48911e-05,-3.37083,0.242119,0.243682,4.05904,0.0819495,
2,1,0,1,0,3440.08,0.0896911,0.0894094,0.459543,3,0.00571544,11,4.10875e-05,-3.33767,0.229256,0.257354,4.62319,0.0894094,
2,1,0,0,0,3441.57,0.097182,0.0968694,0.490762,3,0.00645425,11,4.75398e-05,-3.30913,0.20511,0.287651,5.49291,0.0968694,
2,1,0,1,0,3443.07,0.104673,0.104344,0.533813,3,0.00724525,11,5.57003e-05,-3.27261,0.190693,0.309398,6.41319,0.104344,
2,1,0,0,0,3444.57,0.112164,0.111872,0.592154,3,0.00811055,11,6.62455e-05,-3.22757,0.14541,0.40575,9.35963,0.111872,
2,1,0,1,0,3446.07,0.119655,0.119353,0.682476,3,0.00909006,11,8.14556e-05,-3.16591,0.117277,0.503081,13.4705,0.119353,
2,1,0,0,0,3447.57,0.127146,0.126899,0.789923,3,0.0102243,11,0.00010024,-3.10242,0.126368,0.466889,14.4516,0.126899,
2,1,0,1,0,3449.07,0.134637,0.134359,0.891185,3,0.0115198,11,0.000119739,-3.05003,0.210241,0.28063,9.76683,0.134359,
2,1,0,1,0,3450.56,0.142127,0.141828,0.93346,3,0.0129252,11,0.000132391,-3.0299,1.27772,0.046176,1.67376,0.141828,
2,1,0,1,0,3452.06,0.149618,0.149352,0.887423,3,0.0143311,11,0.000132538,-3.05187,-0.156882,-0.376079,-12.9557,0.149352,
2,1,0,1,0,3453.56,0.157109,0.156838,0.744105,3,0.0155901,11,0.000116704,-3.12837,-0.068584,-0.86026,-24.8657,0.156838,
2,1,0,1,0,3455.06,0.1646,0.164273,0.579523,3,0.0166046,11,9.51998e-05,-3.23693,-0.069494,-0.848995,-19.2061,0.164273,
2,1,0,1,0,3456.56,0.172091,0.171808,0.46297,3,0.0174065,11,7.9542e-05,-3.33445,-0.0932031,-0.633026,-11.514,0.171808,
2,1,0,1,0,3458.05,0.179582,0.179273,0.40001,3,0.0180771,11,7.17111e-05,-3.39793,-0.148338,-0.397741,-6.20872,0.179273,
2,1,0,1,0,3459.55,0.187074,0.186795,0.360284,3,0.0186712,11,6.72992e-05,-3.44336,-0.193344,-0.305156,-4.27117,0.186795,
2,1,0,1,0,3461.05,0.194564,0.194262,0.332627,3,0.0192173,11,6.46169e-05,-3.47804,-0.300642,-0.196247,-2.55599,0.194262,
2,1,0,1,0,3462.55,0.202056,0.201754,0.31581,3,0.0197312,11,6.37161e-05,-3.50057,-0.33599,-0.1756,-2.15821,0.201754,
2,1,0,1,0,3464.05,0.209547,0.209259,0.302993,3,0.020223,11,6.34039e-05,-3.51857,-0.408903,-0.144289,-1.70586,0.209259,
2,1,0,1,0,3465.55,0.217038,0.216731,0.294163,3,0.0206975,11,6.37541e-05,-3.53141,-1.10784,-0.0532569,-0.611303,0.216731,
2,1,0,1,0,3467.04,0.224529,0.224295,0.288234,3,0.02116,11,6.46494e-05,-3.54025,-0.584654,-0.100914,-1.12516,0.224295,
2,1,0,1,0,3468.54,0.232019,0.231763,0.279382,3,0.0216125,11,6.47504e-05,-3.5538,-0.791688,-0.0745243,-0.816854,0.231763,
2,1,0,0,0,3470.04,0.23951,0.239282,0.275597,3,0.0220574,11,6.59455e-05,-3.55972,-0.87834,-0.0671722,-0.721761,0.239282,
2,1,0,1,0,3471.54,0.247001,0.246702,0.271718,3,0.022496,11,6.70333e-05,-3.56588,-0.890308,-0.0662692,-0.702035,0.246702,
2,1,0,0,0,3473.04,0.254492,0.254146,0.268396,3,0.0229292,11,6.82117e-05,-3.57122,-1.13891,-0.0518037,-0.543094,0.254146,
2,1,0,1,0,3474.53,0.261983,0.261705,0.265985,3,0.0233579,11,6.96097e-05,-3.57514,8.04255,0.00733598,0.0763561,0.261705,
2,1,0,0,0,3476.03,0.269474,0.269183,0.263634,3,0.0237827,11,7.09658e-05,-3.579,10.4021,0.00567196,0.0581464,0.269183,
2,1,0,1,0,3477.53,0.276965,0.276683,0.260304,3,0.024204,11,7.20216e-05,-3.58452,-1.89745,-0.0310944,-0.317765,0.276683,
2,1,0,0,0,3479.03,0.284456,0.284178,0.259201,3,0.0246219,11,7.36592e-05,-3.58636,-1.65813,-0.0355823,-0.358663,0.284178,
2,1,0,1,0,3480.53,0.291947,0.291675,0.256403,3,0.0250367,11,7.47861e-05,-3.59108,-5.03738,-0.0117124,-0.11716,0.291675,
2,1,0,1,0,3482.03,0.299437,0.299161,0.253994,3,0.0254488,11,7.5985e-05,-3.59518,-0.00170371,-34.6303,-131.402,0.299161,
2,0,0,1,0,3483.39,0.293744,0.293401,-0.0304733,3,0.0254527,11,-8.9409e-06,-4.51608,-0.011702,-5.04189,5.33771,0.293401,
2,0,0,1,0,3484.89,0.286253,0.285947,-0.0594029,3,0.0253557,11,-1.69861e-05,-4.22619,-0.0495243,-1.19133,2.74104,0.285947,
2,0,0,0,0,3486.39,0.278763,0.27848,-0.0792336,3,0.0252239,11,-2.2065e-05,-4.10109,-0.0849734,-0.694335,2.10826,0.2784799,
2,0,0,1,0,3487.89,0.271272,0.270975,-0.0939068,3,0.0250664,11,-2.54464e-05,-4.0273,-0.110693,-0.533008,1.9389,0.270975,
2,0,0,0,0,3489.39,0.263781,0.263481,-0.106015,3,0.0248873,11,-2.7933e-05,-3.97463,-0.156953,-0.375909,1.56956,0.2634815,
2,0,0,1,0,3490.89,0.25629,0.255987,-0.119094,3,0.0246893,11,-3.04864e-05,-3.92411,-0.191493,-0.308106,1.42535,0.255987,
2,0,0,0,0,3492.38,0.248799,0.248538,-0.130457,3,0.0244738,11,-3.24237e-05,-3.88453,-0.243158,-0.24264,1.24513,0.248538,
2,0,0,1,0,3493.88,0.241308,0.241037,-0.141586,3,0.0242419,11,-3.41275e-05,-3.84898,-0.23309,-0.253121,1.40371,0.241037,
2,0,0,0,0,3495.38,0.233817,0.233524,-0.151517,3,0.0239937,11,-3.53828e-05,-3.81954,-0.215648,-0.273594,1.61435,0.233524,
2,0,0,1,0,3496.88,0.226326,0.22603,-0.162629,3,0.0237288,11,-3.67589e-05,-3.7888,-0.307402,-0.191931,1.22785,0.22603,
2,0,0,0,0,3498.38,0.218835,0.218534,-0.176601,3,0.0234466,11,-3.85933e-05,-3.75301,-0.199102,-0.29633,2.02476,0.218534,
2,0,0,1,0,3499.87,0.211344,0.211062,-0.187684,3,0.0231454,11,-3.96131e-05,-3.72657,-0.244666,-0.241145,1.77766,0.211062,
2,0,0,1,0,3501.37,0.203854,0.203533,-0.203029,3,0.0228225,11,-4.13231e-05,-3.69244,-0.24109,-0.244722,1.95751,0.203533,
2,0,0,1,0,3502.87,0.196363,0.196051,-0.224259,3,0.0224743,11,-4.39661e-05,-3.64925,-0.174372,-0.338357,2.93561,0.1960507,
2,0,0,1,0,3504.37,0.188871,0.188579,-0.247102,3,0.0220933,11,-4.65981e-05,-3.60712,-0.12777,-0.461766,4.4601,0.188579,
2,0,0,1,0,3505.87,0.181381,0.181125,-0.282618,3,0.0216689,11,-5.11893e-05,-3.5488,-0.123819,-0.4765,5.25621,0.181125,
2,0,0,1,0,3507.37,0.173889,0.1736,-0.332073,3,0.021183,11,-5.76477e-05,-3.47877,-0.0957271,-0.616336,7.98662,0.1736,
2,0,0,1,0,3508.86,0.166398,0.16612,-0.40826,3,0.0206042,11,-6.78204e-05,-3.38906,-0.0762301,-0.773972,12.4441,0.16612,
2,0,0,1,0,3510.36,0.158907,0.158648,-0.528448,3,0.0198784,11,-8.3837e-05,-3.277,-0.0608022,-0.970359,20.1343,0.158648,
2,0,0,1,0,3511.86,0.151416,0.151101,-0.69737,3,0.0189338,11,-0.000105373,-3.15654,-0.0710349,-0.830578,22.5503,0.151101,
2,0,0,1,0,3513.36,0.143925,0.14361,-0.848689,3,0.0177421,11,-0.00012188,-3.07125,-0.104975,-0.562038,18.522,0.14361,
2,0,0,1,0,3514.86,0.136434,0.136116,-0.933524,3,0.0163681,11,-0.000127068,-3.02987,-0.448525,-0.131542,4.76173,0.136116,
2,0,0,1,0,3516.36,0.128943,0.128651,-0.922908,3,0.0149411,11,-0.000118733,-3.03484,0.275774,0.213943,-7.67232,0.128651,
2,0,0,0,0,3517.85,0.121453,0.12116,-0.843873,3,0.0135851,11,-0.000102244,-3.07372,0.151131,0.390389,-12.8568,0.12116,
2,0,0,1,0,3519.35,0.113962,0.113666,-0.741223,3,0.0123681,11,-8.42521e-05,-3.13005,0.138304,0.426595,-12.4081,0.113666,
2,0,0,0,0,3520.85,0.106471,0.106184,-0.663893,3,0.0112888,11,-7.04948e-05,-3.1779,0.191698,0.307775,-8.01638,0.106184,
2,0,0,1,0,3522.35,0.0989798,0.0986827,-0.61307,3,0.0103075,11,-6.04994e-05,-3.21249,0.279664,0.210967,-5.03059,0.0986827,
2,0,0,0,0,3523.85,0.0914889,0.091158,-0.579552,3,0.00939007,11,-5.28308e-05,-3.23691,0.306535,0.192474,-4.34704,0.091158,
2,0,0,1,0,3525.34,0.083998,0.0837172,-0.548403,3,0.00851847,11,-4.59108e-05,-3.2609,0.264595,0.222982,-4.76532,0.08371719,
2,0,0,0,0,3526.84,0.076507,0.0761724,-0.520684,3,0.00768979,11,-3.96618e-05,-3.28343,0.269641,0.21881,-4.43555,0.0761724,
2,0,0,1,0,3528.34,0.069016,0.0687305,-0.485305,3,0.0069081,11,-3.33552e-05,-3.31399,0.242642,0.243157,-4.63201,0.0687305,
2,0,0,0,0,3529.84,0.0615251,0.0612493,-0.453856,3,0.00617475,11,-2.77983e-05,-3.34308,0.248895,0.237048,-4.21166,0.0612493,
2,0,0,1,0,3531.34,0.0540341,0.053731,-0.42998,3,0.00548516,11,-2.31032e-05,-3.36655,0.355393,0.166013,-2.77663,0.053731,
2,0,0,1,0,3532.84,0.0465436,0.0462621,-0.410957,3,0.0048287,11,-1.90117e-05,-3.3862,0.769831,0.0766402,-1.23268,0.0462621,
2,0,0,1,0,3534.33,0.0390526,0.0387436,-0.400505,3,0.0041935,11,-1.5517e-05,-3.39739,1.08906,0.0541751,-0.84697,0.0387436,
2,0,0,1,0,3535.83,0.0315615,0.0312413,-0.398184,3,0.00356868,11,-1.24398e-05,-3.39992,2.58993,0.0227805,-0.353524,0.0312413,
2,0,0,1,0,3537.33,0.0240706,0.02378,-0.39821,3,0.00294549,11,-9.46945e-06,-3.39989,-14.2051,-0.00415343,0.0647987,0.02378,
2,0,0,1,0,3538.83,0.0165795,0.0163008,-0.404637,3,0.00231704,11,-6.59592e-06,-3.39293,-0.865056,-0.0682037,1.07347,0.0163008,
2,0,0,1,0,3540.33,0.00908845,0.00880464,-0.413306,3,0.00167789,11,-3.63901e-06,-3.38373,-0.850803,-0.0693462,1.11884,0.00880464,
2,0,0,1,0,3541.82,0.00159739,0.00126082,-0.425793,3,0.00102178,11,-5.36847e-07,-3.3708, , , ,0.00126082,
2,0,0,0,0,3542.1,0.000199195,-0.000214617,-0.426636,3,0.000897436,11,9.15633e-08,-3.36994, , , ,-0.000214617,