File: Figure_codes/Fig_3-5/rawdata_trumpetplot_data/before 10th/20221101_1-115_002_TrumpetPlot_ParaChange_06_CV_C01_4.csv
mode,ox/red,error,control changes,counter inc.,time/s,control/V,Ewe/V,<I>/mA,cycle number,(Q-Qo)/C,I Range,P/W,log(|I|),Tafel slope mV/dec,alpha_eff,dI/d(E-IR),E-IR/V,
2,0,0,1,0,6005.5,2.44065e-05,-0.000401673,-0.562024,5,0.0000000E+000,11,2.2575e-07,-3.25025, , , ,-0.000401673,
2,1,0,1,0,6006.23,0.00729063,0.00698724,0.401186,5,0.000239576,11,2.80318e-06,-3.39665,0.106616,0.553385,8.57657,0.00698724,
2,1,0,1,0,6006.98,0.0147814,0.014503,0.445075,5,0.000569764,11,6.45493e-06,-3.35157,0.205323,0.287351,5.00534,0.014503,
2,1,0,1,0,6007.73,0.0222725,0.0219634,0.479614,5,0.000927515,11,1.05339e-05,-3.31911,0.328175,0.179782,3.35606,0.0219634,
2,1,0,1,0,6008.47,0.0297635,0.0294837,0.50298,5,0.0013057,11,1.48297e-05,-3.29845,0.334579,0.176341,3.46819,0.0294837,
2,1,0,1,0,6009.22,0.0372544,0.0369374,0.532543,5,0.00170476,11,1.96707e-05,-3.27365,0.333795,0.176755,3.69821,0.0369374,
2,1,0,1,0,6009.97,0.0447458,0.0444637,0.575808,5,0.00212944,11,2.56025e-05,-3.23972,0.233648,0.252517,5.65243,0.0444637,
2,1,0,1,0,6010.72,0.0522363,0.0519103,0.62177,5,0.00258715,11,3.22763e-05,-3.20637,0.176881,0.333558,8.09688,0.0519103,
2,1,0,1,0,6011.47,0.0597282,0.059423,0.685688,5,0.00308685,11,4.07457e-05,-3.16387,0.17942,0.328837,8.80109,0.059423,
2,1,0,1,0,6012.22,0.0672182,0.0669161,0.752436,5,0.00363526,11,5.03501e-05,-3.12353,0.197767,0.29833,8.7342,0.0669161,
2,1,0,1,0,6012.97,0.0747092,0.0744058,0.820884,5,0.00423418,11,6.10785e-05,-3.08572,0.227632,0.259191,8.29076,0.0744058,
2,1,0,1,0,6013.72,0.0822001,0.0819675,0.873595,5,0.00488078,11,7.16064e-05,-3.05869,0.297603,0.198251,6.78576,0.0819675,
2,1,0,1,0,6014.47,0.0896911,0.0894169,0.934163,5,0.00556921,11,8.353e-05,-3.02958,0.301543,0.19566,7.13941,0.0894169,
2,1,0,1,0,6015.22,0.097182,0.0968673,0.989018,5,0.00629918,11,9.58035e-05,-3.0048,0.219378,0.268942,10.3889,0.0968673,
2,1,0,1,0,6015.97,0.104673,0.104394,1.07313,5,0.00707871,11,0.000112029,-2.96935,0.193428,0.305024,12.7356,0.104394,
2,1,0,1,0,6016.71,0.112164,0.111874,1.18884,5,0.00793151,11,0.000133,-2.92488,0.15263,0.386555,17.9002,0.111874,
2,1,0,1,0,6017.46,0.119655,0.119362,1.34536,5,0.00888895,11,0.000160585,-2.87116,0.146523,0.402668,21.179,0.119362,
2,1,0,1,0,6018.21,0.127146,0.126822,1.50469,5,0.00996962,11,0.000190828,-2.82255,0.166389,0.354591,20.8836,0.126822,
2,1,0,1,0,6018.96,0.134637,0.134274,1.644,5,0.0111646,11,0.000220747,-2.7841,0.280191,0.210571,13.5191,0.134274,
2,1,0,1,0,6019.71,0.142127,0.141874,1.7061,5,0.0124363,11,0.000242052,-2.768,2.59374,0.022747,1.50613,0.141874,
2,1,0,1,0,6020.46,0.149619,0.149337,1.61079,5,0.0136994,11,0.000240551,-2.79296,-0.150915,-0.390949,-24.4597,0.149337,
2,1,0,1,0,6021.21,0.157109,0.156794,1.34888,5,0.014825,11,0.000211496,-2.87003,-0.0737282,-0.800236,-41.9498,0.156794,
2,1,0,1,0,6021.96,0.164601,0.164356,1.05512,5,0.0157314,11,0.000173415,-2.9767,-0.0699031,-0.844025,-34.759,0.164356,
2,1,0,1,0,6022.71,0.172091,0.171799,0.844107,5,0.0164469,11,0.000145016,-3.0736,-0.0968301,-0.609315,-20.2325,0.171799,
2,1,0,1,0,6023.46,0.179582,0.17933,0.726388,5,0.0170423,11,0.000130263,-3.13883,-0.136505,-0.432219,-12.3039,0.17933,
2,1,0,1,0,6024.21,0.187074,0.186786,0.657791,5,0.0175683,11,0.000122866,-3.18191,-0.227664,-0.259154,-6.62847,0.186786,
2,1,0,1,0,6024.95,0.194564,0.194252,0.613025,5,0.0180523,11,0.000119081,-3.21252,-0.273466,-0.215749,-5.16191,0.194252,
2,1,0,1,0,6025.7,0.202056,0.201777,0.581921,5,0.018509,11,0.000117418,-3.23514,-0.345915,-0.170562,-3.85836,0.201777,
2,1,0,1,0,6026.45,0.209546,0.209291,0.561994,5,0.0189471,11,0.00011762,-3.25027,-0.471278,-0.125192,-2.74619,0.209291,
2,1,0,1,0,6027.2,0.217038,0.216764,0.544284,5,0.0193708,11,0.000117981,-3.26417,-0.865137,-0.0681973,-1.44899,0.216764,
2,1,0,1,0,6027.95,0.224528,0.224228,0.5309,5,0.0197842,11,0.000119043,-3.27499,-0.836339,-0.0705456,-1.46209,0.224228,
2,1,0,1,0,6028.7,0.232019,0.231693,0.522809,5,0.0201891,11,0.000121131,-3.28166,-1.37913,-0.0427807,-0.873959,0.231693,
2,1,0,1,0,6029.45,0.23951,0.239224,0.513942,5,0.0205873,11,0.000122947,-3.28909,-0.898639,-0.0656549,-1.31596,0.2392237,
2,1,0,1,0,6030.2,0.247001,0.24676,0.507657,5,0.0209798,11,0.000125269,-3.29443,-0.72065,-0.0818705,-1.61951,0.24676,
2,1,0,1,0,6030.95,0.254492,0.254198,0.498651,5,0.0213673,11,0.000126756,-3.3022,-1.46295,-0.0403293,-0.784269,0.254198,
2,1,0,1,0,6031.7,0.261983,0.261678,0.495025,5,0.0217502,11,0.000129537,-3.30537,-0.892076,-0.0661379,-1.27807,0.2616778,
2,1,0,1,0,6032.45,0.269474,0.26923,0.489144,5,0.0221293,11,0.000131692,-3.31056,-13.5821,-0.00434395,-0.082822,0.26923,
2,1,0,1,0,6033.19,0.276965,0.276669,0.483941,5,0.0225046,11,0.000133891,-3.31521,-1.19212,-0.0494915,-0.938417,0.276669,
2,1,0,1,0,6033.94,0.284456,0.284184,0.481266,5,0.0228767,11,0.000136768,-3.31761,-9.68662,-0.00609087,-0.113889,0.284184,
2,1,0,1,0,6034.69,0.291947,0.291641,0.476177,5,0.0232452,11,0.000138872,-3.32223,-1.00811,-0.0585252,-1.08936,0.291641,
2,1,0,1,0,6035.44,0.299437,0.299108,0.470413,5,0.0236107,11,0.000140704,-3.32752,-0.00105068,-56.1543,-267.767,0.299108,
2,0,0,1,0,6036.13,0.293745,0.293433,-0.114259,5,0.0235936,11,-3.35274e-05,-3.94211,-0.026045,-2.26531,9.75904,0.293433,
2,0,0,1,0,6036.88,0.286253,0.285968,-0.161945,5,0.023478,11,-4.63111e-05,-3.79063,-0.0798552,-0.738838,4.68239,0.285968,
2,0,0,1,0,6037.63,0.278763,0.278464,-0.195716,5,0.0233329,11,-5.44999e-05,-3.70837,-0.111283,-0.530179,4.015,0.278464,
2,0,0,1,0,6038.37,0.271272,0.270993,-0.222292,5,0.0231663,11,-6.02397e-05,-3.65308,-0.153897,-0.383372,3.30692,0.270993,
2,0,0,1,0,6039.12,0.263781,0.263455,-0.240922,5,0.0229821,11,-6.3472e-05,-3.61812,-0.192781,-0.306048,2.9054,0.263455,
2,0,0,1,0,6039.87,0.25629,0.255995,-0.263328,5,0.0227822,11,-6.74108e-05,-3.5795,-0.320667,-0.183992,1.88924,0.255995,
2,0,0,1,0,6040.62,0.248799,0.248497,-0.278628,5,0.0225681,11,-6.92383e-05,-3.55497,-0.281901,-0.209294,2.2915,0.248497,
2,0,0,1,0,6041.37,0.241308,0.240983,-0.299494,5,0.0223405,11,-7.21728e-05,-3.52361,-0.362475,-0.16277,1.90224,0.240983,
2,0,0,1,0,6042.12,0.233817,0.233513,-0.316646,5,0.0220997,11,-7.39411e-05,-3.49943,-0.230938,-0.25548,3.14437,0.233513,
2,0,0,1,0,6042.87,0.226326,0.226025,-0.334782,5,0.0218455,11,-7.56691e-05,-3.47524,-0.376543,-0.156689,2.04928,0.226025,
2,0,0,1,0,6043.62,0.218835,0.218545,-0.354336,5,0.0215773,11,-7.74383e-05,-3.45058,-0.266276,-0.221575,3.06415,0.218545,
2,0,0,1,0,6044.37,0.211344,0.211035,-0.375166,5,0.0212942,11,-7.91731e-05,-3.42578,-0.312232,-0.188962,2.76284,0.211035,
2,0,0,1,0,6045.12,0.203854,0.20351,-0.398214,5,0.0209938,11,-8.10407e-05,-3.39988,-0.248644,-0.237287,3.70244,0.20351,
2,0,0,1,0,6045.87,0.196362,0.196097,-0.429644,5,0.0206738,11,-8.42519e-05,-3.36689,-0.219953,-0.268239,4.48244,0.196097,
2,0,0,1,0,6046.61,0.188872,0.188525,-0.467239,5,0.0203283,11,-8.80862e-05,-3.33046,-0.148055,-0.398501,7.25874,0.188525,
2,0,0,1,0,6047.36,0.18138,0.181069,-0.520778,5,0.0199494,11,-9.42967e-05,-3.28335,-0.139093,-0.424177,8.61039,0.181069,
2,0,0,1,0,6048.11,0.17389,0.173596,-0.599154,5,0.019523,11,-0.000104011,-3.22246,-0.105755,-0.557892,13.0099,0.173596,
2,0,0,1,0,6048.86,0.166398,0.166084,-0.713456,5,0.0190252,11,-0.000118494,-3.14663,-0.0865148,-0.681964,19.0973,0.166084,
2,0,0,1,0,6049.61,0.158907,0.158629,-0.90146,5,0.0184141,11,-0.000142998,-3.04505,-0.0662317,-0.890813,31.5337,0.158629,
2,0,0,1,0,6050.36,0.151417,0.151094,-1.17569,5,0.0176281,11,-0.00017764,-2.92971,-0.0682745,-0.864159,39.6591,0.151094,
2,0,0,1,0,6051.11,0.143925,0.143608,-1.46948,5,0.0166243,11,-0.00021103,-2.83284,-0.0888298,-0.664192,37.9087,0.143608,
2,0,0,1,0,6051.86,0.136435,0.136143,-1.67271,5,0.0154294,11,-0.000227728,-2.77658,-0.223564,-0.263906,17.1378,0.136143,
2,0,0,1,0,6052.61,0.128943,0.128641,-1.72803,5,0.0141378,11,-0.000222296,-2.76245,1.40515,0.0419884,-2.81586,0.128641,
2,0,0,1,0,6053.36,0.121453,0.121134,-1.65401,5,0.0128557,11,-0.000200356,-2.78146,0.220993,0.266976,-17.1916,0.121134,
2,0,0,1,0,6054.11,0.113962,0.113636,-1.50136,5,0.0116599,11,-0.000170608,-2.82352,0.159366,0.370217,-21.7664,0.113636,
2,0,0,1,0,6054.85,0.106471,0.106168,-1.35144,5,0.0105807,11,-0.000143479,-2.8692,0.174262,0.338571,-17.915,0.106168,
2,0,0,1,0,6055.6,0.0989799,0.0986827,-1.23562,5,0.0096048,11,-0.000121935,-2.90811,0.256688,0.229851,-11.0672,0.0986827,
2,0,0,1,0,6056.35,0.0914889,0.0911718,-1.16262,5,0.00870021,11,-0.000105999,-2.93456,0.32647,0.180721,-8.17575,0.0911718,
2,0,0,1,0,6057.1,0.083998,0.0837236,-1.10491,5,0.00784343,11,-9.2507e-05,-2.95667,0.302098,0.195301,-8.40076,0.08372356,
2,0,0,1,0,6057.85,0.076507,0.0761501,-1.05725,5,0.00702439,11,-8.05094e-05,-2.97582,0.313419,0.188246,-7.75356,0.0761501,
2,0,0,1,0,6058.6,0.0690161,0.068723,-0.995252,5,0.00624487,11,-6.83967e-05,-3.00207,0.299324,0.197111,-7.68293,0.068723,
2,0,0,1,0,6059.35,0.0615251,0.0612472,-0.935716,5,0.0055092,11,-5.731e-05,-3.02886,0.262396,0.224851,-8.24326,0.0612472,
2,0,0,1,0,6060.1,0.0540342,0.0537353,-0.874274,5,0.0048216,11,-4.69794e-05,-3.05835,0.291838,0.202167,-6.89018,0.0537353,
2,0,0,1,0,6060.85,0.0465441,0.0462018,-0.819952,5,0.00417744,11,-3.78833e-05,-3.08621,0.357018,0.165258,-5.29997,0.0462018,
2,0,0,1,0,6061.6,0.0390523,0.0387326,-0.78616,5,0.00356638,11,-3.045e-05,-3.10449,0.373656,0.157899,-4.82898,0.0387326,
2,0,0,1,0,6062.35,0.0315618,0.0312436,-0.76531,5,0.00297707,11,-2.3911e-05,-3.11616,0.91331,0.0646002,-1.927,0.0312436,
2,0,0,1,0,6063.09,0.0240704,0.0237077,-0.754569,5,0.00239828,11,-1.78891e-05,-3.1223,39.0021,0.00151274,-0.0447742,0.0237077,
2,0,0,1,0,6063.84,0.0165796,0.0162724,-0.75859,5,0.00182133,11,-1.23441e-05,-3.11999,-1.00059,-0.0589651,1.74501,0.01627242,
2,0,0,1,0,6064.59,0.00908846,0.00875918,-0.768106,5,0.00123954,11,-6.72798e-06,-3.11458,-0.806368,-0.0731676,2.19492,0.00875918,
2,0,0,1,0,6065.34,0.00159728,0.00121853,-0.794686,5,0.000646258,11,-9.68352e-07,-3.0998, , , ,0.00121853,
2,0,0,1,0,6065.48,0.000199195,-0.000187895,-0.788092,5,0.00053392,11,1.48078e-07,-3.10342, , , ,-0.000187895,