File: Figure_codes/Fig_3-5/rawdata_trumpetplot_data/before 10th/20221101_1-115_002_TrumpetPlot_ParaChange_15_CV_C01_6.csv
mode,ox/red,error,control changes,counter inc.,time/s,control/V,Ewe/V,<I>/mA,cycle number,(Q-Qo)/C,I Range,P/W,log(|I|),Tafel slope mV/dec,alpha_eff,dI/d(E-IR),E-IR/V,
2,1,0,0,0,8607.5,2.44065e-05,-0.000802507,34.6273,7,0.0000000E+000,10,-2.77886e-05,-1.46058, , , ,-0.000802507,
2,1,0,1,0,8607.51,0.0121015,0.0117919,32.6239,7,0.000487352,10,0.0003847,-1.48646,0.524664,0.112453,143.741,0.0117919,
2,1,0,1,0,8607.53,0.0249027,0.0245656,34.6442,7,0.00102621,10,0.000851055,-1.46037,0.56906,0.10368,139.856,0.0245656,
2,1,0,1,0,8607.54,0.0377094,0.037388,36.2172,7,0.00159364,10,0.00135409,-1.44109,0.752202,0.0784364,110.728,0.037388,
2,1,0,1,0,8607.56,0.0505051,0.0501744,37.5695,7,0.00218408,10,0.00188503,-1.42516,0.778855,0.0757522,111.141,0.0501744,
2,1,0,1,0,8607.58,0.0633063,0.0630064,39.0991,7,0.00279721,10,0.00246349,-1.40783,0.677231,0.0871195,133.122,0.0630064,
2,1,0,1,0,8607.59,0.0761019,0.0757069,41.0654,7,0.00343809,10,0.00310893,-1.38652,0.536529,0.109966,176.513,0.0757069,
2,1,0,1,0,8607.61,0.0889087,0.088524,43.6645,7,0.00411528,10,0.00386536,-1.35987,0.44807,0.131676,224.53,0.088524,
2,1,0,1,0,8607.62,0.101702,0.101249,46.6968,7,0.00483813,10,0.004728,-1.33071,0.418713,0.140908,257.153,0.1012489,
2,1,0,1,0,8607.64,0.114506,0.114146,50.255,7,0.00561348,10,0.00573639,-1.29882,0.402441,0.146605,287.51,0.114146,
2,1,0,1,0,8607.66,0.127301,0.126921,54.0004,7,0.00644787,10,0.0068538,-1.2676,0.410755,0.143638,302.958,0.126921,
2,1,0,1,0,8607.67,0.140105,0.139786,58.0902,7,0.00734461,10,0.0081202,-1.2359,0.397512,0.148423,336.746,0.139786,
2,1,0,1,0,8607.69,0.152904,0.152523,62.6822,7,0.00831046,10,0.00956047,-1.20286,0.380067,0.155236,379.942,0.152523,
2,1,0,1,0,8607.7,0.165705,0.165371,67.7615,7,0.0093541,10,0.0112058,-1.16902,0.384666,0.15338,405.452,0.1653706,
2,1,0,1,0,8607.72,0.178506,0.178154,72.9182,7,0.0104803,10,0.0129907,-1.13716,0.428936,0.13755,390.96,0.1781538,
2,1,0,1,0,8607.74,0.191302,0.190943,77.5359,7,0.0116858,10,0.014805,-1.1105,0.573527,0.102872,310.487,0.190943,
2,1,0,1,0,8607.75,0.204108,0.203791,80.5098,7,0.0129539,10,0.0164072,-1.09415,1.70564,0.0345912,108.056,0.203791,
2,1,0,1,0,8607.77,0.216904,0.216572,79.6854,7,0.0142422,10,0.0172577,-1.09862,-0.639978,-0.0921907,-283.902,0.216572,
2,1,0,1,0,8607.78,0.229705,0.229454,73.009,7,0.0154711,10,0.0167522,-1.13662,-0.225683,-0.261428,-737.341,0.229454,
2,1,0,1,0,8607.8,0.242501,0.242252,61.5365,7,0.0165503,10,0.0149073,-1.21087,-0.147018,-0.401311,-959.999,0.2422522,
2,1,0,1,0,8607.82,0.255308,0.255044,49.6058,7,0.017436,10,0.0126516,-1.30447,-0.137353,-0.42955,-835.223,0.255044,
2,1,0,1,0,8607.83,0.268101,0.267828,40.6261,7,0.0181522,10,0.0108808,-1.39119,-0.167901,-0.351398,-561.825,0.267828,
2,1,0,1,0,8607.85,0.280905,0.280635,35.0672,7,0.0187534,10,0.00984106,-1.4551,-0.244395,-0.241413,-332.659,0.280635,
2,1,0,1,0,8607.86,0.2937,0.293397,31.813,7,0.0192859,10,0.00933383,-1.4974,-0.37586,-0.156973,-196.057,0.293397,
2,1,0,1,0,8607.87,0.298983,0.298894,27.6769,7,0.0195696,10,0.00827244,-1.55788,0.0177125,3.33097,2648.54,0.298894,
2,1,0,1,0,8607.89,0.286187,0.285966,3.16405,7,0.0197839,10,0.000904812,-2.49976,0.0212883,2.77148,1216.12,0.2859664,
2,0,0,1,0,8607.91,0.273386,0.273133,-7.38426,7,0.0197384,10,-0.00201689,-2.13169,-0.0243776,-2.42026,571.158,0.273133,
2,0,0,1,0,8607.92,0.260585,0.260323,-12.6029,7,0.0195736,10,-0.00328081,-1.89953,-0.0940212,-0.627518,299.615,0.260323,
2,0,0,1,0,8607.94,0.247783,0.247546,-15.5683,7,0.0193459,10,-0.00385386,-1.80776,-0.191168,-0.308628,185.674,0.247546,
2,0,0,1,0,8607.95,0.234982,0.234676,-17.5461,7,0.01908,10,-0.00411765,-1.75582,-0.303626,-0.194318,132.479,0.2346756,
2,0,0,1,0,8607.97,0.222187,0.221867,-19.0763,7,0.0187865,10,-0.00423239,-1.71951,-0.380688,-0.154982,115.278,0.221867,
2,0,0,1,0,8607.99,0.20938,0.2091,-20.4943,7,0.0184696,10,-0.00428536,-1.68837,-0.432168,-0.136521,109.233,0.2091,
2,0,0,1,0,8608,0.196587,0.196345,-21.9461,7,0.0181299,10,-0.00430902,-1.65864,-0.41793,-0.141172,121.048,0.196345,
2,0,0,1,0,8608.02,0.183783,0.183503,-23.654,7,0.0177654,10,-0.00434057,-1.6261,-0.365359,-0.161485,149.321,0.1835025,
2,0,0,1,0,8608.03,0.170987,0.170715,-25.843,7,0.0173701,10,-0.00441179,-1.58766,-0.295276,-0.199813,202.263,0.170715,
2,0,0,1,0,8608.05,0.158183,0.157915,-28.9215,7,0.016933,10,-0.00456713,-1.53878,-0.233326,-0.252865,286.713,0.157915,
2,0,0,1,0,8608.07,0.145385,0.14509,-33.2791,7,0.0164367,10,-0.00482848,-1.47783,-0.190944,-0.308991,403.102,0.14509,
2,0,0,1,0,8608.08,0.132584,0.132375,-39.1872,7,0.0158582,10,-0.00518741,-1.40686,-0.173702,-0.339662,521.031,0.132375,
2,0,0,1,0,8608.1,0.119782,0.119564,-46.5253,7,0.0151729,10,-0.00556276,-1.33231,-0.178703,-0.330158,598.74,0.119564,
2,0,0,1,0,8608.11,0.106987,0.106834,-54.1531,7,0.0143662,10,-0.00578539,-1.26638,-0.208173,-0.283419,598.517,0.106834,
2,0,0,1,0,8608.13,0.0941801,0.0940424,-61.6126,7,0.0134379,10,-0.00579419,-1.21033,-0.262049,-0.225148,539.411,0.0940424,
2,0,0,1,0,8608.15,0.0813844,0.0812083,-67.9412,7,0.0123993,10,-0.00551738,-1.16787,-0.352385,-0.16743,442.539,0.0812083,
2,0,0,1,0,8608.16,0.0685832,0.0683381,-72.7738,7,0.0112703,10,-0.00497322,-1.13803,-0.568006,-0.103872,293.857,0.0683381,
2,0,0,1,0,8608.18,0.0557876,0.0555146,-75.4064,7,0.0100814,10,-0.00418616,-1.12259,-1.56942,-0.0375934,110.174,0.0555146,
2,0,0,1,0,8608.19,0.0429808,0.0426508,-75.6136,7,0.00887014,10,-0.00322498,-1.1214,2.54958,0.0231411,-68.0661,0.0426508,
2,0,0,1,0,8608.21,0.030188,0.0298814,-73.9212,7,0.00767222,10,-0.00220887,-1.13123,0.985727,0.0598543,-172.447,0.0298814,
2,0,0,1,0,8608.23,0.017384,0.0171056,-71.3853,7,0.00650918,10,-0.00122109,-1.14639,0.756273,0.0780142,-217.159,0.0171056,
2,0,0,1,0,8608.24,0.00458834,0.00431926,-68.3016,7,0.00539095,10,-0.000295012,-1.16557,0.591891,0.0996805,-265.408,0.00431926,
2,0,0,1,0,8608.26,-0.00821564,-0.00855938,-64.4224,7,0.00432762,10,0.000551416,-1.19096,0.422919,0.139507,-349.924,-0.00855938,
2,0,0,1,0,8608.27,-0.0210196,-0.0213935,-59.5833,7,0.00333543,10,0.00127469,-1.22488,0.359006,0.164343,-382.08,-0.0213935,
2,0,0,1,0,8608.29,-0.0338153,-0.0341767,-55.0056,7,0.00242048,10,0.00187991,-1.25959,0.411786,0.143278,-308.448,-0.0341767,
2,0,0,1,0,8608.31,-0.0466193,-0.0469663,-51.7994,7,0.00156829,10,0.00243282,-1.28568,0.621788,0.0948876,-192.481,-0.0469663,
2,0,0,1,0,8608.32,-0.0594121,-0.0597325,-50.0267,7,0.000755406,10,0.00298822,-1.3008,1.28623,0.0458704,-89.8265,-0.0597325,
2,0,0,1,0,8608.34,-0.0722189,-0.0725475,-49.3969,7,-3.87713e-05,10,0.00358362,-1.3063,6.26352,0.00941962,-18.1924,-0.0725475,
2,0,0,1,0,8608.35,-0.0850146,-0.0853837,-49.5255,7,-0.000829266,10,0.00422867,-1.30517,-3.28781,-0.0179451,34.7326,-0.0853837,
2,0,0,1,0,8608.37,-0.0978158,-0.0981542,-50.2182,7,-0.00162679,10,0.00492913,-1.29914,-1.56674,-0.0376579,73.9068,-0.0981542,
2,0,0,1,0,8608.39,-0.110611,-0.110969,-51.346,7,-0.00243918,10,0.00569783,-1.28949,-1.15251,-0.0511927,102.726,-0.110969,
2,0,0,1,0,8608.4,-0.123418,-0.123738,-52.8672,7,-0.00327281,10,0.00654167,-1.27681,-0.936693,-0.0629875,130.052,-0.1237376,
2,0,0,1,0,8608.42,-0.136214,-0.136549,-54.6853,7,-0.00413302,10,0.00746724,-1.26213,-0.836477,-0.0705339,150.564,-0.136549,
2,0,0,1,0,8608.43,-0.149015,-0.149329,-56.7084,7,-0.00502417,10,0.00846823,-1.24635,-0.790917,-0.0745969,165.116,-0.149329,
2,0,0,1,0,8608.45,-0.161816,-0.162128,-58.8762,7,-0.00594906,10,0.00954545,-1.23006,-0.780443,-0.0755981,173.727,-0.162128,
2,0,0,1,0,8608.47,-0.174615,-0.174901,-61.1097,7,-0.00690929,10,0.0106882,-1.21389,-0.796943,-0.0740329,176.61,-0.174901,
2,0,0,1,0,8608.48,-0.187419,-0.187731,-63.4258,7,-0.0079058,10,0.011907,-1.19773,-0.796311,-0.0740916,183.41,-0.187731,
2,0,0,1,0,8608.5,-0.199647,-0.19996,-65.7218,7,-0.00889394,10,0.0131417,-1.18229,0.376164,0.156846,-389.03,-0.19996,
2,0,0,1,1,8608.51,-0.192535,-0.192942,-47.1882,7,-0.00946278,10,0.00910459,-1.32617,-0.0518158,-1.13865,2113.32,-0.192942,
2,0,0,1,1,8608.52,-0.179739,-0.180202,-25.1154,7,-0.0100289,10,0.00452585,-1.60006,-0.0386916,-1.52488,1466.33,-0.180202,
2,0,0,1,1,8608.54,-0.166932,-0.167317,-8.82388,7,-0.0102931,10,0.00147639,-2.05434,-0.0142826,-4.13089,1122.86,-0.167317,
2,1,0,1,1,8608.56,-0.154139,-0.154608,3.83842,7,-0.0103277,10,-0.000593451,-2.41585,0.0198409,2.97366,886.759,-0.154608,
2,1,0,1,1,8608.57,-0.141335,-0.141876,14.011,7,-0.0101809,10,-0.00198782,-1.85353,0.0425371,1.38703,719.203,-0.141876,
2,1,0,1,1,8608.59,-0.12854,-0.128989,22.3891,7,-0.00988646,10,-0.00288795,-1.64996,0.0865924,0.681353,584.055,-0.128989,
2,1,0,1,1,8608.6,-0.115736,-0.116138,29.1056,7,-0.00947186,10,-0.00338026,-1.53602,0.14131,0.417521,469.772,-0.116138,
2,1,0,1,1,8608.62,-0.102932,-0.10334,34.4775,7,-0.0089611,10,-0.00356289,-1.46246,0.210877,0.279784,374.366,-0.10334,
2,1,0,1,1,8608.64,-0.0901361,-0.0905172,38.7473,7,-0.00837348,10,-0.0035073,-1.41176,0.299595,0.196932,296.742,-0.0905172,
2,1,0,1,1,8608.65,-0.0773322,-0.0777308,42.1077,7,-0.00772518,10,-0.00327307,-1.37564,0.420567,0.140287,229.931,-0.0777308,
2,1,0,1,1,8608.67,-0.0645393,-0.0649338,44.7073,7,-0.0070295,10,-0.00290302,-1.34962,0.578155,0.102049,177.684,-0.0649338,
2,1,0,1,1,8608.68,-0.0517325,-0.0520944,46.6911,7,-0.00629739,10,-0.00243234,-1.33077,0.804646,0.0733242,133.375,-0.0520944,
2,1,0,1,1,8608.7,-0.0389369,-0.0392995,48.1136,7,-0.00553813,10,-0.00189084,-1.31773,1.19709,0.0492863,92.4359,-0.0392995,
2,1,0,1,1,8608.72,-0.0261357,-0.0264781,49.0612,7,-0.00475994,10,-0.00129905,-1.30926,2.03662,0.0289695,55.4058,-0.0264781,
2,1,0,1,1,8608.73,-0.01334,-0.0137267,49.5361,7,-0.00397046,10,-0.00067997,-1.30508,5.71006,0.0103326,19.956,-0.0137267,
2,1,0,1,1,8608.75,-0.000774628,-0.00117471,49.6051,7,-0.00319164,10,-5.82716e-05,-1.30447, , , ,-0.00117471,
2,1,0,0,1,8608.75,-0.000125413,-0.000478022,49.6256,7,-0.00315195,10,-2.37221e-05,-1.30429, , , ,-0.000478022,