File: Figure_codes/Fig_3-5/rawdata_trumpetplot_data/before 10th/20221101_1-115_002_TrumpetPlot_ParaChange_07_CV_C01_0.csv
mode,ox/red,error,control changes,counter inc.,time/s,control/V,Ewe/V,<I>/mA,cycle number,(Q-Qo)/C,I Range,P/W,log(|I|),Tafel slope mV/dec,alpha_eff,dI/d(E-IR),E-IR/V,
2,0,0,1,0,1139.09,2.44065e-05,-0.000248974,-1.13351,1,0.0000000E+000,11,2.82216e-07,-2.94557, , , ,-0.000248974,
2,1,0,1,0,1139.45,0.00729063,0.00701806,0.840662,1,0.000242218,11,5.89981e-06,-3.07538,0.163174,0.361577,11.8271,0.00701806,
2,1,0,1,0,1139.83,0.0147802,0.014498,0.906791,1,0.000573564,11,1.31467e-05,-3.04249,0.302304,0.195168,6.88842,0.014498,
2,1,0,1,0,1140.2,0.0222725,0.0219953,0.944804,1,0.000923344,11,2.07813e-05,-3.02466,0.521069,0.113229,4.16507,0.0219953,
2,1,0,1,0,1140.58,0.0297644,0.0293897,0.970523,1,0.00128449,11,2.85234e-05,-3.01299,0.736835,0.0800722,3.02693,0.0293897,
2,1,0,1,0,1140.95,0.0372544,0.0369748,0.992551,1,0.00165525,11,3.66993e-05,-3.00325,0.738046,0.0799408,3.11071,0.0369748,
2,1,0,1,0,1141.32,0.0447449,0.0444488,1.02666,1,0.00203677,11,4.56337e-05,-2.98857,0.400743,0.147226,5.90382,0.0444488,
2,1,0,1,0,1141.7,0.0522363,0.0519226,1.07129,1,0.00243248,11,5.5624e-05,-2.97009,0.295694,0.199531,8.33916,0.0519226,
2,1,0,1,0,1142.07,0.0597291,0.0594484,1.13668,1,0.00284789,11,6.75739e-05,-2.94436,0.255515,0.230906,10.2182,0.0594484,
2,1,0,1,0,1142.45,0.0672182,0.0669616,1.21941,1,0.00329015,11,8.16533e-05,-2.91385,0.234434,0.25167,11.9342,0.0669616,
2,1,0,1,0,1142.82,0.0747092,0.0744175,1.32187,1,0.00376732,11,9.83706e-05,-2.87881,0.219973,0.268215,13.8222,0.0744175,
2,1,0,1,0,1143.2,0.0822001,0.0819527,1.43139,1,0.00428627,11,0.000117306,-2.84424,0.208671,0.282742,15.8739,0.0819527,
2,1,0,1,0,1143.57,0.0896911,0.0893884,1.56234,1,0.00485029,11,0.000139655,-2.80623,0.200698,0.293974,17.9532,0.0893884,
2,1,0,1,0,1143.95,0.097182,0.0968789,1.68895,1,0.00546278,11,0.000163624,-2.77238,0.185609,0.317873,20.9634,0.0968789,
2,1,0,1,0,1144.32,0.104673,0.104422,1.85475,1,0.00612781,11,0.000193676,-2.73172,0.177741,0.331944,23.988,0.104422,
2,1,0,1,0,1144.7,0.112164,0.111889,2.06933,1,0.00686155,11,0.000231534,-2.68417,0.136436,0.432436,34.8949,0.111889,
2,1,0,1,0,1145.07,0.119655,0.119405,2.40488,1,0.0076972,11,0.000287155,-2.61891,0.108352,0.544523,51.1642,0.119405,
2,1,0,1,0,1145.44,0.127146,0.12684,2.85733,1,0.00868342,11,0.000362422,-2.54404,0.0998881,0.590661,65.9962,0.12684,
2,1,0,1,0,1145.82,0.134637,0.134337,3.35542,1,0.00985335,11,0.000450756,-2.47425,0.131939,0.447175,58.5765,0.134337,
2,1,0,1,0,1146.19,0.142128,0.14185,3.68448,1,0.0111833,11,0.000522643,-2.43362,0.291097,0.202682,29.06,0.14185,
2,1,0,1,0,1146.57,0.149619,0.149363,3.70636,1,0.0125818,11,0.000553591,-2.43105,-0.366424,-0.161016,-23.1746,0.149363,
2,1,0,1,0,1146.94,0.157108,0.156809,3.30373,1,0.0139105,11,0.000518055,-2.48099,-0.090731,-0.650274,-83.3563,0.156809,
2,1,0,1,0,1147.32,0.164601,0.16437,2.58103,1,0.0150182,11,0.000424243,-2.58821,-0.060497,-0.975254,-98.2312,0.16437,
2,1,0,1,0,1147.69,0.172092,0.171812,1.96894,1,0.0158656,11,0.000338289,-2.70577,-0.0734459,-0.803312,-62.2003,0.171812,
2,1,0,1,0,1148.07,0.179582,0.179313,1.6171,1,0.0165351,11,0.000289966,-2.79126,-0.102854,-0.573627,-36.3488,0.179313,
2,1,0,1,0,1148.44,0.187073,0.186822,1.4022,1,0.0171002,11,0.000261962,-2.85319,-0.156132,-0.377885,-20.7035,0.186822,
2,1,0,1,0,1148.82,0.194564,0.194305,1.2673,1,0.0176009,11,0.000246242,-2.89712,-0.187939,-0.313931,-15.5215,0.194305,
2,1,0,1,0,1149.19,0.202057,0.201822,1.17437,1,0.0180597,11,0.000237013,-2.9302,-0.252646,-0.233528,-10.6921,0.201822,
2,1,0,1,0,1149.56,0.209546,0.209295,1.11176,1,0.0184902,11,0.000232685,-2.95399,-0.284396,-0.207457,-9.0033,0.209295,
2,1,0,1,0,1149.94,0.217037,0.216762,1.0658,1,0.0188998,11,0.000231024,-2.97232,-0.481997,-0.122407,-5.10186,0.216762,
2,1,0,1,0,1150.31,0.224528,0.224295,1.03097,1,0.0192949,11,0.000231241,-2.98675,-0.583605,-0.101096,-4.06948,0.224295,
2,1,0,1,0,1150.69,0.232019,0.231745,1.00325,1,0.0196784,11,0.000232497,-2.99859,-0.669908,-0.0880718,-3.45357,0.231745,
2,1,0,1,0,1151.06,0.23951,0.239284,0.982591,1,0.020053,11,0.000235119,-3.00763,-1.17837,-0.0500691,-1.91764,0.239284,
2,1,0,1,0,1151.44,0.247001,0.246725,0.965988,1,0.0204201,11,0.000238333,-3.01503,-0.843325,-0.0699612,-2.6299,0.246725,
2,1,0,1,0,1151.81,0.254492,0.254228,0.945927,1,0.0207809,11,0.000240481,-3.02414,-1.26326,-0.0467046,-1.73074,0.254228,
2,1,0,1,0,1152.19,0.261983,0.261709,0.936214,1,0.0211362,11,0.000245015,-3.02863,-1.48082,-0.0398429,-1.45356,0.261709,
2,1,0,1,0,1152.56,0.269474,0.269202,0.922649,1,0.0214867,11,0.000248378,-3.03496,-5.79993,-0.0101725,-0.36649,0.269202,
2,1,0,1,0,1152.94,0.276965,0.276716,0.909697,1,0.0218327,11,0.000251728,-3.0411,-1.49329,-0.03951,-1.40713,0.276716,
2,1,0,1,0,1153.31,0.284456,0.284238,0.898602,1,0.0221746,11,0.000255417,-3.04643,-2.62351,-0.022489,-0.789338,0.284238,
2,1,0,1,0,1153.68,0.291947,0.291678,0.889387,1,0.0225124,11,0.000259414,-3.05091,-1.29458,-0.0455745,-1.5836,0.291678,
2,1,0,1,0,1154.06,0.299436,0.299171,0.876425,1,0.0228467,11,0.000262201,-3.05729,-0.00194667,-30.3082,-556.22,0.299171,
2,0,0,1,0,1154.4,0.293745,0.293406,-0.281112,1,0.0228142,11,-8.24801e-05,-3.55112,-0.0401443,-1.4697,15.7261,0.293406,
2,0,0,1,0,1154.78,0.286254,0.285944,-0.366592,1,0.022688,11,-0.000104825,-3.43582,-0.0994644,-0.593177,8.54473,0.285944,
2,0,0,1,0,1155.15,0.278763,0.278464,-0.427984,1,0.0225353,11,-0.000119178,-3.36857,-0.143621,-0.410803,6.87315,0.278464,
2,0,0,1,0,1155.53,0.271272,0.27096,-0.47422,1,0.0223633,11,-0.000128495,-3.32402,-0.214912,-0.274531,5.08801,0.27096,
2,0,0,1,0,1155.9,0.263781,0.263473,-0.514577,1,0.022175,11,-0.000135577,-3.28855,-0.23027,-0.256221,5.15907,0.263473,
2,0,0,1,0,1156.27,0.25629,0.255993,-0.554356,1,0.0219726,11,-0.000141911,-3.25621,-0.280367,-0.210438,4.50657,0.255993,
2,0,0,1,0,1156.65,0.248799,0.248489,-0.584502,1,0.021757,11,-0.000145243,-3.23321,-0.317306,-0.185941,4.25524,0.248489,
2,0,0,1,0,1157.02,0.241308,0.241048,-0.617648,1,0.0215287,11,-0.000148883,-3.20926,-0.336952,-0.175099,4.23411,0.241048,
2,0,0,1,0,1157.4,0.233817,0.233521,-0.65436,1,0.0212874,11,-0.000152807,-3.18418,-0.288315,-0.204637,5.22458,0.233521,
2,0,0,1,0,1157.77,0.226326,0.226015,-0.69153,1,0.0210327,11,-0.000156296,-3.16019,-0.331456,-0.178002,4.81731,0.226015,
2,0,0,1,0,1158.15,0.218835,0.218548,-0.735721,1,0.0207632,11,-0.000160791,-3.13329,-0.301434,-0.195731,5.59586,0.218548,
2,0,0,1,0,1158.52,0.211344,0.211063,-0.78019,1,0.0204771,11,-0.00016467,-3.1078,-0.27141,-0.217383,6.63459,0.2110634,
2,0,0,1,0,1158.9,0.203855,0.203535,-0.840908,1,0.0201707,11,-0.000171154,-3.07525,-0.233564,-0.252607,8.32456,0.203535,
2,0,0,1,0,1159.27,0.196362,0.19605,-0.916189,1,0.0198398,11,-0.000179619,-3.03802,-0.188084,-0.313689,11.2263,0.19605,
2,0,0,1,0,1159.65,0.188871,0.188507,-1.01389,1,0.0194756,11,-0.000191126,-2.99401,-0.127277,-0.463558,18.4029,0.188507,
2,0,0,1,0,1160.02,0.18138,0.181087,-1.15982,1,0.019067,11,-0.000210028,-2.93561,-0.119642,-0.49314,22.2958,0.181087,
2,0,0,1,0,1160.39,0.173891,0.173613,-1.36626,1,0.0185947,11,-0.000237201,-2.86447,-0.0932535,-0.632684,33.752,0.173613,
2,0,0,1,0,1160.77,0.166398,0.166089,-1.67158,1,0.018027,11,-0.000277632,-2.77687,-0.0768831,-0.767399,50.3773,0.166089,
2,0,0,1,0,1161.14,0.158906,0.158637,-2.14472,1,0.0173134,11,-0.000340231,-2.66863,-0.0672088,-0.877861,73.6542,0.158637,
2,0,0,1,0,1161.52,0.151417,0.151084,-2.7581,1,0.0163934,11,-0.000416705,-2.55939,-0.0773533,-0.762734,82.0619,0.151084,
2,0,0,1,0,1161.89,0.143926,0.143631,-3.33086,1,0.0152449,11,-0.000478415,-2.47744,-0.110935,-0.531841,68.9816,0.143631,
2,0,0,1,0,1162.27,0.136435,0.136148,-3.67397,1,0.0139194,11,-0.000500204,-2.43486,-0.341876,-0.172577,24.6314,0.136148,
2,0,0,1,0,1162.64,0.128942,0.128613,-3.66683,1,0.0125305,11,-0.000471602,-2.43571,0.305696,0.193002,-27.4791,0.128613,
2,0,0,1,0,1163.02,0.121453,0.121105,-3.28769,1,0.0112168,11,-0.000398156,-2.48311,0.108991,0.541328,-69.2637,0.121105,
2,0,0,1,0,1163.39,0.113962,0.113671,-2.77072,1,0.0100803,11,-0.00031495,-2.55741,0.100603,0.586462,-63.5934,0.1136707,
2,0,0,1,0,1163.77,0.106471,0.106137,-2.38478,1,0.00911646,11,-0.000253114,-2.62255,0.136551,0.432073,-40.3731,0.106137,
2,0,0,1,0,1164.14,0.0989799,0.0986629,-2.14731,1,0.00826844,11,-0.00021186,-2.6681,0.213,0.276995,-23.1957,0.0986629,
2,0,0,1,0,1164.51,0.0914889,0.0911667,-1.99748,1,0.00749307,11,-0.000182104,-2.69952,0.264377,0.223166,-17.3248,0.0911667,
2,0,0,1,0,1164.89,0.083998,0.0837322,-1.86084,1,0.00676956,11,-0.000155812,-2.73029,0.23179,0.254541,-18.4777,0.08373215,
2,0,0,1,0,1165.26,0.076507,0.0761691,-1.74527,1,0.00609132,11,-0.000132936,-2.75814,0.252745,0.233437,-15.8946,0.0761691,
2,0,0,1,0,1165.64,0.0690161,0.0686829,-1.62676,1,0.00545685,11,-0.00011173,-2.78868,0.264992,0.222648,-14.2052,0.0686829,
2,0,0,1,0,1166.01,0.0615251,0.0612304,-1.53599,1,0.00486096,11,-9.40492e-05,-2.81361,0.33039,0.178577,-10.7341,0.0612304,
2,0,0,1,0,1166.39,0.0540342,0.0537015,-1.46893,1,0.00429636,11,-7.8884e-05,-2.833,0.481454,0.122545,-7.01097,0.0537015,
2,0,0,1,0,1166.76,0.0465432,0.046231,-1.42318,1,0.00375292,11,-6.57951e-05,-2.84674,0.76568,0.0770557,-4.29141,0.046231,
2,0,0,1,0,1167.14,0.0390523,0.0387504,-1.40099,1,0.00322212,11,-5.4289e-05,-2.85356,0.736343,0.0801257,-4.3688,0.0387504,
2,0,0,1,0,1167.51,0.0315626,0.0312452,-1.39801,1,0.00269671,11,-4.3681e-05,-2.85449,-8.74609,-0.00674587,0.366925,0.0312452,
2,0,0,1,0,1167.89,0.0240704,0.0237855,-1.39968,1,0.0021708,11,-3.32922e-05,-2.85397,-2.80755,-0.0210147,1.15112,0.0237855,
2,0,0,1,0,1168.26,0.0165785,0.0162781,-1.42126,1,0.00163992,11,-2.31355e-05,-2.84732,-0.664566,-0.0887797,4.93438,0.0162781,
2,0,0,1,0,1168.63,0.00908846,0.00882375,-1.44689,1,0.00110017,11,-1.2767e-05,-2.83957,-0.671049,-0.087922,4.96617,0.00882375,
2,0,0,1,0,1169.01,0.0015984,0.00123967,-1.50859,1,0.00054715,11,-1.87015e-06,-2.82143, , , ,0.00123967,
2,0,0,1,0,1169.08,0.000199195,-0.00013599,-1.4849,1,0.000441958,11,2.01932e-07,-2.8283, , , ,-0.00013599,