File: Figure_codes/Fig_3-5/rawdata_trumpetplot_data/before 10th/20221101_1-115_002_TrumpetPlot_ParaChange_07_CV_C01_5.csv
mode,ox/red,error,control changes,counter inc.,time/s,control/V,Ewe/V,<I>/mA,cycle number,(Q-Qo)/C,I Range,P/W,log(|I|),Tafel slope mV/dec,alpha_eff,dI/d(E-IR),E-IR/V,
2,0,0,0,0,7297.23,2.44065e-05,-0.000306236,-1.21098,6,0.0000000E+000,11,3.70847e-07,-2.91686, , , ,-0.000306236,
2,1,0,1,0,7297.59,0.00729063,0.00702355,0.816076,6,0.000217713,11,5.73175e-06,-3.08827,0.116993,0.504304,15.969,0.00702355,
2,1,0,1,0,7297.97,0.0147802,0.0144761,0.89972,6,0.000543431,11,1.30245e-05,-3.04589,0.218157,0.270448,9.46853,0.0144761,
2,1,0,1,0,7298.34,0.0222725,0.0219836,0.95608,6,0.000894023,11,2.10181e-05,-3.01951,0.307618,0.191796,7.15356,0.0219836,
2,1,0,1,0,7298.72,0.0297644,0.0294823,1.00845,6,0.00126451,11,2.97314e-05,-2.99635,0.324726,0.181692,7.14455,0.0294823,
2,1,0,1,0,7299.09,0.0372544,0.0369228,1.06966,6,0.00165624,11,3.94947e-05,-2.97076,0.300753,0.196174,8.20403,0.0369228,
2,1,0,1,0,7299.47,0.0447449,0.044473,1.15194,6,0.00207442,11,5.12304e-05,-2.93857,0.203218,0.290328,13.0699,0.044473,
2,1,0,1,0,7299.84,0.0522363,0.0519253,1.25056,6,0.00252669,11,6.49355e-05,-2.9029,0.174147,0.338795,16.5711,0.0519253,
2,1,0,1,0,7300.22,0.0597291,0.0594135,1.37144,6,0.00302095,11,8.14822e-05,-2.86282,0.186283,0.316722,16.9523,0.0594135,
2,1,0,1,0,7300.59,0.0672182,0.0669648,1.50156,6,0.00356164,11,0.000100551,-2.82346,0.192976,0.305737,17.8675,0.0669648,
2,1,0,1,0,7300.96,0.0747092,0.0744025,1.62232,6,0.00414949,11,0.000120705,-2.78986,0.257217,0.229378,14.5119,0.0744025,
2,1,0,1,0,7301.34,0.0822001,0.0819239,1.72594,6,0.00478054,11,0.000141396,-2.76297,0.317521,0.185814,12.5409,0.0819239,
2,1,0,1,0,7301.71,0.0896911,0.0894054,1.82729,6,0.00544937,11,0.000163369,-2.73819,0.309359,0.190717,13.6113,0.0894054,
2,1,0,1,0,7302.09,0.097182,0.0968716,1.93295,6,0.00615662,11,0.000187248,-2.71378,0.245982,0.239854,18.1059,0.0968716,
2,1,0,1,0,7302.46,0.104673,0.104397,2.08921,6,0.00691003,11,0.000218107,-2.68002,0.193444,0.304999,24.8274,0.104397,
2,1,0,1,0,7302.84,0.112164,0.111869,2.30515,6,0.00773281,11,0.000257875,-2.6373,0.158874,0.371363,33.3844,0.111869,
2,1,0,1,0,7303.21,0.119655,0.11938,2.58305,6,0.00864984,11,0.000308363,-2.58787,0.166733,0.353859,35.6594,0.11938,
2,1,0,1,0,7303.59,0.127146,0.126862,2.84861,6,0.00967154,11,0.00036138,-2.54537,0.197303,0.299033,33.2651,0.126862,
2,1,0,1,0,7303.96,0.134637,0.134334,3.07379,6,0.0107868,11,0.000412915,-2.51233,0.295281,0.19981,23.9761,0.134334,
2,1,0,1,0,7304.34,0.142128,0.14183,3.18419,6,0.0119677,11,0.000451615,-2.497,1.63409,0.0361056,4.47324,0.14183,
2,1,0,1,0,7304.71,0.149619,0.149329,3.04803,6,0.0131479,11,0.000455158,-2.51598,-0.169692,-0.347689,-41.1252,0.149329,
2,1,0,1,0,7305.08,0.157108,0.156808,2.57361,6,0.0142112,11,0.000403563,-2.58946,-0.0753503,-0.783009,-78.3343,0.156808,
2,1,0,1,0,7305.46,0.164601,0.164302,2.01196,6,0.0150687,11,0.000330569,-2.69638,-0.0696665,-0.846892,-66.4828,0.164302,
2,1,0,1,0,7305.83,0.172092,0.171832,1.60298,6,0.0157435,11,0.000275442,-2.79507,-0.0885926,-0.66597,-42.0116,0.171832,
2,1,0,1,0,7306.21,0.179582,0.179329,1.36952,6,0.0163002,11,0.000245595,-2.86343,-0.129671,-0.454996,-24.4052,0.179329,
2,1,0,1,0,7306.58,0.187073,0.1868,1.22859,6,0.0167869,11,0.0002295,-2.91059,-0.214606,-0.274923,-13.173,0.1868,
2,1,0,1,0,7306.96,0.194564,0.194285,1.14228,6,0.0172321,11,0.000221928,-2.94223,-0.284755,-0.207195,-9.23248,0.194285,
2,1,0,1,0,7307.33,0.202057,0.20177,1.08265,6,0.0176509,11,0.000218445,-2.96551,-0.376206,-0.156829,-6.6148,0.20177,
2,1,0,1,0,7307.71,0.209546,0.209256,1.04481,6,0.018052,11,0.000218633,-2.98096,-0.401338,-0.147008,-5.99602,0.209256,
2,1,0,1,0,7308.08,0.217037,0.216738,1.01198,6,0.0184397,11,0.000219334,-2.99483,-0.833772,-0.0707628,-2.80732,0.2167381,
2,1,0,1,0,7308.46,0.224528,0.224284,0.99044,6,0.0188181,11,0.00022214,-3.00417,-0.760682,-0.077562,-2.99949,0.224284,
2,1,0,1,0,7308.83,0.232019,0.231717,0.97337,6,0.0191886,11,0.000225546,-3.01172,-1.26694,-0.0465689,-1.76719,0.231717,
2,1,0,1,0,7309.2,0.23951,0.239242,0.956137,6,0.0195529,11,0.000228748,-3.01948,-1.16942,-0.0504525,-1.88427,0.239242,
2,1,0,1,0,7309.58,0.247001,0.246719,0.946173,6,0.0199117,11,0.000233439,-3.02403,-0.663241,-0.0889571,-3.27695,0.246719,
2,1,0,1,0,7309.95,0.254492,0.254231,0.929485,6,0.0202658,11,0.000236304,-3.03176,-1.41872,-0.0415867,-1.51344,0.254231,
2,1,0,1,0,7310.33,0.261983,0.261714,0.921952,6,0.0206154,11,0.000241288,-3.03529,-1.14864,-0.051365,-1.8445,0.2617138,
2,1,0,1,0,7310.7,0.269474,0.26921,0.910335,6,0.0209613,11,0.000245071,-3.0408,-4.65561,-0.0126729,-0.449897,0.26921,
2,1,0,1,0,7311.08,0.276965,0.276714,0.900964,6,0.0213035,11,0.00024931,-3.04529,-1.25417,-0.047043,-1.65736,0.276714,
2,1,0,1,0,7311.45,0.284456,0.28417,0.892088,6,0.0216422,11,0.000253505,-3.04959,-1.89136,-0.0311945,-1.08304,0.28417,
2,1,0,1,0,7311.83,0.291947,0.291651,0.882174,6,0.0219773,11,0.000257287,-3.05445,-1.06717,-0.0552862,-1.90678,0.291651,
2,1,0,1,0,7312.2,0.299436,0.299142,0.871414,6,0.0223092,11,0.000260677,-3.05978,-0.00128975,-45.7454,-519.7,0.299142,
2,0,0,1,0,7312.54,0.293745,0.293446,-0.274121,6,0.0222832,11,-8.04397e-05,-3.56206,-0.0375372,-1.57177,16.5154,0.293446,
2,0,0,1,0,7312.92,0.286254,0.285959,-0.359708,6,0.0221595,11,-0.000102862,-3.44405,-0.0906434,-0.650902,9.21421,0.285959,
2,0,0,1,0,7313.29,0.278763,0.278439,-0.41922,6,0.0220093,11,-0.000116727,-3.37756,-0.147466,-0.400093,6.54138,0.278439,
2,0,0,1,0,7313.67,0.271272,0.270958,-0.468201,6,0.0218405,11,-0.000126863,-3.32957,-0.179277,-0.3291,5.97256,0.270958,
2,0,0,1,0,7314.04,0.263781,0.263523,-0.501683,6,0.0216561,11,-0.000132205,-3.29957,-0.253553,-0.232693,4.55649,0.263523,
2,0,0,1,0,7314.42,0.25629,0.256028,-0.537071,6,0.0214583,11,-0.000137505,-3.26997,-0.42097,-0.140153,2.9238,0.256028,
2,0,0,1,0,7314.79,0.248799,0.24849,-0.568064,6,0.0212485,11,-0.000141158,-3.2456,-0.283771,-0.207914,4.61587,0.2484898,
2,0,0,1,0,7315.17,0.241308,0.241042,-0.59592,6,0.0210271,11,-0.000143642,-3.22481,-0.383672,-0.153777,3.59399,0.241042,
2,0,0,1,0,7315.54,0.233817,0.233512,-0.627666,6,0.0207946,11,-0.000146568,-3.20227,-0.339685,-0.17369,4.24611,0.233512,
2,0,0,1,0,7315.91,0.226326,0.226061,-0.658496,6,0.0205506,11,-0.00014886,-3.18145,-0.383385,-0.153892,3.96505,0.2260609,
2,0,0,1,0,7316.29,0.218835,0.218538,-0.69354,6,0.0202949,11,-0.000151565,-3.15893,-0.301847,-0.195463,5.27503,0.218538,
2,0,0,1,0,7316.66,0.211344,0.211011,-0.725135,6,0.0200266,11,-0.000153011,-3.13958,-0.409629,-0.144033,4.08362,0.211011,
2,0,0,1,0,7317.04,0.203855,0.203545,-0.767685,6,0.0197439,11,-0.000156258,-3.11482,-0.308283,-0.191383,5.74509,0.203545,
2,0,0,1,0,7317.41,0.196362,0.196025,-0.816836,6,0.0194447,11,-0.00016012,-3.08787,-0.25105,-0.235013,7.49162,0.196025,
2,0,0,1,0,7317.79,0.188871,0.188548,-0.882131,6,0.0191242,11,-0.000166324,-3.05447,-0.179573,-0.328558,11.2999,0.188548,
2,0,0,1,0,7318.16,0.18138,0.181043,-0.969368,6,0.018776,11,-0.000175497,-3.01351,-0.153503,-0.384358,14.5584,0.1810427,
2,0,0,1,0,7318.54,0.173891,0.173566,-1.0937,6,0.0183884,11,-0.00018983,-2.9611,-0.125839,-0.468852,20.0318,0.173566,
2,0,0,1,0,7318.91,0.166398,0.166101,-1.28693,6,0.017942,11,-0.000213761,-2.89045,-0.0967338,-0.609922,30.7675,0.166101,
2,0,0,1,0,7319.29,0.158906,0.158591,-1.5932,6,0.0174035,11,-0.000252667,-2.79773,-0.0724904,-0.813901,50.7994,0.158591,
2,0,0,1,0,7319.66,0.151417,0.151123,-2.04704,6,0.0167224,11,-0.000309355,-2.68887,-0.0697551,-0.845817,67.6922,0.151123,
2,0,0,1,0,7320.03,0.143926,0.143588,-2.58001,6,0.0158516,11,-0.000370457,-2.58838,-0.0822245,-0.717548,72.169,0.1435875,
2,0,0,1,0,7320.41,0.136435,0.136117,-3.02142,6,0.014794,11,-0.000411265,-2.51979,-0.153314,-0.38483,45.1425,0.136117,
2,0,0,1,0,7320.78,0.128942,0.128629,-3.22442,6,0.0136148,11,-0.000414753,-2.49155,-0.738759,-0.0798636,10.0038,0.1286286,
2,0,0,1,0,7321.16,0.121453,0.121148,-3.18648,6,0.0124055,11,-0.000386035,-2.49669,0.361377,0.163265,-20.2448,0.121148,
2,0,0,1,0,7321.53,0.113962,0.113669,-2.9723,6,0.0112448,11,-0.000337857,-2.52691,0.197854,0.2982,-34.5984,0.113669,
2,0,0,1,0,7321.91,0.106471,0.106151,-2.69103,6,0.01018,11,-0.000285656,-2.57008,0.169934,0.347194,-36.5584,0.106151,
2,0,0,1,0,7322.28,0.0989799,0.0986793,-2.44271,6,0.00921823,11,-0.000241045,-2.61213,0.208281,0.283271,-26.9701,0.0986793,
2,0,0,1,0,7322.66,0.0914889,0.0912215,-2.26883,6,0.0083365,11,-0.000206966,-2.6442,0.303483,0.194409,-17.2052,0.0912215,
2,0,0,1,0,7323.03,0.083998,0.0837206,-2.15623,6,0.00750714,11,-0.00018052,-2.66631,0.343885,0.171569,-14.4062,0.0837206,
2,0,0,1,0,7323.41,0.076507,0.0762096,-2.06509,6,0.00671471,11,-0.00015738,-2.68506,0.3646,0.161821,-13.024,0.07620962,
2,0,0,1,0,7323.78,0.0690161,0.0687147,-1.96265,6,0.00595712,11,-0.000134863,-2.70716,0.329545,0.179035,-13.7601,0.0687147,
2,0,0,1,0,7324.15,0.0615251,0.061192,-1.85396,6,0.00523705,11,-0.000113448,-2.7319,0.269505,0.21892,-15.878,0.061192,
2,0,0,1,0,7324.53,0.0540342,0.0537516,-1.73732,6,0.00456183,11,-9.33837e-05,-2.76012,0.254149,0.232147,-15.6855,0.0537516,
2,0,0,1,0,7324.9,0.0465432,0.0462414,-1.61389,6,0.00393226,11,-7.46284e-05,-2.79213,0.289546,0.203767,-12.8625,0.0462414,
2,0,0,1,0,7325.28,0.0390523,0.038708,-1.52547,6,0.00334195,11,-5.90478e-05,-2.8166,0.302493,0.195046,-11.6112,0.038708,
2,0,0,1,0,7325.65,0.0315626,0.0312359,-1.46625,6,0.0027798,11,-4.57996e-05,-2.83379,0.568051,0.103864,-5.94599,0.0312359,
2,0,0,1,0,7326.03,0.0240704,0.0237904,-1.43011,6,0.00223439,11,-3.40229e-05,-2.84463,1.01161,0.0583229,-3.27137,0.0237904,
2,0,0,1,0,7326.4,0.0165785,0.0162614,-1.42772,6,0.00169611,11,-2.32167e-05,-2.84536,-3.21464,-0.0183535,1.02394,0.0162614,
2,0,0,1,0,7326.78,0.00908846,0.00880188,-1.43685,6,0.00115739,11,-1.2647e-05,-2.84259,-1.33968,-0.0440402,2.46693,0.00880188,
2,0,0,1,0,7327.15,0.0015984,0.00122867,-1.48356,6,0.000611298,11,-1.82281e-06,-2.8287, , , ,0.00122867,
2,0,0,1,0,7327.22,0.000199195,-0.000179706,-1.46368,6,0.000507655,11,2.63032e-07,-2.83455, , , ,-0.000179706,