File: Figure_codes/Fig_3-5/rawdata_trumpetplot_data/before 10th/20221101_1-115_002_TrumpetPlot_ParaChange_13_CV_C01_4.csv
mode,ox/red,error,control changes,counter inc.,time/s,control/V,Ewe/V,<I>/mA,cycle number,(Q-Qo)/C,I Range,P/W,log(|I|),Tafel slope mV/dec,alpha_eff,dI/d(E-IR),E-IR/V,
2,1,0,0,0,6140.71,2.44065e-05,-0.000535284,13.92,5,0.0000000E+000,10,-7.45117e-06,-1.85636, , , ,-0.000535284,
2,1,0,1,0,6140.73,0.0100623,0.00975172,16.3806,5,0.000373687,10,0.00015974,-1.78567,0.142362,0.414437,263.535,0.00975172,
2,1,0,1,0,6140.76,0.0204636,0.0201649,18.3677,5,0.000828712,10,0.000370383,-1.73594,0.315375,0.187079,133.86,0.0201649,
2,1,0,1,0,6140.78,0.0308677,0.0305558,19.4299,5,0.00132146,10,0.000593698,-1.71153,0.594967,0.0991652,75.0094,0.0305558,
2,1,0,1,0,6140.81,0.0412635,0.0409213,20.0898,5,0.00183533,10,0.0008221,-1.69702,0.773473,0.0762794,59.7987,0.0409213,
2,1,0,1,0,6140.83,0.051662,0.0513006,20.7747,5,0.00236656,10,0.00106575,-1.68247,0.611663,0.0964584,78.3644,0.0513006,
2,1,0,1,0,6140.86,0.0620633,0.0617095,21.7411,5,0.00291886,10,0.00134163,-1.66272,0.465506,0.126744,107.567,0.0617095,
2,1,0,1,0,6140.89,0.0724674,0.0721026,23.0645,5,0.00350057,10,0.00166301,-1.63706,0.374461,0.15756,141.813,0.0721026,
2,1,0,1,0,6140.91,0.0828632,0.082555,24.6613,5,0.00412072,10,0.00203592,-1.60798,0.344703,0.171162,164.914,0.082555,
2,1,0,1,0,6140.94,0.0932618,0.0929788,26.6147,5,0.00478683,10,0.0024746,-1.57488,0.309626,0.190553,197.865,0.0929788,
2,1,0,1,0,6140.96,0.103669,0.103302,28.6477,5,0.00550521,10,0.00295936,-1.54291,0.329423,0.179101,200.183,0.103302,
2,1,0,1,0,6140.99,0.114067,0.11378,30.7499,5,0.00627735,10,0.00349872,-1.51216,0.339256,0.17391,208.672,0.11378,
2,1,0,1,0,6141.02,0.124463,0.124159,32.9916,5,0.00710569,10,0.00409621,-1.4816,0.32783,0.179971,231.876,0.124159,
2,1,0,1,0,6141.04,0.134861,0.134551,35.6424,5,0.00799727,10,0.00479573,-1.44803,0.290312,0.203229,282.892,0.134551,
2,1,0,1,0,6141.07,0.145268,0.144978,38.8236,5,0.00896452,10,0.00562856,-1.4109,0.277814,0.212373,321.706,0.144978,
2,1,0,1,0,6141.09,0.155667,0.155337,42.3022,5,0.0100191,10,0.00657109,-1.37364,0.285834,0.206414,340.695,0.155337,
2,1,0,1,0,6141.12,0.166063,0.165782,45.7137,5,0.0111644,10,0.00757851,-1.33995,0.345567,0.170734,304.343,0.165782,
2,1,0,1,0,6141.15,0.176461,0.176115,48.424,5,0.0123909,10,0.00852818,-1.31494,0.58279,0.101237,190.957,0.176115,
2,1,0,1,0,6141.17,0.186868,0.186593,49.2136,5,0.0136663,10,0.00918288,-1.30792,-1.31853,-0.0447468,-85.6195,0.186593,
2,1,0,1,0,6141.2,0.197267,0.197007,46.1279,5,0.0149154,10,0.00908751,-1.33604,-0.200377,-0.294445,-527.09,0.197007,
2,1,0,1,0,6141.22,0.207662,0.207395,38.5973,5,0.0160235,10,0.00800486,-1.41344,-0.103963,-0.567509,-851.395,0.207395,
2,1,0,1,0,6141.25,0.218061,0.217771,29.6242,5,0.0169076,10,0.00645128,-1.52835,-0.0877785,-0.672146,-779.292,0.217771,
2,1,0,1,0,6141.28,0.228468,0.228162,23.088,5,0.017585,10,0.0052678,-1.63661,-0.114814,-0.513873,-465.273,0.228162,
2,1,0,1,0,6141.3,0.238866,0.238546,19.5911,5,0.0181339,10,0.00467338,-1.70794,-0.195668,-0.301532,-231.211,0.238546,
2,1,0,1,0,6141.33,0.249262,0.248995,17.881,5,0.0186184,10,0.0044523,-1.74761,-0.346848,-0.170103,-119.025,0.248995,
2,1,0,1,0,6141.35,0.259661,0.259385,16.9626,5,0.0190704,10,0.00439984,-1.77051,-0.580835,-0.101578,-67.2979,0.2593852,
2,1,0,1,0,6141.38,0.270068,0.269777,16.3507,5,0.0195028,10,0.00441103,-1.78646,-0.757982,-0.0778382,-49.6606,0.269777,
2,1,0,1,0,6141.41,0.280466,0.280163,15.8494,5,0.0199212,10,0.00444041,-1.79999,-0.798438,-0.0738943,-45.7125,0.280163,
2,1,0,1,0,6141.43,0.290862,0.29056,15.4291,5,0.0203277,10,0.00448308,-1.81166,-0.906787,-0.0650649,-39.1943,0.29056,
2,1,0,0,0,6141.46,0.300012,0.299708,15.1043,5,0.0206773,10,0.00452689,-1.8209,0.000491149,120.126,56166.7,0.299708,
2,0,0,1,0,6141.48,0.290704,0.290449,-0.943479,5,0.0207983,10,-0.000274032,-3.02527,-0.051278,-1.15059,840.984,0.290449,
2,0,0,1,0,6141.5,0.280305,0.280018,-5.72828,5,0.0206987,10,-0.00160402,-2.24198,-0.0515509,-1.1445,249.606,0.280018,
2,0,0,1,0,6141.53,0.269909,0.269576,-7.49122,5,0.0205239,10,-0.00201945,-2.12545,-0.142822,-0.413103,119.848,0.269576,
2,0,0,1,0,6141.56,0.2595,0.259206,-8.46268,5,0.0203157,10,-0.00219358,-2.07249,-0.244966,-0.24085,79.3856,0.259206,
2,0,0,1,0,6141.58,0.249104,0.248804,-9.2037,5,0.0200857,10,-0.00228992,-2.03604,-0.330733,-0.178391,64.0697,0.248804,
2,0,0,1,0,6141.61,0.238705,0.238391,-9.86704,5,0.0198377,10,-0.00235222,-2.00581,-0.36868,-0.16003,61.5935,0.238391,
2,0,0,1,0,6141.63,0.22831,0.228023,-10.4826,5,0.0195731,10,-0.00239026,-1.97953,-0.410586,-0.143697,58.8092,0.228023,
2,0,0,1,0,6141.66,0.2179,0.217581,-11.1342,5,0.0192921,10,-0.00242259,-1.95334,-0.392328,-0.150384,65.3059,0.2175808,
2,0,0,1,0,6141.69,0.207504,0.207205,-11.829,5,0.0189938,10,-0.00245102,-1.92705,-0.366641,-0.16092,74.3818,0.2072047,
2,0,0,1,0,6141.71,0.197106,0.196846,-12.6568,5,0.0186755,10,-0.00249144,-1.89768,-0.334095,-0.176596,87.3642,0.196846,
2,0,0,1,0,6141.74,0.18671,0.186445,-13.713,5,0.0183331,10,-0.00255672,-1.86287,-0.27182,-0.217055,116.274,0.186445,
2,0,0,1,0,6141.76,0.1763,0.175983,-15.1348,5,0.0179589,10,-0.00266348,-1.82002,-0.215775,-0.273433,161.75,0.175983,
2,0,0,1,0,6141.79,0.165905,0.165598,-17.1401,5,0.0175407,10,-0.00283835,-1.76599,-0.173744,-0.339581,227.455,0.165598,
2,0,0,1,0,6141.82,0.155506,0.155177,-19.9749,5,0.0170601,10,-0.00309965,-1.69951,-0.143658,-0.410697,320.652,0.155177,
2,0,0,1,0,6141.84,0.145105,0.144841,-23.8521,5,0.0164925,10,-0.00345477,-1.62247,-0.128441,-0.459357,428.262,0.144841,
2,0,0,1,0,6141.87,0.134701,0.134405,-28.7184,5,0.01581,10,-0.00385988,-1.54184,-0.13219,-0.446328,499.923,0.134405,
2,0,0,1,0,6141.89,0.124305,0.124069,-33.9421,5,0.0149957,10,-0.00421116,-1.46926,-0.154632,-0.381552,504.293,0.124069,
2,0,0,1,0,6141.92,0.113906,0.113673,-38.8881,5,0.014047,10,-0.00442051,-1.41018,-0.20246,-0.291416,441.757,0.113673,
2,0,0,1,0,6141.95,0.103505,0.103251,-43.05,5,0.0129796,10,-0.00444495,-1.36603,-0.288673,-0.204384,342.683,0.103251,
2,0,0,1,0,6141.97,0.0931008,0.09286,-45.8286,5,0.0118204,10,-0.00425565,-1.33886,-0.560699,-0.105226,187.828,0.09286,
2,0,0,1,0,6142,0.0827051,0.0824065,-46.7892,5,0.0106118,10,-0.00385573,-1.32985,10.0675,0.00586046,-10.6779,0.0824065,
2,0,0,1,0,6142.02,0.0723065,0.0720156,-45.636,5,0.0094058,10,-0.00328651,-1.34069,0.52242,0.112936,-200.821,0.0720156,
2,0,0,1,0,6142.05,0.0618996,0.061578,-42.9464,5,0.00825248,10,-0.00264456,-1.36707,0.337792,0.174664,-292.541,0.061578,
2,0,0,1,0,6142.08,0.0515011,0.0512083,-39.9384,5,0.0071759,10,-0.00204518,-1.39861,0.332263,0.17757,-276.742,0.0512083,
2,0,0,1,0,6142.1,0.0411053,0.0408078,-37.1907,5,0.00617383,10,-0.00151767,-1.42957,0.326017,0.180972,-262.765,0.0408078,
2,0,0,1,0,6142.13,0.0307068,0.0304349,-34.4297,5,0.00524218,10,-0.00104787,-1.46307,0.283897,0.207822,-279.109,0.0304349,
2,0,0,1,0,6142.15,0.0202999,0.0200101,-31.3261,5,0.00438684,10,-0.000626839,-1.50409,0.231699,0.254641,-311.057,0.0200101,
2,0,0,1,0,6142.18,0.00990136,0.00958311,-28.2212,5,0.00361404,10,-0.000270447,-1.54942,0.241856,0.243947,-269.102,0.00958311,
2,0,0,1,0,6142.21,-0.000494411,-0.000829017,-26.0206,5,0.00291166,10,2.15715e-05,-1.58468,0.375419,0.157158,-159.636,-0.000829017,
2,0,0,1,0,6142.23,-0.010893,-0.0112348,-24.7452,5,0.00225402,10,0.000278007,-1.60651,0.717058,0.0822806,-79.5374,-0.0112348,
2,0,0,1,0,6142.26,-0.0212998,-0.0216268,-24.2446,5,0.00161855,10,0.000524332,-1.61539,2.84093,0.0207678,-19.6718,-0.02162678,
2,0,0,1,0,6142.28,-0.0316984,-0.0320273,-24.2626,5,0.00098883,10,0.000777063,-1.61506,-2.87626,-0.0205127,19.4266,-0.0320273,
2,0,0,1,0,6142.31,-0.0420942,-0.0424574,-24.5766,5,0.000354486,10,0.00104346,-1.60948,-1.45653,-0.0405074,38.8533,-0.0424574,
2,0,0,1,0,6142.34,-0.0524927,-0.0528261,-25.0661,5,-0.000290676,10,0.00132414,-1.60091,-1.09126,-0.0540657,52.9329,-0.0528261,
2,0,0,1,0,6142.36,-0.0628996,-0.0632,-25.7,5,-0.000950447,10,0.00162424,-1.59007,-0.907697,-0.0649996,65.1913,-0.0632,
2,0,0,1,0,6142.39,-0.0732982,-0.0735941,-26.417,5,-0.00162774,10,0.00194413,-1.57812,-0.797237,-0.0740056,76.2876,-0.0735941,
2,0,0,1,0,6142.41,-0.0836939,-0.0840476,-27.2459,5,-0.00232515,10,0.00228995,-1.5647,-0.750602,-0.0786036,83.5823,-0.0840476,
2,0,0,1,0,6142.44,-0.0940925,-0.0944683,-28.1919,5,-0.00304566,10,0.00266324,-1.54988,-0.655169,-0.0900531,99.1366,-0.0944683,
2,0,0,1,1,6142.46,-0.0978574,-0.0982295,-22.4737,5,-0.00361008,10,0.00220758,-1.64833,-0.0193872,-3.04324,2517.72,-0.0982295,
2,0,0,1,1,6142.49,-0.0874588,-0.0879001,-3.23754,5,-0.00391457,10,0.00028458,-2.48978,-0.00582383,-10.1308,1329.69,-0.0879001,
2,1,0,1,1,6142.51,-0.077052,-0.0775039,7.25515,5,-0.00384872,10,-0.000562302,-2.13935,0.0202947,2.90717,769.017,-0.0775039,
2,1,0,1,1,6142.54,-0.0666562,-0.0670599,13.5158,5,-0.00357151,10,-0.000906368,-1.86916,0.0671039,0.879234,457.587,-0.0670599,
2,1,0,1,1,6142.57,-0.0562576,-0.0565926,17.2336,5,-0.00316698,10,-0.000975293,-1.76362,0.145348,0.405921,271.809,-0.0565926,
2,1,0,1,1,6142.59,-0.0458563,-0.0462484,19.3858,5,-0.00268811,10,-0.000896561,-1.71252,0.291877,0.20214,152.618,-0.0462484,
2,1,0,1,1,6142.62,-0.0354522,-0.0357991,20.5959,5,-0.0021668,10,-0.000737314,-1.68622,0.562077,0.104968,84.1492,-0.03579912,
2,1,0,1,1,6142.64,-0.0250564,-0.0254146,21.1754,5,-0.00162288,10,-0.000538164,-1.67417,1.55216,0.0380116,31.3673,-0.0254146,
2,1,0,1,1,6142.67,-0.0146579,-0.014977,21.3544,5,-0.00106934,10,-0.000319824,-1.67051,8.4877,0.00695124,5.79388,-0.014977,
2,1,0,1,1,6142.7,-0.00425653,-0.004638,21.2997,5,-0.000514263,10,-9.87879e-05,-1.67163,-4.11617,-0.0143337,-11.9185,-0.004638,
2,1,0,0,1,6142.71,-7.54729e-05,-0.000458935,21.2261,5,-0.000290772,10,-9.7414e-06,-1.67313, , , ,-0.000458935,