File: Figure_codes/Fig_3-5/rawdata_trumpetplot_data/before 10th/20221101_1-115_002_TrumpetPlot_ParaChange_08_CV_C01.mpt
EC-Lab ASCII FILE
Nb header lines : 68

Cyclic Voltammetry

Run on channel : 1 (SN 65296)
User :
CE vs. WE compliance from -10 V to 10 V
Electrode connection : standard
Potential control : Ewe
Ewe ctrl range : min = -1.00 V, max = 1.00 V
Safety Limits :
	Do not start on E overload
Acquisition started on : 11/08/2022 17:30:03.488
Loaded Setting File :  NONE
Saved on :
	File : 20221101_1-115_002_TrumpetPlot_ParaChange_08_CV_C01.mpr
	Directory : C:\Users\NakamuraT\Documents\EC-Lab\Data\Yatsuzuka\20221108_1-115_001_TrumpetPlot\
	Host : 192.109.209.100
Device : SP-50e (SN .003219)
Address : 192.109.209.128
EC-Lab for windows v11.43 (software)
Internet server v11.40 (firmware)
Command interpretor v11.40 (firmware)
Electrode material : Au/Pd
Initial state :
Electrolyte : NaCl (0.2M)
Comments : Fe(CN)63-/Fe(CN)64- 5.10-3 M
Reference electrode : SCE Saturated Calomel Electrode (0.241 V)
Electrode surface area : 0.001 cm2
Characteristic mass : 0.001 g
Equivalent Weight : 0.000 g/eq.
Density : 0.000 g/cm3
Volume (V) : 0.001 cm3
Cycle Definition : Charge/Discharge alternance
Ei (V)              0.000
vs.                 Ref
dE/dt               40.000
dE/dt unit          mV/s
E1 (V)              0.300
vs.                 Ref
Step percent        50
N                   10
E range min (V)     -1.000
E range max (V)     1.000
I Range             10 mA
I Range min         Unset
I Range max         Unset
I Range init        Unset
Bandwidth           5
E2 (V)              0.000
vs.                 Ref
nc cycles           0
Reverse Scan        0
Ef (V)              0.000
vs.                 Eoc

Number of loops : 8
Loop 0 from point number 0 to 1205
Loop 1 from point number 1206 to 2411
Loop 2 from point number 2412 to 3617
Loop 3 from point number 3618 to 4823
Loop 4 from point number 4824 to 6029
Loop 5 from point number 6030 to 7235
Loop 6 from point number 7236 to 8441
Loop 7 from point number 8442 to 9647

mode	ox/red	error	control changes	counter inc.	time/s	control/V	Ewe/V	<I>/mA	cycle number	(Q-Qo)/C	I Range	P/W
2	0	0	1	0	1169.19	2.44065e-05	-0.000268062	-2.18649	1	0.0000000E+000	11	5.86113e-07
2	1	0	1	0	1170.07	0.0352586	0.0349446	1.92409	1	0.00148913	11	6.72366e-05
2	1	0	1	0	1170.96	0.070714	0.0704353	2.41387	1	0.00336456	11	0.000170022
2	1	0	1	0	1171.84	0.106171	0.105908	3.58233	1	0.00598709	11	0.000379396
2	1	0	1	0	1172.73	0.141627	0.141361	6.85812	1	0.0104425	11	0.000969474
2	1	0	1	0	1173.62	0.177082	0.1768	3.46427	1	0.0157508	11	0.000612485
2	1	0	1	0	1174.5	0.212543	0.212309	2.07003	1	0.0180074	11	0.000439486
2	1	0	1	0	1175.39	0.248002	0.247724	1.80372	1	0.0197054	11	0.000446825
2	1	0	1	0	1176.28	0.283459	0.283159	1.68792	1	0.0212532	11	0.000477948
2	0	0	1	0	1177.13	0.282208	0.281885	-0.821238	1	0.0216779	11	-0.000231495
2	0	0	1	0	1178.02	0.246749	0.246445	-1.16034	1	0.0207815	11	-0.000285961
2	0	0	1	0	1178.91	0.211292	0.211014	-1.50704	1	0.0196065	11	-0.000318006
2	0	0	1	0	1179.79	0.175837	0.175527	-2.46777	1	0.0179423	11	-0.000433161
2	0	0	1	0	1180.68	0.14038	0.140069	-6.52514	1	0.0141858	11	-0.000913969
2	0	0	1	0	1181.57	0.104924	0.104628	-4.64091	1	0.00855878	11	-0.000485568
2	0	0	1	0	1182.45	0.0694682	0.069168	-3.16759	1	0.00521777	11	-0.000219096
2	0	0	1	0	1183.34	0.0340083	0.0337095	-2.6334	1	0.00272207	11	-8.87708e-05
2	0	0	1	0	2400.82	0.000299075	-1.71997e-05	-1.42778	2	-1.0423e-05	11	2.45573e-08
2	1	0	1	0	2401.71	0.0357545	0.0355012	1.96615	2	0.0015343	11	6.98007e-05
2	1	0	1	0	2402.6	0.0712107	0.070915	2.61221	2	0.00350352	11	0.000185245
2	1	0	1	0	2403.48	0.106671	0.106395	3.78909	2	0.00632419	11	0.00040314
2	1	0	1	0	2404.37	0.14213	0.141875	6.8248	2	0.0109254	11	0.000968266
2	1	0	1	0	2405.26	0.177587	0.177278	3.26224	2	0.0159686	11	0.000578323
2	1	0	1	0	2406.14	0.213042	0.212757	2.03741	2	0.0181484	11	0.000433472
2	1	0	1	0	2407.03	0.248499	0.248232	1.79083	2	0.0198329	11	0.000444542
2	1	0	1	0	2407.92	0.283955	0.283671	1.68831	2	0.0213764	11	0.000478925
2	0	0	1	0	2408.77	0.281709	0.281384	-0.836364	2	0.021763	11	-0.000235339
2	0	0	1	0	2409.66	0.246252	0.24596	-1.16506	2	0.020859	11	-0.000286557
2	0	0	1	0	2410.55	0.210797	0.210512	-1.4987	2	0.0196853	11	-0.000315495
2	0	0	1	0	2411.43	0.175339	0.174997	-2.41595	2	0.0180491	11	-0.000422783
2	0	0	1	0	2412.32	0.13988	0.139579	-6.3981	2	0.0143689	11	-0.000893039
2	0	0	1	0	2413.21	0.104421	0.104131	-4.75511	2	0.00878915	11	-0.000495155
2	0	0	1	0	2414.09	0.0689643	0.0686929	-3.35532	2	0.00529859	11	-0.000230486
2	0	0	1	0	2414.98	0.033509	0.0332041	-2.6803	2	0.00270551	11	-8.89969e-05
2	0	0	1	0	3632.47	0.000798471	0.000467303	-0.438446	3	-2.30013e-05	11	-2.04887e-07
2	1	0	1	0	3633.35	0.0362583	0.0359651	1.9619	3	0.00150202	11	7.056e-05
2	1	0	1	0	3634.24	0.0717146	0.0714314	2.71915	3	0.00351843	11	0.000194233
2	1	0	1	0	3635.12	0.10717	0.10691	3.86056	3	0.00642773	11	0.000412733
2	1	0	1	0	3636.01	0.142627	0.14239	6.52172	3	0.0109674	11	0.000928626
2	1	0	1	0	3636.9	0.178083	0.177853	3.2072	3	0.0158036	11	0.000570409
2	1	0	1	0	3637.78	0.213539	0.21325	2.01929	3	0.0179507	11	0.000430613
2	1	0	1	0	3638.67	0.248999	0.24875	1.78522	3	0.0196248	11	0.000444075
2	1	0	1	0	3639.56	0.284458	0.284167	1.68337	3	0.0211661	11	0.000478359
2	0	0	1	0	3640.42	0.281212	0.280896	-0.815669	3	0.021546	11	-0.000229118
2	0	0	1	0	3641.3	0.245753	0.245459	-1.14284	3	0.0206621	11	-0.00028052
2	0	0	1	0	3642.19	0.210293	0.209996	-1.45687	3	0.0195137	11	-0.000305938
2	0	0	1	0	3643.07	0.174836	0.174543	-2.28359	3	0.0179396	11	-0.000398585
2	0	0	1	0	3643.96	0.139381	0.139092	-5.94841	3	0.014514	11	-0.000827377
2	0	0	1	0	3644.85	0.103924	0.103614	-4.96519	3	0.00905807	11	-0.000514463
2	0	0	1	0	3645.73	0.0684685	0.0682162	-3.53827	3	0.00541068	11	-0.000241367
2	0	0	1	0	3646.62	0.0330122	0.0327061	-2.71107	3	0.00271269	11	-8.86687e-05
2	0	0	1	0	4864.11	0.00129787	0.000947221	0.176336	4	-2.61052e-05	11	1.67029e-07
2	1	0	1	0	4864.99	0.036755	0.0364795	2.00299	4	0.00152025	11	7.3068e-05
2	1	0	1	0	4865.88	0.0722104	0.0719519	2.84195	4	0.00361156	11	0.000204483
2	1	0	1	0	4866.77	0.107667	0.107383	3.9524	4	0.0066138	11	0.000424422
2	1	0	1	0	4867.65	0.143127	0.142838	6.35635	4	0.0111824	11	0.000907928
2	1	0	1	0	4868.54	0.178585	0.178251	3.12291	4	0.0157604	11	0.000556662
2	1	0	1	0	4869.43	0.214043	0.213746	2.00242	4	0.0178831	11	0.00042801
2	1	0	1	0	4870.31	0.249498	0.249249	1.78707	4	0.0195494	11	0.000445425
2	1	0	1	0	4871.2	0.284955	0.284687	1.68413	4	0.0210873	11	0.000479449
2	0	0	1	0	4872.06	0.280709	0.280399	-0.813346	4	0.0214376	11	-0.000228061
2	0	0	1	0	4872.94	0.245253	0.244966	-1.15132	4	0.0205486	11	-0.000282036
2	0	0	1	0	4873.83	0.209796	0.209504	-1.44085	4	0.0194034	11	-0.000301865
2	0	0	1	0	4874.72	0.174341	0.174041	-2.20021	4	0.0178618	11	-0.000382927
2	0	0	1	0	4875.6	0.138883	0.138585	-5.69508	4	0.0145952	11	-0.000789251
2	0	0	1	0	4876.49	0.103424	0.103073	-5.08414	4	0.00923686	11	-0.000524036
2	0	0	1	0	4877.37	0.0679646	0.0676484	-3.6702	4	0.00548615	11	-0.000248283
2	0	0	1	0	4878.26	0.0325084	0.0322036	-2.75242	4	0.00269641	11	-8.86377e-05
2	1	0	1	0	6095.75	0.00179548	0.00141145	0.562622	5	-2.28462e-05	11	7.94114e-07
2	1	0	1	0	6096.63	0.0372544	0.0369904	2.04112	5	0.00154945	11	7.5502e-05
2	1	0	1	0	6097.52	0.0727143	0.0724539	2.95393	5	0.00371768	11	0.000214024
2	1	0	1	0	6098.41	0.108171	0.107867	4.03794	5	0.00679782	11	0.000435561
2	1	0	1	0	6099.29	0.143626	0.14338	6.20408	5	0.0113898	11	0.000889539
2	1	0	1	0	6100.18	0.179083	0.17881	2.99652	5	0.0157763	11	0.000535806
2	1	0	1	0	6101.07	0.214538	0.21421	1.9769	5	0.0178383	11	0.000423473
2	1	0	1	0	6101.95	0.249995	0.249748	1.77154	5	0.0194902	11	0.000442439
2	1	0	1	0	6102.84	0.285455	0.285184	1.67368	5	0.0210208	11	0.000477307
2	0	0	1	0	6103.7	0.280213	0.279911	-0.827757	5	0.0213361	11	-0.000231698
2	0	0	1	0	6104.58	0.244756	0.244462	-1.15957	5	0.0204364	11	-0.000283471
2	0	0	1	0	6105.47	0.209297	0.208998	-1.43892	5	0.0192894	11	-0.000300731
2	0	0	1	0	6106.36	0.173837	0.173499	-2.14234	5	0.0177703	11	-0.000371694
2	0	0	1	0	6107.24	0.13838	0.138093	-5.48502	5	0.0146297	11	-0.000757445
2	0	0	1	0	6108.13	0.102925	0.102609	-5.16984	5	0.00935665	11	-0.000530472
2	0	0	1	0	6109.02	0.0674679	0.0671328	-3.75951	5	0.0055332	11	-0.000252387
2	0	0	1	0	6109.9	0.0320125	0.0317139	-2.79379	5	0.00267071	11	-8.86021e-05
2	1	0	1	0	7327.39	0.00229844	0.00195834	0.920543	6	-1.13006e-05	11	1.80273e-06
2	1	0	1	0	7328.27	0.0377538	0.0374633	2.07313	6	0.00159238	11	7.76665e-05
2	1	0	1	0	7329.16	0.073211	0.0729182	3.05354	6	0.00383121	11	0.000222658
2	1	0	1	0	7330.05	0.108666	0.1084	4.12703	6	0.00697833	11	0.000447372
2	1	0	1	0	7330.93	0.144123	0.143858	6.10857	6	0.0116128	11	0.000878765
2	1	0	1	0	7331.82	0.179582	0.179282	2.76239	6	0.01571	11	0.000495247
2	1	0	1	0	7332.71	0.215042	0.214738	1.93025	6	0.0176768	11	0.000414499
2	1	0	1	0	7333.59	0.250499	0.250236	1.76059	6	0.0193047	11	0.000440564
2	1	0	1	0	7334.48	0.285954	0.285665	1.66092	6	0.020822	11	0.000474466
2	0	0	1	0	7335.34	0.279708	0.279407	-0.837304	6	0.0210967	11	-0.000233949
2	0	0	1	0	7336.22	0.244253	0.243935	-1.15636	6	0.0201967	11	-0.000282076
2	0	0	1	0	7337.11	0.208797	0.208492	-1.41694	6	0.0190569	11	-0.00029542
2	0	0	1	0	7338	0.17334	0.173052	-2.08171	6	0.0175656	11	-0.000360245
2	0	0	1	0	7338.88	0.137885	0.137581	-5.34044	6	0.0145305	11	-0.000734741
2	0	0	1	0	7339.77	0.102427	0.102104	-5.14327	6	0.00934878	11	-0.000525146
2	0	0	1	0	7340.66	0.0669685	0.0666596	-3.79109	6	0.00552567	11	-0.000252713
2	0	0	1	0	7341.54	0.0315087	0.031174	-2.81677	6	0.00262632	11	-8.78102e-05
2	1	0	1	0	8559.03	0.00279427	0.00248477	1.01001	7	-6.99575e-06	11	2.50965e-06
2	1	0	1	0	8559.92	0.0382514	0.0379783	2.09164	7	0.00157557	11	7.94371e-05
2	1	0	1	0	8560.8	0.0737104	0.073447	3.08154	7	0.00384842	11	0.00022633
2	1	0	1	0	8561.69	0.10917	0.108883	4.14352	7	0.00700433	11	0.000451157
2	1	0	1	0	8562.57	0.144626	0.144345	5.86859	7	0.0115607	11	0.000847099
2	1	0	1	0	8563.46	0.180082	0.179808	2.66298	7	0.0154328	11	0.000478826
2	1	0	1	0	8564.35	0.215539	0.215243	1.93284	7	0.0173692	11	0.000416029
2	1	0	1	0	8565.23	0.250994	0.2507	1.76121	7	0.0189998	11	0.000441535
2	1	0	1	0	8566.12	0.286451	0.286185	1.66834	7	0.0205212	11	0.000477454
2	0	0	1	0	8566.98	0.279212	0.278919	-0.816307	7	0.0207901	11	-0.000227683
2	0	0	1	0	8567.87	0.243757	0.243459	-1.13193	7	0.0199085	11	-0.000275577
2	0	0	1	0	8568.75	0.2083	0.207966	-1.40461	7	0.0187874	11	-0.000292111
2	0	0	1	0	8569.64	0.172841	0.172568	-1.99721	7	0.0173351	11	-0.000344655
2	0	0	1	0	8570.52	0.13738	0.137067	-5.03588	7	0.0144706	11	-0.000690251
2	0	0	1	0	8571.41	0.101925	0.101633	-5.14925	7	0.00946653	11	-0.000523333
2	0	0	1	0	8572.3	0.0664691	0.0661521	-3.83881	7	0.00561387	11	-0.000253945
2	0	0	1	0	8573.18	0.031012	0.0306836	-2.86644	7	0.00264599	11	-8.79526e-05
2	1	0	1	0	9790.67	0.00329902	0.00299451	1.20908	8	1.0963e-05	11	3.62061e-06
2	1	0	1	0	9791.56	0.0387544	0.0384465	2.17768	8	0.00165806	11	8.37241e-05
2	1	0	1	0	9792.44	0.0742098	0.0739368	3.16152	8	0.00401511	11	0.000233753
2	1	0	1	0	9793.33	0.109667	0.109336	4.25857	8	0.00724156	11	0.000465615
2	1	0	1	0	9794.22	0.145122	0.144853	5.81403	8	0.0118513	11	0.00084218
2	1	0	1	0	9795.1	0.180579	0.180274	2.53826	8	0.0155452	11	0.000457582
2	1	0	1	0	9795.99	0.216038	0.215781	1.89682	8	0.0174268	11	0.000409299
2	1	0	1	0	9796.88	0.251498	0.251211	1.75676	8	0.019041	11	0.000441317
2	1	0	1	0	9797.76	0.286955	0.286653	1.65266	8	0.0205543	11	0.00047374
2	0	0	1	0	9798.62	0.278713	0.278377	-0.846454	8	0.0207711	11	-0.000235633
2	0	0	1	0	9799.51	0.243252	0.242931	-1.15759	8	0.0198669	11	-0.000281214
2	0	0	1	0	9800.39	0.207797	0.207492	-1.4115	8	0.0187311	11	-0.000292875
2	0	0	1	0	9801.28	0.172341	0.172024	-1.98698	8	0.017276	11	-0.00034181
2	0	0	1	0	9802.17	0.136884	0.136576	-4.99338	8	0.0144485	11	-0.000681974
2	0	0	1	0	9803.05	0.101429	0.101099	-5.15495	8	0.00945651	11	-0.000521162
2	0	0	1	0	9803.94	0.0659715	0.0656522	-3.85823	8	0.00559478	11	-0.000253301
2	0	0	1	0	9804.82	0.0305126	0.0302425	-2.89587	8	0.00259984	11	-8.75783e-05
2	0	0	1	0	9805.59	-2.44065e-05	-0.000306236	-2.76685	8	0.0004851	11	8.47309e-07