File: Figure_codes/Fig_3-5/rawdata_trumpetplot_data/before 10th/20221101_1-115_002_TrumpetPlot_ParaChange_11_CV_C01.mpt
EC-Lab ASCII FILE
Nb header lines : 68

Cyclic Voltammetry

Run on channel : 1 (SN 65296)
User :
CE vs. WE compliance from -10 V to 10 V
Electrode connection : standard
Potential control : Ewe
Ewe ctrl range : min = -1.00 V, max = 1.00 V
Safety Limits :
	Do not start on E overload
Acquisition started on : 11/08/2022 17:30:03.488
Loaded Setting File :  NONE
Saved on :
	File : 20221101_1-115_002_TrumpetPlot_ParaChange_11_CV_C01.mpr
	Directory : C:\Users\NakamuraT\Documents\EC-Lab\Data\Yatsuzuka\20221108_1-115_001_TrumpetPlot\
	Host : 192.109.209.100
Device : SP-50e (SN .003219)
Address : 192.109.209.128
EC-Lab for windows v11.43 (software)
Internet server v11.40 (firmware)
Command interpretor v11.40 (firmware)
Electrode material : Au/Pd
Initial state :
Electrolyte : NaCl (0.2M)
Comments : Fe(CN)63-/Fe(CN)64- 5.10-3 M
Reference electrode : SCE Saturated Calomel Electrode (0.241 V)
Electrode surface area : 0.001 cm2
Characteristic mass : 0.001 g
Equivalent Weight : 0.000 g/eq.
Density : 0.000 g/cm3
Volume (V) : 0.001 cm3
Cycle Definition : Charge/Discharge alternance
Ei (V)              0.000
vs.                 Ref
dE/dt               100.000
dE/dt unit          mV/s
E1 (V)              0.300
vs.                 Ref
Step percent        50
N                   10
E range min (V)     -1.000
E range max (V)     1.000
I Range             10 mA
I Range min         Unset
I Range max         Unset
I Range init        Unset
Bandwidth           5
E2 (V)              -0.100
vs.                 Ref
nc cycles           0
Reverse Scan        1
Ef (V)              0.000
vs.                 Ref

Number of loops : 8
Loop 0 from point number 0 to 1608
Loop 1 from point number 1609 to 3217
Loop 2 from point number 3218 to 4826
Loop 3 from point number 4827 to 6435
Loop 4 from point number 6436 to 8044
Loop 5 from point number 8045 to 9653
Loop 6 from point number 9654 to 11262
Loop 7 from point number 11263 to 12871

mode	ox/red	error	control changes	counter inc.	time/s	control/V	Ewe/V	<I>/mA	cycle number	(Q-Qo)/C	I Range	P/W
2	0	0	0	0	1201.99	2.44065e-05	0.000686305	-6.24498	1	0.0000000E+000	11	-4.28596e-06
2	1	0	1	0	1202.46	0.0472424	0.0469448	4.69221	1	0.00176159	11	0.000220275
2	1	0	1	0	1202.94	0.094685	0.0944107	7.18173	1	0.00446218	11	0.000678032
2	1	0	1	0	1203.41	0.142128	0.141822	14.63	1	0.00923942	11	0.00207485
2	1	0	1	0	1203.89	0.18957	0.189284	6.52693	1	0.0156973	11	0.00123544
2	1	0	1	0	1204.36	0.237013	0.236709	4.25329	1	0.0180618	11	0.00100679
2	1	0	1	0	1204.83	0.284456	0.28421	3.85978	1	0.0199735	11	0.00109699
2	0	0	1	0	1205.3	0.269274	0.269019	-2.38949	1	0.0200266	11	-0.000642819
2	0	0	1	0	1205.77	0.221831	0.221515	-3.29215	1	0.0186816	11	-0.000729261
2	0	0	1	0	1206.25	0.174389	0.174047	-5.7914	1	0.0166882	11	-0.00100797
2	0	0	1	0	1206.72	0.126946	0.12665	-16.3068	1	0.0115567	11	-0.00206526
2	0	0	1	0	1207.2	0.0795034	0.0791787	-8.50074	1	0.00546537	11	-0.000673078
2	0	0	1	0	1207.67	0.0320607	0.0317667	-6.1371	1	0.00213965	11	-0.000194955
2	0	0	1	0	1208.14	-0.015382	-0.0157171	-6.74239	1	-0.000859408	11	0.000105971
2	0	0	1	0	1208.62	-0.0628247	-0.0631513	-8.44197	1	-0.00441356	11	0.000533121
2	1	0	1	1	1209.09	-0.0902416	-0.0905826	2.53034	1	-0.00820617	11	-0.000229205
2	1	0	1	1	1209.56	-0.0427989	-0.04313	5.84993	1	-0.00577639	11	-0.000252307
2	0	0	1	0	2433.65	0.00279606	0.00241371	0.216268	2	-8.61136e-05	11	5.22009e-07
2	1	0	1	0	2434.12	0.0502387	0.0499706	4.9443	2	0.00195715	11	0.000247069
2	1	0	1	0	2434.6	0.0976814	0.0974408	7.93348	2	0.00492808	11	0.000773044
2	1	0	1	0	2435.07	0.145124	0.144832	15.3764	2	0.0101315	11	0.002227
2	1	0	1	0	2435.54	0.192567	0.192293	5.81333	2	0.0160431	11	0.00111786
2	1	0	1	0	2436.02	0.240003	0.239743	4.21671	2	0.0183073	11	0.00101093
2	1	0	1	0	2436.49	0.287452	0.287187	3.83392	2	0.0202091	11	0.00110105
2	0	0	1	0	2436.96	0.266278	0.265949	-2.44629	2	0.0200647	11	-0.000650588
2	0	0	1	0	2437.43	0.218835	0.218543	-3.3414	2	0.0186936	11	-0.00073024
2	0	0	1	0	2437.9	0.171392	0.17114	-5.9726	2	0.0166645	11	-0.00102215
2	0	0	1	0	2438.38	0.12395	0.123672	-16.319	2	0.0113441	11	-0.0020182
2	0	0	1	0	2438.85	0.076507	0.0762123	-8.75183	2	0.0053958	11	-0.000666997
2	0	0	1	0	2439.33	0.0290643	0.0287886	-6.21379	2	0.00197704	11	-0.000178887
2	0	0	1	0	2439.8	-0.0183784	-0.0187417	-6.84579	2	-0.00106155	11	0.000128302
2	0	0	1	0	2440.28	-0.0658211	-0.0661684	-8.52617	2	-0.00465867	11	0.000564162
2	1	0	1	1	2440.75	-0.0872452	-0.0876	3.74591	2	-0.0080092	11	-0.000328142
2	1	0	1	1	2441.22	-0.0398025	-0.0401203	5.86413	2	-0.00546651	11	-0.000235271
2	1	0	1	0	3665.31	0.00579244	0.00544859	2.32137	3	-6.77023e-05	11	1.26482e-05
2	1	0	1	0	3665.78	0.0532351	0.0529486	5.06698	3	0.00198986	11	0.000268289
2	1	0	1	0	3666.25	0.100678	0.100363	8.23266	3	0.00510547	11	0.000826252
2	1	0	1	0	3666.73	0.14812	0.147849	14.8852	3	0.010371	11	0.00220077
2	1	0	1	0	3667.2	0.195563	0.195299	5.78074	3	0.0158743	11	0.00112897
2	1	0	1	0	3667.68	0.243006	0.242739	4.16889	3	0.0181095	11	0.00101195
2	1	0	1	0	3668.15	0.290449	0.290153	3.82139	3	0.0199972	11	0.00110879
2	0	0	1	0	3668.61	0.263281	0.26295	-2.4512	3	0.0197143	11	-0.000644542
2	0	0	1	0	3669.09	0.215839	0.215561	-3.29371	3	0.018356	11	-0.000709995
2	0	0	1	0	3669.56	0.168396	0.168098	-5.86255	3	0.016359	11	-0.000985481
2	0	0	1	0	3670.04	0.120953	0.120671	-15.3543	3	0.011246	11	-0.00185281
2	0	0	1	0	3670.51	0.0735106	0.0732151	-9.18293	3	0.00537017	11	-0.000672329
2	0	0	1	0	3670.99	0.0260679	0.0257733	-6.30522	3	0.00181204	11	-0.000162506
2	0	0	1	0	3671.46	-0.0213747	-0.0216828	-6.7894	3	-0.00123039	11	0.000147213
2	0	0	1	0	3671.94	-0.0688175	-0.0691911	-8.47375	3	-0.00480263	11	0.000586308
2	1	0	1	1	3672.4	-0.0842488	-0.0845689	3.68546	3	-0.00778017	11	-0.000311676
2	1	0	1	1	3672.88	-0.0368061	-0.0371261	5.71653	3	-0.00531488	11	-0.000212232
2	1	0	1	0	4896.96	0.00878882	0.0084466	3.2724	4	4.5818e-06	11	2.76406e-05
2	1	0	1	0	4897.44	0.0562315	0.0559478	5.36013	4	0.00213314	11	0.000299888
2	1	0	1	0	4897.91	0.103674	0.103388	8.59002	4	0.00543638	11	0.000888106
2	1	0	1	0	4898.39	0.151117	0.150852	14.7448	4	0.0108922	11	0.00222428
2	1	0	1	0	4898.86	0.198562	0.198278	5.63784	4	0.0158746	11	0.00111786
2	1	0	1	0	4899.34	0.246002	0.245775	4.17618	4	0.0181022	11	0.0010264
2	1	0	1	0	4899.81	0.293445	0.293202	3.79322	4	0.0199868	11	0.00111218
2	0	0	1	0	4900.27	0.260285	0.259989	-2.48316	4	0.0195301	11	-0.000645593
2	0	0	1	0	4900.75	0.212842	0.212537	-3.32757	4	0.0181561	11	-0.000707232
2	0	0	1	0	4901.22	0.165391	0.165109	-5.92954	4	0.016146	11	-0.000979022
2	0	0	1	0	4901.7	0.117957	0.117619	-14.8782	4	0.0110488	11	-0.00174996
2	0	0	1	0	4902.17	0.0705142	0.0702136	-9.34752	4	0.00529231	11	-0.000656323
2	0	0	1	0	4902.64	0.0230716	0.0227595	-6.40696	4	0.00165067	11	-0.000145819
2	0	0	1	0	4903.12	-0.0243711	-0.024721	-6.85535	4	-0.00142308	11	0.000169471
2	0	0	1	0	4903.59	-0.0718138	-0.0721771	-8.56932	4	-0.00502987	11	0.000618508
2	1	0	1	1	4904.06	-0.0812524	-0.0815731	4.01426	4	-0.00763855	11	-0.000327456
2	1	0	1	1	4904.54	-0.0338097	-0.0341086	5.68189	4	-0.00515285	11	-0.000193801
2	1	0	1	0	6128.62	0.0117852	0.0115119	3.63337	5	9.07382e-05	11	4.18268e-05
2	1	0	1	0	6129.1	0.0592279	0.0589317	5.72517	5	0.00230492	11	0.000337394
2	1	0	1	0	6129.57	0.106671	0.106369	8.94971	5	0.00578716	11	0.000951972
2	1	0	1	0	6130.04	0.154113	0.153815	14.485	5	0.0113968	11	0.002228
2	1	0	1	0	6130.52	0.201556	0.201281	5.39259	5	0.0159823	11	0.00108543
2	1	0	1	0	6130.99	0.248999	0.24873	4.13977	5	0.0181502	11	0.00102968
2	1	0	1	0	6131.47	0.296441	0.29616	3.78996	5	0.0200213	11	0.00112244
2	0	0	1	0	6131.93	0.257289	0.256979	-2.54594	5	0.0193794	11	-0.000654252
2	0	0	1	0	6132.41	0.209846	0.209552	-3.3655	5	0.0179799	11	-0.000705246
2	0	0	1	0	6132.88	0.162403	0.16212	-6.04584	5	0.0159434	11	-0.000980151
2	0	0	1	0	6133.35	0.114961	0.114663	-14.5105	5	0.0108327	11	-0.00166382
2	0	0	1	0	6133.83	0.0675179	0.0672134	-9.43057	5	0.00515908	11	-0.000633861
2	0	0	1	0	6134.3	0.0200752	0.0197433	-6.45994	5	0.00147348	11	-0.00012754
2	0	0	1	0	6134.78	-0.0273675	-0.0277521	-6.91146	5	-0.00162026	11	0.000191807
2	0	0	1	0	6135.25	-0.0748102	-0.0751485	-8.72993	5	-0.00526635	11	0.000656041
2	1	0	1	1	6135.72	-0.0782561	-0.0786285	4.19413	5	-0.00754182	11	-0.000329778
2	1	0	1	1	6136.2	-0.0308134	-0.0311036	5.71162	5	-0.00501919	11	-0.000177652
2	1	0	1	0	7360.28	0.0147816	0.014424	4.02056	6	0.000225589	11	5.79924e-05
2	1	0	1	0	7360.75	0.0622243	0.061934	6.11173	6	0.00256257	11	0.000378524
2	1	0	1	0	7361.23	0.109667	0.109379	9.37595	6	0.00623255	11	0.00102553
2	1	0	1	0	7361.7	0.157101	0.156881	14.1043	6	0.0120362	11	0.0022127
2	1	0	1	0	7362.18	0.204552	0.204236	4.92633	6	0.0160509	11	0.00100613
2	1	0	1	0	7362.65	0.251995	0.251749	4.04161	6	0.018122	11	0.00101747
2	1	0	1	0	7363.13	0.299438	0.299161	3.74495	6	0.0199638	11	0.00112034
2	0	0	1	0	7363.59	0.254292	0.253972	-2.59764	6	0.0191145	11	-0.00065973
2	0	0	1	0	7364.06	0.206852	0.206541	-3.4102	6	0.0176966	11	-0.000704346
2	0	0	1	0	7364.54	0.159407	0.159088	-6.2257	6	0.0156295	11	-0.000990436
2	0	0	1	0	7365.01	0.111964	0.111659	-14.3031	6	0.0104282	11	-0.00159707
2	0	0	1	0	7365.49	0.0645215	0.0642425	-9.30208	6	0.00490142	11	-0.000597589
2	0	0	1	0	7365.96	0.0170788	0.0167982	-6.39603	6	0.00126592	11	-0.000107442
2	0	0	1	0	7366.44	-0.0303639	-0.0307366	-6.9515	6	-0.00182738	11	0.000213666
2	0	0	1	0	7366.91	-0.0778066	-0.0781326	-8.89211	6	-0.00551979	11	0.000694764
2	1	0	1	1	7367.38	-0.0752597	-0.0756001	4.64114	6	-0.00737206	11	-0.00035087
2	1	0	1	1	7367.85	-0.027817	-0.0281733	5.70843	6	-0.00477762	11	-0.000160825
2	1	0	1	0	8591.94	0.017778	0.0174674	3.96322	7	0.000290122	11	6.9227e-05
2	1	0	1	0	8592.41	0.0652206	0.064909	6.31487	7	0.00265905	11	0.000409892
2	1	0	1	0	8592.89	0.112663	0.112394	9.56595	7	0.00639629	11	0.00107516
2	1	0	1	0	8593.36	0.160106	0.159823	13.0926	7	0.0121432	11	0.0020925
2	1	0	1	0	8593.84	0.207549	0.207271	4.81417	7	0.0157605	11	0.00099784
2	1	0	1	0	8594.31	0.254991	0.254732	4.01344	7	0.0178064	11	0.00102235
2	1	0	1	0	8594.77	0.298739	0.298493	1.10802	7	0.0195827	11	0.000330736
2	0	0	1	0	8595.25	0.251296	0.250985	-2.57967	7	0.0186608	11	-0.000647459
2	0	0	1	0	8595.72	0.203853	0.203506	-3.37072	7	0.0172562	11	-0.00068596
2	0	0	1	0	8596.2	0.15641	0.156139	-6.22137	7	0.0152036	11	-0.000971396
2	0	0	1	0	8596.67	0.108968	0.108667	-13.6493	7	0.0101183	11	-0.00148323
2	0	0	1	0	8597.15	0.0615251	0.0612209	-9.25836	7	0.00475376	11	-0.000566805
2	0	0	1	0	8597.62	0.0140824	0.0137478	-6.46097	7	0.00110147	11	-8.88244e-05
2	0	0	1	0	8598.09	-0.0333603	-0.0336862	-6.96407	7	-0.00200411	11	0.000234593
2	0	0	1	0	8598.57	-0.080803	-0.0811445	-8.94944	7	-0.00570781	11	0.000726198
2	1	0	1	1	8599.04	-0.0722633	-0.0725953	4.58533	7	-0.00720879	11	-0.000332873
2	1	0	1	1	8599.51	-0.0248138	-0.0251302	5.57164	7	-0.00467537	11	-0.000140016
2	1	0	1	0	9823.6	0.0207743	0.0204736	4.2969	8	0.0004511	11	8.79731e-05
2	1	0	1	0	9824.07	0.068217	0.0679181	6.76894	8	0.00299776	11	0.000459733
2	1	0	1	0	9824.55	0.11566	0.115344	10.111	8	0.00693026	11	0.00116624
2	1	0	1	0	9825.02	0.163102	0.16283	12.09	8	0.0127982	11	0.00196862
2	1	0	1	0	9825.49	0.210545	0.210238	4.5874	8	0.0160311	11	0.000964445
2	1	0	1	0	9825.97	0.257988	0.257662	3.97886	8	0.0180278	11	0.0010252
2	0	0	1	0	9826.43	0.295742	0.295421	-1.03964	8	0.0196672	11	-0.00030713
2	0	0	1	0	9826.91	0.248293	0.248003	-2.68954	8	0.0186312	11	-0.000667014
2	0	0	1	0	9827.38	0.200857	0.200532	-3.45861	8	0.0171823	11	-0.000693562
2	0	0	1	0	9827.86	0.153414	0.153088	-6.55021	8	0.0150542	11	-0.00100276
2	0	0	1	0	9828.33	0.105971	0.105643	-13.6325	8	0.00980487	11	-0.00144018
2	0	0	1	0	9828.8	0.0585287	0.0582221	-9.16332	8	0.00450832	11	-0.000533508
2	0	0	1	0	9829.28	0.011086	0.0108005	-6.42623	8	0.000894791	11	-6.94065e-05
2	0	0	1	0	9829.75	-0.0363567	-0.0367481	-7.08503	8	-0.00223707	11	0.000260361
2	0	0	1	0	9830.23	-0.0837994	-0.0841515	-9.20058	8	-0.00602458	11	0.000774243
2	1	0	1	1	9830.7	-0.0692669	-0.0696065	5.01189	8	-0.00706088	11	-0.00034886
2	1	0	1	1	9831.17	-0.0218242	-0.0221554	5.675	8	-0.00442294	11	-0.000125732
2	1	0	1	1	9831.39	-2.44065e-05	-0.000306236	5.5478	8	-0.00319929	11	-1.69894e-06