File: Figure_codes/Fig_3-5/rawdata_trumpetplot_data/before 10th/20221101_1-115_002_TrumpetPlot_ParaChange_08_CV_C01_7.csv
mode,ox/red,error,control changes,counter inc.,time/s,control/V,Ewe/V,<I>/mA,cycle number,(Q-Qo)/C,I Range,P/W,log(|I|),Tafel slope mV/dec,alpha_eff,dI/d(E-IR),E-IR/V,
2,0,0,0,0,9790.59,2.44065e-05,-0.000382585,-2.40514,8,0.0000000E+000,11,9.20172e-07,-2.61886, , , ,-0.000382585,
2,1,0,1,0,9790.77,0.00729063,0.00699313,1.60685,8,0.000157954,11,1.12369e-05,-2.79403,0.0847458,0.6962,43.0151,0.00699313,
2,1,0,1,0,9790.96,0.014778,0.0145304,1.77684,8,0.000477783,11,2.58182e-05,-2.75035,0.21967,0.268585,18.5722,0.0145304,
2,1,0,1,0,9791.14,0.0222743,0.021962,1.88674,8,0.000822406,11,4.14366e-05,-2.72429,0.291962,0.202081,14.9182,0.021962,
2,1,0,1,0,9791.33,0.0297626,0.029488,2.00922,8,0.00118769,11,5.92479e-05,-2.69697,0.289014,0.204143,15.9753,0.029488,
2,1,0,1,0,9791.52,0.0372544,0.0369497,2.14707,8,0.00157699,11,7.93335e-05,-2.66815,0.252211,0.233931,19.5785,0.0369497,
2,1,0,1,0,9791.71,0.0447472,0.0444532,2.31182,8,0.00199539,11,0.000102768,-2.63605,0.223449,0.264043,23.9352,0.0444532,
2,1,0,1,0,9791.89,0.0522345,0.0519441,2.51854,8,0.00244857,11,0.000130823,-2.59885,0.189548,0.311267,30.6,0.0519441,
2,1,0,1,0,9792.08,0.0597309,0.0594527,2.74529,8,0.00294254,11,0.000163215,-2.56141,0.19588,0.301205,32.2112,0.0594527,
2,1,0,1,0,9792.27,0.0672182,0.0668932,2.96933,8,0.00347816,11,0.000198628,-2.52734,0.230467,0.256001,29.6754,0.06689322,
2,1,0,1,0,9792.46,0.0747074,0.0744269,3.18164,8,0.00405449,11,0.0002368,-2.49735,0.294052,0.200644,24.8129,0.0744269,
2,1,0,1,0,9792.64,0.0822019,0.081919,3.36682,8,0.00466883,11,0.000275807,-2.47278,0.328986,0.179339,23.5703,0.081919,
2,1,0,1,0,9792.83,0.0896911,0.0893636,3.54164,8,0.00531635,11,0.000316493,-2.4508,0.330483,0.178527,24.7259,0.0893636,
2,1,0,1,0,9793.02,0.097182,0.0968879,3.74304,8,0.00599921,11,0.000362655,-2.42678,0.276375,0.213478,31.1446,0.0968879,
2,1,0,1,0,9793.2,0.104675,0.104363,4.01668,8,0.00672493,11,0.000419195,-2.39613,0.204761,0.28814,45.2148,0.104363,
2,1,0,1,0,9793.39,0.112162,0.111845,4.40148,8,0.00751208,11,0.000492283,-2.3564,0.182495,0.323297,55.4828,0.1118447,
2,1,0,1,0,9793.58,0.119655,0.119356,4.85049,8,0.00837845,11,0.000578936,-2.31421,0.199281,0.296065,55.9445,0.119356,
2,1,0,1,0,9793.77,0.127146,0.126821,5.24368,8,0.00932608,11,0.000665007,-2.28036,0.240394,0.245431,50.3373,0.126821,
2,1,0,1,0,9793.95,0.134635,0.13433,5.59389,8,0.0103438,11,0.000751426,-2.25229,0.346513,0.170268,37.1714,0.13433,
2,1,0,1,0,9794.14,0.14213,0.141867,5.80343,8,0.0114159,11,0.000823314,-2.23632,0.925033,0.0637815,14.411,0.141867,
2,1,0,1,0,9794.33,0.149619,0.149332,5.66437,8,0.0124985,11,0.00084587,-2.24685,-0.23022,-0.256277,-56.4664,0.149332,
2,1,0,1,0,9794.52,0.157106,0.156834,4.92104,8,0.0134993,11,0.000771785,-2.30794,-0.0818105,-0.721179,-137.567,0.156834,
2,1,0,1,0,9794.7,0.164602,0.164295,3.83003,8,0.0143182,11,0.000629255,-2.4168,-0.0666556,-0.885147,-132.571,0.164295,
2,1,0,1,0,9794.89,0.172091,0.171806,3.04155,8,0.0149568,11,0.000522557,-2.51691,-0.0876323,-0.673268,-80.4188,0.171806,
2,1,0,1,0,9795.08,0.179582,0.179306,2.58673,8,0.0154814,11,0.000463815,-2.58725,-0.124917,-0.472314,-47.7341,0.179306,
2,1,0,1,0,9795.26,0.187074,0.186752,2.30198,8,0.0159377,11,0.000429898,-2.6379,-0.198985,-0.296504,-26.6952,0.186752,
2,1,0,1,0,9795.45,0.194563,0.194278,2.13423,8,0.0163524,11,0.000414633,-2.67076,-0.26631,-0.221546,-18.4631,0.194278,
2,1,0,1,0,9795.64,0.202059,0.201764,2.02552,8,0.0167416,11,0.000408677,-2.69346,-0.357073,-0.165233,-13.0103,0.201764,
2,1,0,1,0,9795.83,0.209546,0.209273,1.94461,8,0.0171139,11,0.000406954,-2.71117,-0.401024,-0.147123,-11.2231,0.209273,
2,1,0,1,0,9796.01,0.217035,0.216812,1.89094,8,0.017474,11,0.000409977,-2.72332,-0.817177,-0.0721997,-5.34176,0.216812,
2,1,0,1,0,9796.2,0.22453,0.224286,1.85283,8,0.0178259,11,0.000415562,-2.73217,-0.736077,-0.0801547,-5.79677,0.224286,
2,1,0,1,0,9796.39,0.232019,0.231723,1.81486,8,0.0181703,11,0.000420544,-2.74116,-1.40384,-0.0420275,-2.98715,0.231723,
2,1,0,1,0,9796.58,0.23951,0.239207,1.79586,8,0.0185091,11,0.000429583,-2.74573,-1.16542,-0.0506256,-3.53223,0.239207,
2,1,0,1,0,9796.76,0.247003,0.246731,1.76788,8,0.0188429,11,0.00043619,-2.75255,-0.971259,-0.0607459,-4.18072,0.246731,
2,1,0,1,0,9796.95,0.25449,0.25421,1.74044,8,0.0191721,11,0.000442437,-2.75934,-1.54617,-0.0381587,-2.59758,0.25421,
2,1,0,1,0,9797.14,0.261983,0.26168,1.72456,8,0.0194972,11,0.000451282,-2.76332,-1.54203,-0.0382613,-2.56485,0.26168,
2,1,0,1,0,9797.32,0.269474,0.269207,1.69507,8,0.0198184,11,0.000456325,-2.77081,-6.23475,-0.00946308,-0.629023,0.269207,
2,1,0,1,0,9797.51,0.276963,0.276656,1.68105,8,0.020136,11,0.000465074,-2.77442,-1.38516,-0.0425943,-2.79811,0.276656,
2,1,0,1,0,9797.7,0.284458,0.284217,1.6675,8,0.0204503,11,0.000473931,-2.77793,-2.24479,-0.026283,-1.70171,0.284217,
2,1,0,1,0,9797.89,0.291947,0.291668,1.64366,8,0.0207608,11,0.000479404,-2.78419,-1.05967,-0.0556775,-3.57965,0.291668,
2,1,0,1,0,9798.07,0.299434,0.299137,1.62354,8,0.0210679,11,0.000485659,-2.78954,-0.00864381,-6.82569,-326.743,0.299137,
2,0,0,1,0,9798.23,0.294196,0.293897,-0.572402,8,0.0210555,11,-0.000168227,-3.2423,-0.0431212,-1.36824,29.9931,0.293897,
2,0,0,1,0,9798.42,0.286701,0.286381,-0.728137,8,0.0209308,11,-0.000208525,-3.13779,-0.0994343,-0.593357,17.0767,0.286381,
2,0,0,1,0,9798.61,0.279212,0.27892,-0.845646,8,0.0207817,11,-0.000235868,-3.07281,-0.167211,-0.352847,11.5696,0.27892,
2,0,0,1,0,9798.79,0.271725,0.27142,-0.923999,8,0.0206151,11,-0.000250792,-3.03433,-0.182739,-0.322866,11.6657,0.27142,
2,0,0,1,0,9798.98,0.264228,0.263935,-0.993589,8,0.020434,11,-0.000262243,-3.00279,-0.269305,-0.219083,8.50019,0.263935,
2,0,0,1,0,9799.17,0.256741,0.256471,-1.05827,8,0.0202412,11,-0.000271416,-2.9754,-0.344539,-0.171243,7.02464,0.256471,
2,0,0,1,0,9799.36,0.249248,0.248931,-1.10897,8,0.0200374,11,-0.000276056,-2.95508,-0.406356,-0.145193,6.31041,0.248931,
2,0,0,1,0,9799.54,0.241756,0.241461,-1.15761,8,0.0198235,11,-0.000279516,-2.93644,-0.362706,-0.162666,7.39592,0.241461,
2,0,0,1,0,9799.73,0.234268,0.233924,-1.21438,8,0.0196002,11,-0.000284074,-2.91564,-0.364908,-0.161685,7.66966,0.233924,
2,0,0,1,0,9799.92,0.226772,0.226472,-1.2659,8,0.0193669,11,-0.000286689,-2.8976,-0.328147,-0.179797,8.89775,0.226472,
2,0,0,1,0,9800.11,0.219284,0.21894,-1.32638,8,0.0191241,11,-0.000290398,-2.87733,-0.388251,-0.151963,7.81562,0.21894,
2,0,0,1,0,9800.29,0.211796,0.211483,-1.37742,8,0.0188708,11,-0.000291301,-2.86093,-0.438755,-0.134471,7.20172,0.211483,
2,0,0,1,0,9800.48,0.204301,0.20397,-1.44321,8,0.0186056,11,-0.00029437,-2.84067,-0.464101,-0.127127,7.19429,0.20397,
2,0,0,1,0,9800.67,0.196812,0.196451,-1.51933,8,0.0183276,11,-0.000298473,-2.81835,-0.301722,-0.195545,11.5895,0.196451,
2,0,0,1,0,9800.85,0.189321,0.188999,-1.615,8,0.0180332,11,-0.000305232,-2.79183,-0.265227,-0.222451,14.0686,0.188999,
2,0,0,1,0,9801.04,0.181828,0.181509,-1.74855,8,0.017718,11,-0.000317378,-2.75732,-0.18717,-0.315222,21.5025,0.181509,
2,0,0,1,0,9801.23,0.174341,0.174019,-1.93318,8,0.0173742,11,-0.000336409,-2.71373,-0.152622,-0.386577,29.0895,0.174019,
2,0,0,1,0,9801.42,0.166848,0.166507,-2.19845,8,0.0169887,11,-0.000366058,-2.65788,-0.118315,-0.49867,42.8504,0.166507,
2,0,0,1,0,9801.6,0.159357,0.159038,-2.6154,8,0.0165398,11,-0.000415948,-2.58246,-0.0872095,-0.676532,69.2122,0.159038,
2,0,0,1,0,9801.79,0.151868,0.151534,-3.25962,8,0.0159928,11,-0.000493942,-2.48683,-0.0746908,-0.789924,100.56,0.151534,
2,0,0,1,0,9801.98,0.144373,0.14406,-4.10807,8,0.0153034,11,-0.00059181,-2.38636,-0.076823,-0.767999,123.344,0.14406,
2,0,0,1,0,9802.17,0.136884,0.136576,-4.99338,8,0.0144485,11,-0.000681974,-2.30161,-0.107136,-0.550701,106.979,0.136576,
2,0,0,1,0,9802.35,0.129393,0.129042,-5.63746,8,0.0134473,11,-0.000727469,-2.24892,-0.203156,-0.290417,63.6766,0.129042,
2,0,0,1,0,9802.54,0.1219,0.121597,-5.91382,8,0.0123591,11,-0.000719102,-2.22813,-1.3264,-0.0444812,10.2441,0.121597,
2,0,0,1,0,9802.73,0.114413,0.114063,-5.83925,8,0.0112536,11,-0.00066604,-2.23364,0.426869,0.138216,-31.4195,0.114063,
2,0,0,1,0,9802.91,0.10692,0.106608,-5.48914,8,0.0101888,11,-0.000585187,-2.2605,0.214204,0.275438,-59.0318,0.106608,
2,0,0,1,0,9803.1,0.0994284,0.0991361,-5.02077,8,0.00920201,11,-0.000497739,-2.29923,0.182523,0.323247,-63.4225,0.0991361,
2,0,0,1,0,9803.29,0.0919401,0.0915987,-4.5954,8,0.00830317,11,-0.000420932,-2.33768,0.220302,0.267814,-48.0208,0.09159869,
2,0,0,1,0,9803.48,0.0844447,0.084109,-4.29237,8,0.00747175,11,-0.000361027,-2.3673,0.317063,0.186083,-31.2157,0.084109,
2,0,0,1,0,9803.66,0.0769565,0.0766174,-4.09619,8,0.00668705,11,-0.000313839,-2.38762,0.397437,0.148451,-23.7254,0.0766174,
2,0,0,1,0,9803.85,0.0694682,0.0691222,-3.93313,8,0.00593522,11,-0.000271867,-2.40526,0.417366,0.141363,-21.6749,0.06912218,
2,0,0,1,0,9804.04,0.0619728,0.0616261,-3.75813,8,0.0052132,11,-0.000231599,-2.42503,0.347409,0.169828,-24.9606,0.0616261,
2,0,0,1,0,9804.23,0.0544836,0.0541855,-3.56738,8,0.00452622,11,-0.0001933,-2.44765,0.312245,0.188954,-26.2604,0.0541855,
2,0,0,1,0,9804.41,0.0469927,0.0466467,-3.33584,8,0.00387872,11,-0.000155606,-2.4768,0.250332,0.235687,-30.6683,0.0466467,
2,0,0,1,0,9804.6,0.0394999,0.039183,-3.1155,8,0.00327464,11,-0.000122075,-2.50647,0.265405,0.222302,-27.0061,0.039183,
2,0,0,1,0,9804.79,0.0320125,0.0316781,-2.93457,8,0.00270931,11,-9.29618e-05,-2.53246,0.315207,0.187178,-21.4053,0.0316781,
2,0,0,1,0,9804.97,0.0245198,0.0241835,-2.80446,8,0.00217174,11,-6.78216e-05,-2.55215,0.520217,0.113414,-12.4534,0.02418346,
2,0,0,1,0,9805.16,0.0170289,0.0167433,-2.74234,8,0.0016515,11,-4.59159e-05,-2.56188,1.50502,0.039202,-4.21404,0.01674334,
2,0,0,1,0,9805.35,0.0095397,0.00920947,-2.73202,8,0.00113884,11,-2.51604e-05,-2.56352,-4.34206,-0.013588,1.44441,0.00920947,
2,0,0,1,0,9805.54,0.00204518,0.00165175,-2.79825,8,0.000625715,11,-4.62201e-06,-2.55311,-0.954429,-0.061817,6.62899,0.00165175,
2,0,0,1,0,9805.58,0.000177222,-0.000156973,-2.76066,8,0.000495898,11,4.3335e-07,-2.55899, , , ,-0.000156973,