File: Figure_codes/Fig_3-5/rawdata_trumpetplot_data/before 10th/20221101_1-115_002_TrumpetPlot_ParaChange_13_CV_C01_2.csv
mode,ox/red,error,control changes,counter inc.,time/s,control/V,Ewe/V,<I>/mA,cycle number,(Q-Qo)/C,I Range,P/W,log(|I|),Tafel slope mV/dec,alpha_eff,dI/d(E-IR),E-IR/V,
2,1,0,0,0,3677.45,2.44065e-05,-0.000516197,12.6359,3,0.0000000E+000,10,-6.5226e-06,-1.89839, , , ,-0.000516197,
2,1,0,1,0,3677.47,0.0100623,0.00974112,16.6768,3,0.000370348,10,0.00016245,-1.77789,0.122248,0.482625,311.498,0.00974112,
2,1,0,1,0,3677.5,0.0204636,0.0201532,18.8528,3,0.000836599,10,0.000379945,-1.72462,0.329452,0.179085,131.47,0.0201532,
2,1,0,1,0,3677.53,0.0308677,0.0305919,19.7864,3,0.0013408,10,0.000605304,-1.70363,0.762828,0.0773438,59.6596,0.0305919,
2,1,0,1,0,3677.55,0.0412635,0.0409277,20.2399,3,0.00186149,10,0.000828371,-1.69379,1.26882,0.0465001,36.7037,0.0409277,
2,1,0,1,0,3677.58,0.051662,0.0513568,20.6536,3,0.00239296,10,0.0010607,-1.685,0.978629,0.0602884,48.6462,0.0513568,
2,1,0,1,0,3677.6,0.0620633,0.0617244,21.3106,3,0.00293793,10,0.00131539,-1.6714,0.6143,0.0960443,79.9824,0.0617244,
2,1,0,1,0,3677.63,0.0724674,0.072162,22.3935,3,0.0035054,10,0.00161596,-1.64988,0.414919,0.142196,124.345,0.07216195,
2,1,0,1,0,3677.66,0.0828632,0.0825274,23.8429,3,0.00410591,10,0.00196769,-1.62264,0.348008,0.169536,157.909,0.0825274,
2,1,0,1,0,3677.68,0.0932618,0.092913,25.7392,3,0.00474985,10,0.00239151,-1.5894,0.306289,0.192629,193.558,0.092913,
2,1,0,1,0,3677.71,0.103669,0.103327,27.8267,3,0.00544603,10,0.00287526,-1.55554,0.303684,0.194281,211.057,0.103327,
2,1,0,1,0,3677.73,0.114067,0.113752,30.082,3,0.00619873,10,0.00342189,-1.52169,0.308016,0.191548,224.716,0.113752,
2,1,0,1,0,3677.76,0.124463,0.124162,32.5208,3,0.00701209,10,0.00403785,-1.48784,0.301337,0.195794,248.614,0.124162,
2,1,0,1,0,3677.79,0.134861,0.134555,35.3926,3,0.00789416,10,0.00476226,-1.45109,0.263643,0.223788,309.586,0.134555,
2,1,0,1,0,3677.81,0.145268,0.144955,38.9773,3,0.0088599,10,0.00564994,-1.40919,0.239466,0.246382,374.761,0.144955,
2,1,0,1,0,3677.84,0.155667,0.155383,43.0791,3,0.00992605,10,0.00669375,-1.36573,0.243978,0.241825,406.322,0.155383,
2,1,0,1,0,3677.86,0.166063,0.165718,47.2696,3,0.0111014,10,0.00783344,-1.32542,0.280951,0.210001,387.311,0.165718,
2,1,0,1,0,3677.89,0.176461,0.176109,50.9186,3,0.0123806,10,0.00896724,-1.29312,0.402141,0.146715,291.129,0.176109,
2,1,0,1,0,3677.92,0.186868,0.186579,52.7862,3,0.0137349,10,0.00984879,-1.27748,6.23181,0.00946755,19.4267,0.186579,
2,1,0,1,0,3677.94,0.197267,0.196976,50.4725,3,0.0150888,10,0.00994188,-1.29695,-0.230208,-0.256289,-501.648,0.196976,
2,1,0,1,0,3677.97,0.207662,0.207443,42.3884,3,0.0163065,10,0.0087932,-1.37275,-0.0985157,-0.598889,-985.161,0.2074433,
2,1,0,1,0,3677.99,0.218061,0.217758,31.3609,3,0.0172644,10,0.00682908,-1.50361,-0.0717049,-0.822817,-1007.91,0.217758,
2,1,0,1,0,3678.02,0.228468,0.228185,22.7493,3,0.0179578,10,0.00519105,-1.64303,-0.0853848,-0.69099,-617.397,0.228185,
2,1,0,1,0,3678.05,0.238866,0.238563,18.3514,3,0.0184836,10,0.00437797,-1.73633,-0.163507,-0.360841,-260.001,0.238563,
2,1,0,1,0,3678.07,0.249262,0.248966,16.6221,3,0.0189347,10,0.00413834,-1.77931,-0.364137,-0.162027,-105.416,0.248966,
2,1,0,1,0,3678.1,0.259661,0.25936,15.9074,3,0.0193564,10,0.00412575,-1.7984,-0.737824,-0.0799649,-49.6662,0.25936,
2,1,0,1,0,3678.12,0.270068,0.269785,15.485,3,0.0197641,10,0.00417762,-1.81009,-1.04613,-0.0563982,-34.1023,0.2697846,
2,1,0,1,0,3678.15,0.280466,0.280143,15.1513,3,0.0201623,10,0.00424453,-1.81955,-1.10781,-0.053258,-31.4889,0.280143,
2,1,0,1,0,3678.18,0.290862,0.290553,14.8516,3,0.0205522,10,0.00431517,-1.82823,-1.1682,-0.0505051,-29.2496,0.290553,
2,1,0,0,0,3678.2,0.300012,0.299804,14.6063,3,0.0208893,10,0.00437902,-1.83546,0.000222971,264.608,115977,0.299804,
2,0,0,1,0,3678.22,0.290704,0.290436,-2.28028,3,0.0209849,10,-0.000662274,-2.64201,-0.0103772,-5.68553,834.992,0.290436,
2,0,0,1,0,3678.25,0.280305,0.280016,-6.75049,3,0.0208541,10,-0.00189025,-2.17066,-0.0707874,-0.833481,215.297,0.280016,
2,0,0,1,0,3678.27,0.269909,0.269635,-8.17212,3,0.0206573,10,-0.00220349,-2.08767,-0.197592,-0.298594,95.0203,0.269635,
2,0,0,1,0,3678.3,0.2595,0.259216,-8.97822,3,0.0204336,10,-0.00232729,-2.04681,-0.298399,-0.197722,69.2165,0.259216,
2,0,0,1,0,3678.33,0.249104,0.248835,-9.63206,3,0.0201915,10,-0.0023968,-2.01628,-0.396874,-0.148662,55.778,0.248835,
2,0,0,1,0,3678.35,0.238705,0.238434,-10.2297,3,0.0199333,10,-0.00243909,-1.99014,-0.398326,-0.14812,59.2117,0.238434,
2,0,0,1,0,3678.38,0.22831,0.22806,-10.8436,3,0.0196592,10,-0.00247299,-1.96483,-0.387689,-0.152184,64.5248,0.22806,
2,0,0,1,0,3678.4,0.2179,0.217563,-11.5447,3,0.0193682,10,-0.0025117,-1.93762,-0.379006,-0.15567,69.9976,0.217563,
2,0,0,1,0,3678.43,0.207504,0.207224,-12.3011,3,0.0190585,10,-0.00254907,-1.91006,-0.355093,-0.166154,79.9663,0.2072238,
2,0,0,1,0,3678.46,0.197106,0.19683,-13.2722,3,0.0187261,10,-0.00261237,-1.87706,-0.290825,-0.202871,105.339,0.19683,
2,0,0,1,0,3678.48,0.18671,0.186405,-14.5628,3,0.0183649,10,-0.00271457,-1.83676,-0.232129,-0.25417,144.481,0.186405,
2,0,0,1,0,3678.51,0.1763,0.175982,-16.3082,3,0.0179647,10,-0.00286995,-1.78759,-0.189288,-0.311694,198.663,0.1759821,
2,0,0,1,0,3678.53,0.165905,0.165623,-18.768,3,0.0175104,10,-0.00310842,-1.72658,-0.156084,-0.378002,277.357,0.165623,
2,0,0,1,0,3678.56,0.155506,0.155206,-22.1768,3,0.01698,10,-0.00344197,-1.6541,-0.1323,-0.445955,386.688,0.155206,
2,0,0,1,0,3678.59,0.145105,0.14482,-26.7535,3,0.0163458,10,-0.00387444,-1.57262,-0.12615,-0.467697,488.495,0.14482,
2,0,0,1,0,3678.61,0.134701,0.134477,-32.1674,3,0.0155804,10,-0.00432577,-1.49258,-0.13952,-0.422878,530.108,0.134477,
2,0,0,1,0,3678.64,0.124305,0.124084,-37.8352,3,0.0146704,10,-0.00469473,-1.4221,-0.162042,-0.364103,536.95,0.124084,
2,0,0,1,0,3678.66,0.113906,0.113708,-43.0747,3,0.0136166,10,-0.00489792,-1.36578,-0.211244,-0.279298,468.902,0.1137076,
2,0,0,1,0,3678.69,0.103505,0.103256,-47.327,3,0.0124377,10,-0.0048868,-1.32489,-0.33408,-0.176605,325.53,0.103256,
2,0,0,1,0,3678.72,0.0931008,0.0928494,-49.726,3,0.011171,10,-0.00461703,-1.30342,-0.957415,-0.0616242,119.314,0.0928494,
2,0,0,1,0,3678.74,0.0827051,0.082432,-49.599,3,0.0098738,10,-0.00408855,-1.30453,0.749344,0.0787355,-151.932,0.082432,
2,0,0,1,0,3678.77,0.0723065,0.0719668,-46.7718,3,0.00861651,10,-0.00336602,-1.33002,0.295553,0.199626,-363.803,0.0719668,
2,0,0,1,0,3678.79,0.0618996,0.0615992,-42.5957,3,0.00745417,10,-0.00262386,-1.37063,0.242257,0.243543,-404.992,0.0615992,
2,0,0,1,0,3678.82,0.0515011,0.0511924,-38.6043,3,0.00640019,10,-0.00197625,-1.41336,0.247002,0.238864,-359.693,0.0511924,
2,0,0,1,0,3678.85,0.0411053,0.0407739,-34.9509,3,0.00544483,10,-0.00142508,-1.45654,0.226919,0.260005,-354.486,0.04077391,
2,0,0,1,0,3678.87,0.0307068,0.0303628,-31.2515,3,0.00458413,10,-0.000948883,-1.50513,0.20239,0.291516,-355.731,0.0303628,
2,0,0,1,0,3678.9,0.0202999,0.0199846,-27.7575,3,0.0038186,10,-0.000554724,-1.55662,0.213807,0.27595,-299.162,0.01998464,
2,0,0,1,0,3678.92,0.00990136,0.0096128,-25.1768,3,0.00313355,10,-0.00024202,-1.599,0.312192,0.188986,-186.023,0.0096128,
2,0,0,1,0,3678.95,-0.000494411,-0.000878856,-23.8684,3,0.00249871,10,2.09769e-05,-1.62218,0.721866,0.0817326,-76.1666,-0.000878856,
2,0,0,1,0,3678.98,-0.010893,-0.011256,-23.3642,3,0.0018862,10,0.000262988,-1.63145,4.29557,0.0137351,-12.5447,-0.011256,
2,0,0,1,0,3679,-0.0212998,-0.0216342,-23.4551,3,0.00127836,10,0.000507431,-1.62976,-2.05087,-0.0287683,26.3342,-0.0216342,
2,0,0,1,0,3679.03,-0.0316984,-0.0320994,-23.8403,3,0.00066413,10,0.000765258,-1.62269,-1.17847,-0.0500648,46.566,-0.0320994,
2,0,0,1,0,3679.05,-0.0420942,-0.0424224,-24.3863,3,3.72873e-05,10,0.00103453,-1.61285,-0.969207,-0.0608745,58.0102,-0.0424224,
2,0,0,1,0,3679.08,-0.0524927,-0.0528218,-25.0607,3,-0.00060566,10,0.00132375,-1.60101,-0.844064,-0.0699,68.3823,-0.0528218,
2,0,0,1,0,3679.11,-0.0628996,-0.0632594,-25.8037,3,-0.00126668,10,0.00163233,-1.58832,-0.815883,-0.0723143,72.7657,-0.0632594,
2,0,0,1,0,3679.13,-0.0732982,-0.073645,-26.5674,3,-0.00194731,10,0.00195656,-1.57565,-0.766081,-0.0770153,79.916,-0.073645,
2,0,0,1,0,3679.16,-0.0836939,-0.0840211,-27.4615,3,-0.00264966,10,0.00230734,-1.56128,-0.707386,-0.0834057,89.3817,-0.0840211,
2,0,0,1,0,3679.18,-0.0940925,-0.0944333,-28.4799,3,-0.00337655,10,0.00268945,-1.54546,-0.623376,-0.0946459,105.167,-0.0944333,
2,0,0,1,1,3679.2,-0.0978574,-0.0983239,-22.3754,3,-0.00394596,10,0.00220003,-1.65023,-0.0176897,-3.33528,2714.73,-0.0983239,
2,0,0,1,1,3679.23,-0.0874588,-0.087898,-1.58336,3,-0.00422435,10,0.000139174,-2.80042,-0.0154327,-3.82305,1410.21,-0.087898,
2,1,0,1,1,3679.26,-0.077052,-0.0775261,9.37154,3,-0.00410777,10,-0.00072654,-2.02819,0.026326,2.24113,782.051,-0.07752613,
2,1,0,1,1,3679.28,-0.0666562,-0.0670355,15.6205,3,-0.00377465,10,-0.00104713,-1.80631,0.0808114,0.730095,440.377,-0.0670355,
2,1,0,1,1,3679.31,-0.0562576,-0.0566351,19.061,3,-0.00331866,10,-0.00107952,-1.71986,0.184679,0.319472,236.725,-0.0566351,
2,1,0,1,1,3679.33,-0.0458563,-0.0462208,20.8941,3,-0.00279649,10,-0.000965744,-1.67998,0.388636,0.151813,123.477,-0.0462208,
2,1,0,1,1,3679.36,-0.0354522,-0.035815,21.7764,3,-0.0022403,10,-0.000779921,-1.66201,0.921633,0.0640168,54.3048,-0.035815,
2,1,0,1,1,3679.39,-0.0250564,-0.0253955,22.0852,3,-0.00166914,10,-0.000560864,-1.6559,4.51724,0.0130611,11.2554,-0.0253955,
2,1,0,1,1,3679.41,-0.0146579,-0.0149621,22.0723,3,-0.00109447,10,-0.000330248,-1.65615,-4.36059,-0.0135303,-11.6481,-0.0149621,
2,1,0,1,1,3679.44,-0.00425653,-0.00465284,21.8432,3,-0.000523241,10,-0.000101633,-1.66068,-1.77467,-0.0332457,-28.349,-0.00465284,
2,1,0,0,1,3679.45,-7.54729e-05,-0.000439847,21.712,3,-0.000294449,10,-9.54999e-06,-1.6633, , , ,-0.000439847,