File: Figure_codes/Fig_3-5/rawdata_trumpetplot_data/before 10th/20221101_1-115_002_TrumpetPlot_ParaChange_15_CV_C01_2.csv
mode,ox/red,error,control changes,counter inc.,time/s,control/V,Ewe/V,<I>/mA,cycle number,(Q-Qo)/C,I Range,P/W,log(|I|),Tafel slope mV/dec,alpha_eff,dI/d(E-IR),E-IR/V,
2,1,0,0,0,3680.98,2.44065e-05,-0.00099338,33.2331,3,0.0000000E+000,10,-3.30131e-05,-1.47843, , , ,-0.00099338,
2,1,0,1,0,3681,0.0121015,0.0117898,34.8781,3,0.000509449,10,0.000411206,-1.45745,0.388215,0.151978,206.459,0.0117898,
2,1,0,1,0,3681.02,0.0249027,0.0246006,37.1493,3,0.00108742,10,0.000913894,-1.43005,0.620293,0.0951163,137.427,0.0246006,
2,1,0,1,0,3681.03,0.0377094,0.0373986,38.4687,3,0.0016935,10,0.00143868,-1.41489,1.17182,0.0503491,75.4286,0.0373986,
2,1,0,1,0,3681.05,0.0505051,0.0501808,39.2363,3,0.00231556,10,0.00196891,-1.40631,1.63139,0.0361655,55.3643,0.0501808,
2,1,0,1,0,3681.06,0.0633063,0.0629534,39.9757,3,0.00294904,10,0.0025166,-1.3982,1.31165,0.0449814,70.2698,0.0629534,
2,1,0,1,0,3681.08,0.0761019,0.0757832,41.1314,3,0.00359739,10,0.00311707,-1.38583,0.781569,0.0754892,121.532,0.07578323,
2,1,0,1,0,3681.1,0.0889087,0.0885325,43.1144,3,0.00427064,10,0.00381702,-1.36538,0.540994,0.109058,183.861,0.0885325,
2,1,0,1,0,3681.11,0.101702,0.101306,45.7808,3,0.00498138,10,0.00463788,-1.33932,0.42752,0.138005,247.461,0.101306,
2,1,0,1,0,3681.13,0.114506,0.114179,49.4487,3,0.00574294,10,0.00564603,-1.30585,0.378508,0.155875,300.873,0.114179,
2,1,0,1,0,3681.14,0.127301,0.126948,53.5159,3,0.00656645,10,0.00679373,-1.27152,0.36063,0.163603,342.051,0.126948,
2,1,0,1,0,3681.16,0.140105,0.139758,58.1645,3,0.00745978,10,0.00812893,-1.23534,0.344674,0.171176,389.098,0.139758,
2,1,0,1,0,3681.18,0.152904,0.15256,63.5537,3,0.00843313,10,0.00969574,-1.19686,0.322458,0.18297,454.419,0.15256,
2,1,0,1,0,3681.19,0.165705,0.16536,69.8337,3,0.00949984,10,0.0115477,-1.15594,0.310014,0.190314,518.797,0.16536,
2,1,0,1,0,3681.21,0.178506,0.178164,76.7187,3,0.0106724,10,0.0136685,-1.1151,0.32473,0.181689,543.458,0.178164,
2,1,0,1,0,3681.22,0.191302,0.190913,83.4871,3,0.0119556,10,0.0159387,-1.07838,0.386971,0.152466,495.656,0.190913,
2,1,0,1,0,3681.24,0.204108,0.203777,88.9248,3,0.0133386,10,0.0181209,-1.05098,0.66792,0.0883339,304.926,0.203777,
2,1,0,1,0,3681.26,0.216904,0.21664,90.523,3,0.0147818,10,0.0196109,-1.04324,-1.64848,-0.0357904,-125.166,0.2166402,
2,1,0,1,0,3681.27,0.229705,0.229476,85.0208,3,0.0161965,10,0.0195103,-1.07047,-0.257329,-0.229278,-750.815,0.229476,
2,1,0,1,0,3681.29,0.242501,0.242321,71.8527,3,0.0174583,10,0.0174114,-1.14356,-0.135026,-0.436954,-1213.14,0.242321,
2,1,0,1,0,3681.3,0.255308,0.255085,55.454,3,0.0184751,10,0.0141455,-1.25607,-0.104858,-0.562668,-1218.52,0.255085,
2,1,0,1,0,3681.32,0.268101,0.267857,41.8604,3,0.0192459,10,0.0112126,-1.3782,-0.114234,-0.516483,-854.01,0.267857,
2,1,0,1,0,3681.34,0.280905,0.28067,33.7162,3,0.019843,10,0.00946311,-1.47216,-0.17327,-0.340508,-453.87,0.28067,
2,1,0,1,0,3681.35,0.2937,0.293414,29.7025,3,0.0203459,10,0.00871513,-1.52721,-0.319264,-0.1848,-216.247,0.293414,
2,1,0,1,0,3681.36,0.298983,0.298956,25.2671,3,0.0206096,10,0.00755377,-1.59744,0.0128785,4.58128,2952.67,0.298956,
2,0,0,1,0,3681.38,0.286187,0.28603,-1.71516,3,0.0207594,10,-0.000490588,-2.76569,0.557737,0.105785,1269.43,0.28603,
2,0,0,1,0,3681.39,0.273386,0.273143,-11.9012,3,0.0206371,10,-0.00325073,-1.92441,-0.0492564,-1.19781,509.795,0.273143,
2,0,0,1,0,3681.41,0.260585,0.26037,-16.2447,3,0.020407,10,-0.00422965,-1.78929,-0.156001,-0.378203,235.53,0.26037,
2,0,0,1,0,3681.42,0.247783,0.247513,-18.5055,3,0.0201272,10,-0.00458035,-1.7327,-0.302784,-0.194858,139.91,0.247513,
2,0,0,1,0,3681.44,0.234982,0.234684,-20.0332,3,0.0198183,10,-0.00470147,-1.69825,-0.424695,-0.138923,108.406,0.234684,
2,0,0,1,0,3681.46,0.222187,0.22194,-21.3576,3,0.0194869,10,-0.00474011,-1.67045,-0.464097,-0.127128,106.009,0.2219401,
2,0,0,1,0,3681.47,0.20938,0.209094,-22.773,3,0.0191338,10,-0.0047617,-1.64258,-0.440118,-0.134055,119.33,0.209094,
2,0,0,1,0,3681.49,0.196587,0.196357,-24.4705,3,0.018756,10,-0.00480494,-1.61136,-0.375328,-0.157196,150.512,0.196357,
2,0,0,1,0,3681.5,0.183783,0.183522,-26.7181,3,0.0183471,10,-0.00490336,-1.57319,-0.300718,-0.196197,205.216,0.183522,
2,0,0,1,0,3681.52,0.170987,0.170722,-29.8072,3,0.0178959,10,-0.00508876,-1.52568,-0.239749,-0.246091,287.484,0.170722,
2,0,0,1,0,3681.54,0.158183,0.157928,-34.1756,3,0.0173855,10,-0.00539728,-1.46628,-0.19663,-0.300056,401.808,0.157928,
2,0,0,1,0,3681.55,0.145385,0.14516,-40.1265,3,0.0167925,10,-0.00582478,-1.39657,-0.173216,-0.340615,535.269,0.14516,
2,0,0,1,0,3681.57,0.132584,0.1324,-47.8111,3,0.0160902,10,-0.00633021,-1.32047,-0.168373,-0.350412,654.126,0.1324,
2,0,0,1,0,3681.58,0.119782,0.119623,-56.4509,3,0.0152552,10,-0.0067528,-1.24833,-0.1867,-0.316016,696.287,0.119623,
2,0,0,1,0,3681.6,0.106987,0.106827,-65.5032,3,0.0142781,10,-0.00699749,-1.18374,-0.22076,-0.267259,680.895,0.106827,
2,0,0,1,0,3681.62,0.0941801,0.094019,-73.8144,3,0.0131619,10,-0.00693996,-1.13186,-0.281316,-0.209729,602.064,0.09401904,
2,0,0,1,0,3681.63,0.0813844,0.0811457,-80.6594,3,0.0119224,10,-0.00654516,-1.09335,-0.418344,-0.141032,441.982,0.0811457,
2,0,0,1,0,3681.65,0.0685832,0.0683614,-84.8542,3,0.0105936,10,-0.00580076,-1.07133,-0.993655,-0.0593767,195.599,0.0683614,
2,0,0,1,0,3681.66,0.0557876,0.0555093,-85.5187,3,0.00922533,10,-0.00474708,-1.06794,2.10866,0.0279798,-92.9018,0.0555093,
2,0,0,1,0,3681.68,0.0429808,0.0427038,-82.708,3,0.00787577,10,-0.00353195,-1.08245,0.599132,0.0984758,-316.793,0.0427038,
2,0,0,1,0,3681.7,0.030188,0.0299164,-77.8024,3,0.00659058,10,-0.00232757,-1.10901,0.42451,0.138984,-421.427,0.0299164,
2,0,0,1,0,3681.71,0.017384,0.0171194,-72.1716,3,0.00539054,10,-0.00123554,-1.14163,0.362327,0.162836,-457.97,0.0171194,
2,0,0,1,0,3681.73,0.00458834,0.00429593,-65.9427,3,0.00428514,10,-0.000283285,-1.18083,0.30163,0.195604,-502.939,0.00429593,
2,0,0,1,0,3681.74,-0.00821564,-0.00854984,-59.3894,3,0.00328255,10,0.00050777,-1.22629,0.27389,0.215415,-499.855,-0.00854984,
2,0,0,1,0,3681.76,-0.0210196,-0.021349,-53.703,3,0.00238072,10,0.0011465,-1.27,0.338981,0.174051,-366.395,-0.021349,
2,0,0,1,0,3681.78,-0.0338153,-0.0341247,-50.1254,3,0.00155335,10,0.00171052,-1.29994,0.586699,0.100563,-197.621,-0.0341247,
2,0,0,1,0,3681.79,-0.0466193,-0.0469504,-48.488,3,0.000766645,10,0.00227653,-1.31437,1.57328,0.0375012,-71.1944,-0.0469504,
2,0,0,1,0,3681.81,-0.0594121,-0.0597452,-48.1375,3,-5.16965e-06,10,0.00287598,-1.31752,-11.2657,-0.00523713,9.86255,-0.05974523,
2,0,0,1,0,3681.82,-0.0722189,-0.0725104,-48.6298,3,-0.000778714,10,0.00352616,-1.3131,-1.94407,-0.0303486,57.6655,-0.0725104,
2,0,0,1,0,3681.84,-0.0850146,-0.0853636,-49.6122,3,-0.00156425,10,0.00423508,-1.30441,-1.23607,-0.0477321,92.4846,-0.0853636,
2,0,0,1,0,3681.86,-0.0978158,-0.0981076,-50.9719,3,-0.00236862,10,0.00500073,-1.29267,-0.989467,-0.0596281,118.672,-0.0981076,
2,0,0,1,0,3681.87,-0.110611,-0.110908,-52.6163,3,-0.00319719,10,0.00583555,-1.27888,-0.846719,-0.0696808,143.228,-0.110908,
2,0,0,1,0,3681.89,-0.123418,-0.123723,-54.6078,3,-0.00405504,10,0.00675623,-1.26275,-0.750451,-0.0786194,167.694,-0.123723,
2,0,0,1,0,3681.9,-0.136214,-0.136529,-56.8877,3,-0.00494705,10,0.00776684,-1.24498,-0.698762,-0.0844351,187.581,-0.1365293,
2,0,0,1,0,3681.92,-0.149015,-0.149321,-59.4268,3,-0.0058777,10,0.00887366,-1.22602,-0.669632,-0.0881081,204.362,-0.149321,
2,0,0,1,0,3681.94,-0.161816,-0.162117,-62.1267,3,-0.00685016,10,0.0100718,-1.20672,-0.662273,-0.0890872,215.98,-0.162117,
2,0,0,1,0,3681.95,-0.174615,-0.174908,-64.9375,3,-0.00786691,10,0.0113581,-1.1875,-0.653777,-0.0902448,228.806,-0.174908,
2,0,0,1,0,3681.97,-0.187419,-0.187668,-67.9507,3,-0.00893032,10,0.0127522,-1.16781,-0.644506,-0.091543,242.88,-0.187668,
2,0,0,1,0,3681.98,-0.199647,-0.199879,-71.0309,3,-0.00999382,10,0.0141976,-1.14855,0.438849,0.134443,-359.863,-0.199879,
2,0,0,1,1,3681.99,-0.192535,-0.193,-50.1951,3,-0.0106061,10,0.00968767,-1.29934,-0.0472484,-1.24872,2449.36,-0.193,
2,0,0,1,1,3682.01,-0.179739,-0.180155,-24.2382,3,-0.0111876,10,0.00436665,-1.6155,-0.0310928,-1.89754,1729.13,-0.1801555,
2,0,0,1,1,3682.03,-0.166932,-0.167389,-5.06412,3,-0.0114132,10,0.000847679,-2.2955,-0.0179346,-3.28974,1313.37,-0.167389,
2,1,0,1,1,3682.04,-0.154139,-0.154598,9.6103,3,-0.0113706,10,-0.00148573,-2.01726,0.0168425,3.50304,1011.8,-0.154598,
2,1,0,1,1,3682.06,-0.141335,-0.141816,21.1165,3,-0.0111202,10,-0.00299467,-1.67538,0.0587278,1.00464,798.786,-0.141816,
2,1,0,1,1,3682.07,-0.12854,-0.128976,30.1133,3,-0.0107061,10,-0.00388389,-1.52124,0.112406,0.524881,607.937,-0.128976,
2,1,0,1,1,3682.09,-0.115736,-0.116136,36.9013,3,-0.0101667,10,-0.00428556,-1.43296,0.183826,0.320956,458.564,-0.116136,
2,1,0,1,1,3682.11,-0.102932,-0.103333,41.967,3,-0.00953323,10,-0.00433658,-1.37709,0.284813,0.207154,337.503,-0.103333,
2,1,0,1,1,3682.12,-0.0901362,-0.0904652,45.6092,3,-0.00883053,10,-0.00412605,-1.34095,0.433976,0.135952,241.251,-0.0904652,
2,1,0,1,1,3682.14,-0.0773322,-0.0776629,48.2044,3,-0.00807842,10,-0.0037437,-1.31691,0.666069,0.0885795,166.241,-0.07766293,
2,1,0,1,1,3682.15,-0.0645393,-0.0648808,49.9478,3,-0.00729207,10,-0.00324065,-1.30148,1.03335,0.0570958,111.122,-0.0648808,
2,1,0,1,1,3682.17,-0.0517325,-0.0520414,51.1053,3,-0.00648281,10,-0.00265959,-1.29153,1.6791,0.0351379,69.9811,-0.0520414,
2,1,0,1,1,3682.19,-0.0389369,-0.0392751,51.7451,3,-0.00565938,10,-0.00203229,-1.28613,3.45642,0.0170697,34.4423,-0.0392751,
2,1,0,1,1,3682.2,-0.0261357,-0.0264824,51.9801,3,-0.00482889,10,-0.00137656,-1.28416,31.5377,0.00187078,3.79262,-0.0264824,
2,1,0,1,1,3682.22,-0.01334,-0.013696,51.8498,3,-0.00399764,10,-0.000710134,-1.28525,-5.14832,-0.01146,-23.1771,-0.013696,
2,1,0,1,1,3682.23,-0.000774628,-0.00112858,51.4145,3,-0.00318652,10,-5.80255e-05,-1.28891, , , ,-0.00112858,
2,1,0,0,1,3682.23,-0.000125413,-0.000439847,51.3944,3,-0.00314539,10,-2.26057e-05,-1.28908, , , ,-0.000439847,