File: Figure_codes/Fig_3-5/rawdata_trumpetplot_data/before 10th/20221101_1-115_002_TrumpetPlot_ParaChange_16_CV_C01_4.csv
mode,ox/red,error,control changes,counter inc.,time/s,control/V,Ewe/V,<I>/mA,cycle number,(Q-Qo)/C,I Range,P/W,log(|I|),Tafel slope mV/dec,alpha_eff,dI/d(E-IR),E-IR/V,
2,1,0,1,0,6145.59,2.44065e-05,-0.00103155,64.227,5,0.0000000E+000,10,-6.62536e-05,-1.19228, , , ,-0.00103155,
2,1,0,1,0,6145.6,0.0131086,0.0127474,54.9481,5,0.000749146,10,0.000700444,-1.26005,-0.807631,-0.0730532,-159.013,0.0127474,
2,1,0,1,0,6145.62,0.0271416,0.02682,54.412,5,0.00151319,10,0.00145933,-1.26431,-12.3978,-0.00475889,-10.1106,0.02682,
2,1,0,1,0,6145.63,0.0411248,0.04074,54.3869,5,0.0022744,10,0.00221572,-1.26451,13.505,0.00436874,9.28036,0.04074,
2,1,0,1,0,6145.65,0.0551079,0.0547363,54.6101,5,0.00303726,10,0.00298915,-1.26273,5.16065,0.0114327,24.3904,0.0547363,
2,1,0,1,0,6145.66,0.0691409,0.0687898,55.2112,5,0.00380507,10,0.00379797,-1.25797,1.87401,0.0314833,67.9371,0.0687898,
2,1,0,1,0,6145.67,0.083124,0.0827681,56.448,5,0.00458616,10,0.0046721,-1.24835,1.14934,0.0513338,113.367,0.0827681,
2,1,0,1,0,6145.69,0.0971071,0.0967591,58.4884,5,0.00538992,10,0.00565929,-1.23293,0.728336,0.0810066,185.536,0.0967591,
2,1,0,1,0,6145.7,0.11114,0.110826,61.5573,5,0.00622969,10,0.00682218,-1.21072,0.573237,0.102924,247.63,0.110826,
2,1,0,1,0,6145.72,0.125123,0.124778,65.3927,5,0.00711777,10,0.00815958,-1.18447,0.502843,0.117333,299.754,0.124778,
2,1,0,1,0,6145.73,0.139106,0.13876,69.8749,5,0.00806438,10,0.00969582,-1.15568,0.464971,0.12689,346.545,0.13876,
2,1,0,1,0,6145.74,0.153139,0.152783,75.0388,5,0.00907876,10,0.0114646,-1.12471,0.444403,0.132762,389.156,0.152783,
2,1,0,1,0,6145.76,0.167123,0.16677,80.8381,5,0.0101697,10,0.0134814,-1.09238,0.423516,0.13931,439.863,0.16677,
2,1,0,1,0,6145.77,0.181106,0.180763,87.3143,5,0.0113468,10,0.0157832,-1.05891,0.419959,0.14049,478.826,0.180763,
2,1,0,1,0,6145.79,0.195139,0.194786,94.0474,5,0.0126174,10,0.0183191,-1.02665,0.470403,0.125424,459.55,0.1947863,
2,1,0,1,0,6145.8,0.209122,0.208795,99.9816,5,0.0139776,10,0.0208757,-1.00008,0.644354,0.0915646,355.813,0.208795,
2,1,0,1,0,6145.81,0.223105,0.222828,103.516,5,0.0154065,10,0.0230663,-0.984992,2.37524,0.0248396,99.5795,0.222828,
2,1,0,1,0,6145.83,0.237138,0.236845,102.059,5,0.0168531,10,0.0241721,-0.99115,-0.654192,-0.0901876,-354.977,0.2368452,
2,1,0,1,0,6145.84,0.251121,0.250931,93.4631,5,0.0182292,10,0.0234527,-1.02936,-0.251739,-0.234369,-844.653,0.250931,
2,1,0,1,0,6145.86,0.265104,0.26493,79.2784,5,0.0194408,10,0.0210032,-1.10085,-0.168601,-0.34994,-1077.06,0.26493,
2,1,0,1,0,6145.87,0.279137,0.278989,64.3382,5,0.0204428,10,0.0179496,-1.19153,-0.152971,-0.385693,-972.76,0.2789889,
2,1,0,1,0,6145.88,0.29312,0.292897,52.6827,5,0.021256,10,0.0154306,-1.27833,-0.176705,-0.333891,-697.984,0.292897,
2,1,0,1,0,6145.89,0.298714,0.298755,44.0457,5,0.0216628,10,0.0131589,-1.3561,0.022514,2.62059,3424.25,0.2987549,
2,1,0,1,0,6145.91,0.28473,0.284633,10.3094,5,0.0220089,10,0.00293441,-1.98676,0.0073225,8.05736,1642.3,0.284633,
2,0,0,1,0,6145.92,0.270747,0.270639,-5.69616,5,0.0220268,10,-0.0015416,-2.24442,-0.022008,-2.68084,821.411,0.270639,
2,0,0,1,0,6145.94,0.256714,0.256496,-14.0249,5,0.0218816,10,-0.00359733,-1.8531,-0.0689073,-0.856223,440.022,0.256496,
2,0,0,1,0,6145.95,0.242731,0.242519,-18.7784,5,0.021649,10,-0.00455413,-1.72634,-0.156515,-0.376962,270.887,0.242519,
2,0,0,1,0,6145.96,0.228748,0.228491,-21.8891,5,0.0213629,10,-0.00500146,-1.65977,-0.255103,-0.231279,196.587,0.228491,
2,0,0,1,0,6145.98,0.214715,0.214478,-24.3689,5,0.0210378,10,-0.00522659,-1.61316,-0.343817,-0.171603,162.962,0.214478,
2,0,0,1,0,6145.99,0.200732,0.200455,-26.6314,5,0.0206806,10,-0.0053384,-1.57461,-0.371451,-0.158836,165.038,0.200455,
2,0,0,1,0,6146.01,0.186735,0.18649,-29.1,5,0.020291,10,-0.00542684,-1.53611,-0.338681,-0.174205,198.373,0.18649,
2,0,0,1,0,6146.02,0.172716,0.172434,-32.2097,5,0.019862,10,-0.00555405,-1.49201,-0.293469,-0.201044,253.929,0.172434,
2,0,0,1,0,6146.03,0.158733,0.158458,-36.4055,5,0.0193829,10,-0.00576874,-1.43883,-0.239223,-0.246632,352.296,0.158458,
2,0,0,1,0,6146.05,0.144719,0.144523,-42.2442,5,0.0188341,10,-0.00610526,-1.37423,-0.202088,-0.291952,483.389,0.144523,
2,0,0,1,0,6146.06,0.130717,0.130487,-49.9142,5,0.01819,10,-0.00651318,-1.30178,-0.190224,-0.310161,605.204,0.130487,
2,0,0,1,0,6146.08,0.116733,0.116527,-59.0291,5,0.0174279,10,-0.0068785,-1.22893,-0.198505,-0.297221,683.674,0.116527,
2,0,0,1,0,6146.09,0.102703,0.102518,-68.7378,5,0.0165329,10,-0.00704687,-1.1628,-0.232022,-0.254287,679.22,0.102518,
2,0,0,1,0,6146.1,0.0887173,0.0886025,-77.8381,5,0.0155058,10,-0.00689665,-1.10881,-0.289995,-0.203452,615.136,0.0886025,
2,0,0,1,0,6146.12,0.0747342,0.0746284,-85.7135,5,0.0143585,10,-0.00639666,-1.06695,-0.389511,-0.151472,504.801,0.07462845,
2,0,0,1,0,6146.13,0.0607011,0.0604519,-91.8929,5,0.0131121,10,-0.0055551,-1.03672,-0.624163,-0.0945265,336.946,0.0604519,
2,0,0,1,0,6146.15,0.046718,0.0464778,-95.0533,5,0.0117996,10,-0.00441787,-1.02203,-1.87484,-0.0314693,116.113,0.0464778,
2,0,0,1,0,6146.16,0.0327349,0.0324635,-95.1581,5,0.0104648,10,-0.00308916,-1.02155,2.6129,0.0225802,-83.5397,0.0324635,
2,0,0,1,0,6146.17,0.0187018,0.0184598,-93.1038,5,0.00914577,10,-0.00171867,-1.03103,1.1059,0.0533502,-193.383,0.0184598,
2,0,0,1,0,6146.19,0.00471873,0.00443696,-89.8737,5,0.00786442,10,-0.000398766,-1.04637,0.81153,0.0727022,-254.628,0.00443696,
2,0,0,1,0,6146.2,-0.00926438,-0.00958056,-85.7611,5,0.00663352,10,0.000821639,-1.06671,0.571432,0.103249,-344.605,-0.00958056,
2,0,0,1,0,6146.22,-0.0232974,-0.0236384,-80.3288,5,0.0054701,10,0.00189884,-1.09513,0.435804,0.135382,-423.401,-0.02363837,
2,0,0,1,0,6146.23,-0.0372805,-0.0376283,-74.2348,5,0.00438925,10,0.00279333,-1.12939,0.420312,0.140372,-407.406,-0.0376283,
2,0,0,1,0,6146.24,-0.0512636,-0.0515652,-69.2611,5,0.00338745,10,0.00357147,-1.15951,0.553419,0.10661,-289.299,-0.0515652,
2,0,0,1,0,6146.26,-0.0652967,-0.0656655,-66.186,5,0.00244199,10,0.00434614,-1.17923,0.938976,0.0628344,-162.801,-0.0656655,
2,0,0,1,0,6146.27,-0.0792798,-0.079612,-64.5725,5,0.00152841,10,0.00514074,-1.18995,2.09105,0.0282155,-71.3078,-0.079612,
2,0,0,1,0,6146.29,-0.0932629,-0.0935934,-64.1176,5,0.000628763,10,0.00600098,-1.19302,72.791,0.00081054,-2.03169,-0.0935934,
2,0,0,1,0,6146.3,-0.107296,-0.107641,-64.4973,5,-0.000270583,10,0.00694253,-1.19046,-3.12562,-0.0188762,47.5506,-0.107641,
2,0,0,1,0,6146.31,-0.121279,-0.121573,-65.3465,5,-0.00117903,10,0.00794439,-1.18478,-1.98125,-0.0297792,76.0246,-0.121573,
2,0,0,1,0,6146.33,-0.135262,-0.13553,-66.6159,5,-0.00210243,10,0.00902848,-1.17642,-1.49523,-0.0394588,102.662,-0.1355304,
2,0,0,1,0,6146.34,-0.149295,-0.149561,-68.2699,5,-0.0030464,10,0.0102105,-1.16577,-1.24239,-0.0474891,126.538,-0.149561,
2,0,0,1,0,6146.36,-0.163278,-0.163571,-70.0928,5,-0.00401497,10,0.0114651,-1.15433,-1.16658,-0.0505752,138.42,-0.163571,
2,0,0,1,0,6146.37,-0.177261,-0.177496,-72.1321,5,-0.0050105,10,0.0128032,-1.14187,-1.08415,-0.0544203,153.247,-0.177496,
2,0,0,1,0,6146.38,-0.191295,-0.191569,-74.4773,5,-0.00603644,10,0.0142675,-1.12798,-0.966341,-0.061055,177.425,-0.191569,
2,0,0,1,1,6146.39,-0.199984,-0.20057,-75.7226,5,-0.00673669,10,0.0151877,-1.12077,-0.0338568,-1.74263,4444.57,-0.2005704,
2,0,0,1,1,6146.41,-0.186686,-0.187141,-43.2886,5,-0.00749223,10,0.00810109,-1.36363,-0.0495028,-1.19185,1995.25,-0.187141,
2,0,0,1,1,6146.42,-0.172667,-0.173108,-19.5315,5,-0.0079211,10,0.00338107,-1.70926,-0.0281819,-2.09354,1467.3,-0.173108,
2,0,0,1,1,6146.43,-0.158684,-0.159111,-1.52658,5,-0.00806153,10,0.000242895,-2.81628,-0.0764352,-0.771896,1145.61,-0.159111,
2,1,0,1,1,6146.45,-0.14467,-0.145143,12.6951,5,-0.00797847,10,-0.0018426,-1.89636,0.0267991,2.20157,912.909,-0.145143,
2,1,0,1,1,6146.46,-0.130668,-0.13111,24.2099,5,-0.0077163,10,-0.00317415,-1.61601,0.0730835,0.807295,735.06,-0.13111,
2,1,0,1,1,6146.48,-0.116685,-0.11705,33.439,5,-0.00730946,10,-0.00391402,-1.47575,0.129624,0.455161,584.287,-0.11705,
2,1,0,1,1,6146.49,-0.102654,-0.10304,40.7862,5,-0.00678764,10,-0.0042026,-1.38949,0.199587,0.29561,466.047,-0.10304,
2,1,0,1,1,6146.5,-0.0886685,-0.0890464,46.5234,5,-0.00617411,10,-0.00414274,-1.33233,0.293737,0.20086,362.709,-0.0890464,
2,1,0,1,1,6146.52,-0.0746854,-0.0750352,51.021,5,-0.00548956,10,-0.00382837,-1.29225,0.416386,0.141695,280.947,-0.0750352,
2,1,0,1,1,6146.53,-0.0606523,-0.0610124,54.5574,5,-0.00474967,10,-0.00332868,-1.26315,0.56586,0.104266,221.177,-0.0610124,
2,1,0,1,1,6146.55,-0.0466692,-0.0470013,57.1579,5,-0.00396656,10,-0.00268649,-1.24292,0.816838,0.0722297,160.795,-0.0470013,
2,1,0,1,1,6146.56,-0.0326861,-0.0330474,59.0893,5,-0.00315194,10,-0.00195275,-1.22849,1.1844,0.0498141,114.643,-0.0330474,
2,1,0,1,1,6146.57,-0.018653,-0.0189948,60.4653,5,-0.0023147,10,-0.00114853,-1.21849,1.81751,0.0324621,76.4254,-0.0189948,
2,1,0,1,1,6146.59,-0.00466992,-0.00502081,61.1692,5,-0.00146246,10,-0.000307119,-1.21347, , , ,-0.00502081,
2,1,0,1,1,6146.59,-0.000175352,-0.000497109,61.2968,5,-0.00118692,10,-3.04712e-05,-1.21256, , , ,-0.000497109,