File: Figure_codes/Fig_3-5/rawdata_trumpetplot_data/before 10th/20221101_1-115_002_TrumpetPlot_ParaChange_06_CV_C01_5.csv
mode,ox/red,error,control changes,counter inc.,time/s,control/V,Ewe/V,<I>/mA,cycle number,(Q-Qo)/C,I Range,P/W,log(|I|),Tafel slope mV/dec,alpha_eff,dI/d(E-IR),E-IR/V,
2,0,0,1,0,7237.13,2.44065e-05,-0.000363498,-0.524913,6,0.0000000E+000,11,1.90805e-07,-3.27991, , , ,-0.000363498,
2,1,0,1,0,7237.86,0.00729063,0.00699254,0.39988,6,0.000241215,11,2.79618e-06,-3.39807,0.106747,0.552708,8.56653,0.00699254,
2,1,0,1,0,7238.61,0.0147814,0.0144576,0.446145,6,0.000570285,11,6.45019e-06,-3.35052,0.198378,0.297413,5.1901,0.0144576,
2,1,0,1,0,7239.35,0.0222725,0.0220015,0.47823,6,0.000927702,11,1.05218e-05,-3.32036,0.325861,0.181059,3.37021,0.0220015,
2,1,0,1,0,7240.1,0.0297635,0.0294625,0.509682,6,0.00130736,11,1.50165e-05,-3.2927,0.300996,0.196016,3.8967,0.0294625,
2,1,0,1,0,7240.85,0.0372544,0.0369575,0.542049,6,0.00171079,11,2.00328e-05,-3.26596,0.246682,0.239174,5.08132,0.0369575,
2,1,0,1,0,7241.6,0.0447458,0.0445014,0.588166,6,0.00214314,11,2.61742e-05,-3.2305,0.209148,0.282097,6.44825,0.0445014,
2,1,0,1,0,7242.35,0.0522363,0.0519135,0.641979,6,0.00261234,11,3.33274e-05,-3.19248,0.164936,0.357715,8.93393,0.0519135,
2,1,0,1,0,7243.1,0.0597282,0.059436,0.706919,6,0.00312659,11,4.20164e-05,-3.15063,0.173182,0.340681,9.39154,0.059436,
2,1,0,1,0,7243.85,0.0672182,0.0669861,0.774928,6,0.0036909,11,5.19094e-05,-3.11074,0.19733,0.298991,9.00974,0.0669861,
2,1,0,1,0,7244.6,0.0747092,0.0743909,0.836851,6,0.00430431,11,6.22541e-05,-3.07735,0.266246,0.2216,7.22917,0.0743909,
2,1,0,1,0,7245.35,0.0822001,0.081905,0.887516,6,0.00496255,11,7.2692e-05,-3.05182,0.33674,0.175209,6.10158,0.08190497,
2,1,0,1,0,7246.1,0.0896911,0.0893893,0.944453,6,0.00566003,11,8.4424e-05,-3.02482,0.296976,0.198669,7.32285,0.0893893,
2,1,0,1,0,7246.85,0.097182,0.0969182,0.998783,6,0.00639815,11,9.68003e-05,-3.00053,0.226525,0.260457,10.1567,0.0969182,
2,1,0,1,0,7247.59,0.104673,0.104407,1.09002,6,0.00718709,11,0.000113806,-2.96257,0.181868,0.324411,13.7467,0.1044068,
2,1,0,1,0,7248.34,0.112164,0.111842,1.20728,6,0.00805289,11,0.000135025,-2.91819,0.156903,0.376028,17.6647,0.111842,
2,1,0,1,0,7249.09,0.119655,0.119395,1.35798,6,0.00902223,11,0.000162136,-2.86711,0.169413,0.348261,18.4526,0.119395,
2,1,0,1,0,7249.84,0.127146,0.126874,1.49452,6,0.0101034,11,0.000189615,-2.8255,0.189547,0.311268,18.1989,0.126874,
2,1,0,1,0,7250.59,0.134637,0.134344,1.614,6,0.0112824,11,0.000216832,-2.7921,0.336748,0.175205,11.0285,0.134344,
2,1,0,1,0,7251.34,0.142127,0.14184,1.65264,6,0.0125224,11,0.00023441,-2.78182,-2.53419,-0.0232816,-1.49417,0.14184,
2,1,0,1,0,7252.09,0.149619,0.149329,1.53434,6,0.0137368,11,0.000229121,-2.81408,-0.127498,-0.462753,-27.5281,0.1493288,
2,1,0,1,0,7252.84,0.157109,0.156848,1.25999,6,0.0147979,11,0.000197627,-2.89963,-0.0708124,-0.833187,-40.8241,0.156848,
2,1,0,1,0,7253.59,0.164601,0.164308,0.985554,6,0.0156435,11,0.000161935,-3.00632,-0.0725421,-0.81332,-31.3026,0.164308,
2,1,0,1,0,7254.34,0.172091,0.171808,0.798092,6,0.0163163,11,0.000137119,-3.09795,-0.103615,-0.569416,-17.8802,0.171808,
2,1,0,1,0,7255.09,0.179582,0.179303,0.699066,6,0.0168845,11,0.000125345,-3.15548,-0.163305,-0.361288,-9.87874,0.179303,
2,1,0,1,0,7255.83,0.187074,0.186843,0.638085,6,0.0173926,11,0.000119222,-3.19512,-0.251038,-0.235024,-5.83638,0.186843,
2,1,0,1,0,7256.58,0.194564,0.194233,0.598856,6,0.0178644,11,0.000116317,-3.22268,-0.377338,-0.156359,-3.65438,0.194233,
2,1,0,1,0,7257.33,0.202056,0.201801,0.572065,6,0.018312,11,0.000115443,-3.24255,-0.379158,-0.155608,-3.4639,0.201801,
2,1,0,1,0,7258.08,0.209546,0.209268,0.554713,6,0.0187432,11,0.000116084,-3.25593,-0.507565,-0.116241,-2.51474,0.209268,
2,1,0,1,0,7258.83,0.217038,0.216757,0.537349,6,0.0191617,11,0.000116474,-3.26974,-0.811656,-0.0726909,-1.53085,0.216757,
2,1,0,1,0,7259.58,0.224528,0.224275,0.52648,6,0.0195711,11,0.000118076,-3.27862,-0.873388,-0.067553,-1.38844,0.224275,
2,1,0,1,0,7260.33,0.232019,0.231726,0.520552,6,0.0199728,11,0.000120625,-3.28354,-1.29972,-0.0453945,-0.919797,0.231726,
2,1,0,1,0,7261.08,0.23951,0.239257,0.51016,6,0.0203684,11,0.000122059,-3.29229,-2.23255,-0.0264272,-0.525675,0.239257,
2,1,0,1,0,7261.83,0.247001,0.24672,0.50529,6,0.0207588,11,0.000124665,-3.29646,-1.18426,-0.04982,-0.979803,0.2467197,
2,1,0,1,0,7262.58,0.254492,0.254226,0.497854,6,0.0211445,11,0.000126568,-3.3029,-1.32609,-0.0444916,-0.865711,0.254226,
2,1,0,1,0,7263.33,0.261983,0.261694,0.494331,6,0.021526,11,0.000129363,-3.30598,-1.13139,-0.0521481,-1.00336,0.261694,
2,1,0,1,0,7264.07,0.269474,0.269227,0.486957,6,0.0219038,11,0.000131102,-3.31251,2.18823,0.0269624,0.512576,0.269227,
2,1,0,1,0,7264.82,0.276965,0.276683,0.483256,6,0.022278,11,0.000133708,-3.31582,-0.824857,-0.0715275,-1.35281,0.276683,
2,1,0,1,0,7265.57,0.284456,0.284166,0.479667,6,0.022649,11,0.000136305,-3.31906,-2.20038,-0.0268135,-0.50162,0.284166,
2,1,0,1,0,7266.32,0.291947,0.29164,0.472859,6,0.0230166,11,0.000137904,-3.32527,-1.04888,-0.0562505,-1.04228,0.2916396,
2,1,0,1,0,7267.07,0.299437,0.299174,0.469109,6,0.0233812,11,0.000140345,-3.32873,-0.00121112,-48.7154,-275.048,0.299174,
2,0,0,1,0,7267.76,0.293745,0.293427,-0.112477,6,0.0233633,11,-3.30039e-05,-3.94894,-0.027436,-2.15046,8.97988,0.293427,
2,0,0,1,0,7268.5,0.286253,0.285962,-0.161403,6,0.0232487,11,-4.61552e-05,-3.79209,-0.0661347,-0.892119,5.64638,0.285962,
2,0,0,1,0,7269.25,0.278763,0.278464,-0.19192,6,0.0231047,11,-5.34429e-05,-3.71688,-0.106944,-0.551691,4.16081,0.278464,
2,0,0,1,0,7270,0.271272,0.270988,-0.219312,6,0.0229393,11,-5.9431e-05,-3.65894,-0.16642,-0.354526,3.03137,0.270988,
2,0,0,1,0,7270.75,0.263781,0.263491,-0.23908,6,0.0227561,11,-6.29955e-05,-3.62146,-0.200993,-0.293543,2.77444,0.263491,
2,0,0,1,0,7271.5,0.25629,0.256016,-0.26042,6,0.0225576,11,-6.66718e-05,-3.58433,-0.265102,-0.222556,2.2638,0.256016,
2,0,0,1,0,7272.25,0.248799,0.248491,-0.278226,6,0.0223448,11,-6.91366e-05,-3.5556,-0.265344,-0.222353,2.42453,0.248491,
2,0,0,1,0,7273,0.241308,0.240999,-0.295957,6,0.0221189,11,-7.13252e-05,-3.52877,-0.304634,-0.193675,2.23686,0.240999,
2,0,0,1,0,7273.75,0.233817,0.233506,-0.315357,6,0.02188,11,-7.36379e-05,-3.5012,-0.281561,-0.209546,2.56665,0.233506,
2,0,0,1,0,7274.5,0.226326,0.226053,-0.330481,6,0.021628,11,-7.47064e-05,-3.48085,-0.445282,-0.1325,1.71765,0.226053,
2,0,0,1,0,7275.25,0.218835,0.218551,-0.349657,6,0.0213623,11,-7.64179e-05,-3.45636,-0.305947,-0.192844,2.63508,0.218551,
2,0,0,1,0,7276,0.211344,0.211026,-0.368306,6,0.0210825,11,-7.77223e-05,-3.43379,-0.331768,-0.177835,2.57411,0.211026,
2,0,0,1,0,7276.74,0.203854,0.203535,-0.390921,6,0.0207864,11,-7.95662e-05,-3.40791,-0.30935,-0.190723,2.93192,0.203535,
2,0,0,1,0,7277.49,0.196362,0.19608,-0.421958,6,0.0204719,11,-8.27375e-05,-3.37473,-0.227142,-0.25975,4.27613,0.19608,
2,0,0,1,0,7278.24,0.188872,0.188538,-0.456062,6,0.0201338,11,-8.59849e-05,-3.34098,-0.169811,-0.347445,6.17359,0.188538,
2,0,0,1,0,7278.99,0.18138,0.181072,-0.503118,6,0.0197651,11,-9.11006e-05,-3.29833,-0.16054,-0.367511,7.22843,0.181072,
2,0,0,1,0,7279.74,0.17389,0.173565,-0.574554,6,0.0193536,11,-9.97227e-05,-3.24067,-0.114505,-0.51526,11.5005,0.173565,
2,0,0,1,0,7280.49,0.166398,0.166086,-0.677692,6,0.0188777,11,-0.000112555,-3.16897,-0.0940969,-0.627013,16.6986,0.166086,
2,0,0,1,0,7281.24,0.158907,0.158603,-0.848302,6,0.0182993,11,-0.000134543,-3.07145,-0.0672305,-0.877578,29.2232,0.158603,
2,0,0,1,0,7281.99,0.151417,0.151134,-1.1075,6,0.01756,11,-0.000167381,-2.95566,-0.0664799,-0.887486,38.3544,0.1511336,
2,0,0,1,0,7282.74,0.143925,0.14365,-1.39715,6,0.0166105,11,-0.000200701,-2.85476,-0.0829535,-0.711242,38.6068,0.14365,
2,0,0,1,0,7283.49,0.136435,0.136102,-1.61095,6,0.0154658,11,-0.000219254,-2.79292,-0.192226,-0.30693,19.1888,0.136102,
2,0,0,1,0,7284.24,0.128943,0.128647,-1.68473,6,0.0142145,11,-0.000216736,-2.77347,23.9384,0.00246466,-0.161016,0.128647,
2,0,0,1,0,7284.98,0.121453,0.121189,-1.62665,6,0.0129603,11,-0.000197132,-2.78871,0.288834,0.204269,-12.946,0.121189,
2,0,0,1,0,7285.73,0.113962,0.113679,-1.49981,6,0.0117748,11,-0.000170497,-2.82396,0.171663,0.343696,-20.159,0.113679,
2,0,0,1,0,7286.48,0.106471,0.106178,-1.35812,6,0.0106924,11,-0.000144202,-2.86706,0.173015,0.34101,-18.1673,0.106178,
2,0,0,1,0,7287.23,0.0989799,0.0986785,-1.24537,6,0.00970887,11,-0.000122891,-2.9047,0.250927,0.235128,-11.4085,0.09867847,
2,0,0,1,0,7287.98,0.0914889,0.0911888,-1.1712,6,0.00879759,11,-0.000106801,-2.93137,0.334024,0.176634,-8.05195,0.0911888,
2,0,0,1,0,7288.73,0.083998,0.083696,-1.11211,6,0.00793488,11,-9.30788e-05,-2.95385,0.297414,0.198377,-8.59806,0.083696,
2,0,0,1,0,7289.48,0.076507,0.0761544,-1.06855,6,0.00710857,11,-8.1375e-05,-2.9712,0.35691,0.165308,-6.87848,0.0761544,
2,0,0,1,0,7290.23,0.0690161,0.0686902,-1.01187,6,0.00631889,11,-6.95058e-05,-2.99487,0.324148,0.182016,-7.21894,0.0686902,
2,0,0,1,0,7290.98,0.0615251,0.0612599,-0.953215,6,0.0055697,11,-5.83938e-05,-3.02081,0.27896,0.2115,-7.90608,0.0612599,
2,0,0,1,0,7291.73,0.0540342,0.0537331,-0.895808,6,0.00486704,11,-4.81346e-05,-3.04779,0.273225,0.215939,-7.52017,0.0537331,
2,0,0,1,0,7292.48,0.0465441,0.0462055,-0.83648,6,0.00420917,11,-3.86499e-05,-3.07754,0.314392,0.187664,-6.14471,0.0462055,
2,0,0,1,0,7293.22,0.0390523,0.0387294,-0.796333,6,0.00358793,11,-3.08415e-05,-3.09891,0.3299,0.178842,-5.55572,0.0387294,
2,0,0,1,0,7293.97,0.0315618,0.0312592,-0.770465,6,0.00299195,11,-2.40842e-05,-3.11325,0.665842,0.0886096,-2.66285,0.0312592,
2,0,0,1,0,7294.72,0.0240704,0.0238,-0.757881,6,0.00241005,11,-1.80375e-05,-3.1204,2.26821,0.0260117,-0.771532,0.0238,
2,0,0,1,0,7295.47,0.0165796,0.016265,-0.759068,6,0.00183223,11,-1.23462e-05,-3.11972,-1.05963,-0.0556798,1.64823,0.016265,
2,0,0,1,0,7296.22,0.00908846,0.00880478,-0.765633,6,0.00125116,11,-6.74123e-06,-3.11598,-0.915255,-0.0644629,1.92892,0.00880478,
2,0,0,1,0,7296.97,0.00159728,0.0012576,-0.789919,6,0.00065964,11,-9.93404e-07,-3.10242, , , ,0.0012576,
2,0,0,1,0,7297.11,0.000199195,-0.000155446,-0.782641,6,0.000547747,11,1.21659e-07,-3.10644, , , ,-0.0001554464,