File: Figure_codes/Fig_3-5/rawdata_trumpetplot_data/before 10th/20221101_1-115_002_TrumpetPlot_ParaChange_11_CV_C01_2.csv
mode,ox/red,error,control changes,counter inc.,time/s,control/V,Ewe/V,<I>/mA,cycle number,(Q-Qo)/C,I Range,P/W,log(|I|),Tafel slope mV/dec,alpha_eff,dI/d(E-IR),E-IR/V,
2,0,0,1,0,3665.25,2.44065e-05,0.000781741,-6.72283,3,0.0000000E+000,11,-5.25551e-06,-2.17245, , , ,0.000781741,
2,1,0,1,0,3665.34,0.00978761,0.00949814,3.61803,3,5.57568e-05,11,3.43646e-05,-2.44153,0.0453624,1.30064,177.456,0.009498137,
2,1,0,1,0,3665.44,0.0197755,0.0194794,4.21562,3,0.000457434,11,8.21178e-05,-2.37514,0.496307,0.118878,19.6043,0.0194794,
2,1,0,1,0,3665.54,0.0297635,0.0294635,4.40893,3,0.000888361,11,0.000129902,-2.35567,0.643291,0.0917159,15.7597,0.0294635,
2,1,0,1,0,3665.64,0.0397514,0.0394593,4.62256,3,0.00133855,11,0.000182403,-2.33512,0.314269,0.187738,33.9209,0.0394593,
2,1,0,1,0,3665.74,0.0497484,0.0494752,4.94977,3,0.00181517,11,0.000244891,-2.30542,0.306813,0.192299,37.0809,0.0494752,
2,1,0,1,0,3665.84,0.0597273,0.0594362,5.40281,3,0.00232947,11,0.000321123,-2.26738,0.225397,0.261761,55.1521,0.0594362,
2,1,0,1,0,3665.94,0.0697152,0.0694533,6.0076,3,0.00289831,11,0.000417248,-2.2213,0.222896,0.264698,62.1755,0.0694533,
2,1,0,1,0,3666.04,0.0797031,0.0794471,6.73941,3,0.00353429,11,0.000535427,-2.17138,0.210673,0.280055,73.5771,0.0794471,
2,1,0,1,0,3666.14,0.0896911,0.0893876,7.45768,3,0.00424352,11,0.000666624,-2.1274,0.231437,0.254929,74.268,0.0893876,
2,1,0,1,0,3666.24,0.099679,0.0993785,8.1732,3,0.0050234,11,0.00081224,-2.08761,0.270213,0.218347,69.5245,0.0993785,
2,1,0,1,0,3666.34,0.109667,0.109359,8.94674,3,0.00587582,11,0.000978404,-2.04834,0.231163,0.255231,89.1224,0.109359,
2,1,0,1,0,3666.44,0.119655,0.119341,10.0657,3,0.00682034,11,0.00120126,-1.99715,0.172362,0.342302,134.489,0.119341,
2,1,0,1,0,3666.54,0.129643,0.129331,11.6739,3,0.00790229,11,0.00150979,-1.93279,0.145478,0.405559,184.771,0.129331,
2,1,0,1,0,3666.64,0.139631,0.139337,13.5252,3,0.00916162,11,0.00188455,-1.86886,0.17155,0.343922,181.519,0.139337,
2,1,0,1,0,3666.74,0.149619,0.149307,15.0794,3,0.0105942,11,0.00225146,-1.82161,0.294277,0.200492,117.722,0.149307,
2,1,0,1,0,3666.84,0.159607,0.159335,15.5248,3,0.0121359,11,0.00247365,-1.80897,-0.654929,-0.0900861,-54.4379,0.159335,
2,1,0,1,0,3666.94,0.169595,0.169334,13.5221,3,0.0136129,11,0.00228975,-1.86896,-0.0848315,-0.695496,-364.942,0.169334,
2,1,0,1,0,3667.04,0.179582,0.179305,9.17629,3,0.0147495,11,0.00164536,-2.03733,-0.0524725,-1.1244,-404.249,0.179305,
2,1,0,1,0,3667.14,0.18957,0.18931,6.47421,3,0.0155093,11,0.00122564,-2.18881,-0.0956747,-0.616673,-156.53,0.18931,
2,1,0,1,0,3667.24,0.199558,0.199246,5.46165,3,0.0160979,11,0.00108821,-2.26268,-0.189963,-0.310586,-66.2135,0.199246,
2,1,0,1,0,3667.34,0.209546,0.209282,4.9277,3,0.0166142,11,0.00103128,-2.30736,-0.231693,-0.254648,-49.04,0.209282,
2,1,0,1,0,3667.44,0.219534,0.219272,4.58738,3,0.0170875,11,0.00100588,-2.33844,-0.434846,-0.13568,-24.3118,0.219272,
2,1,0,1,0,3667.54,0.229522,0.229299,4.36404,3,0.017534,11,0.00100067,-2.36011,-0.549561,-0.107358,-18.3208,0.229299,
2,1,0,1,0,3667.64,0.23951,0.239226,4.22443,3,0.0179627,11,0.00101059,-2.37423,-1.074,-0.0549346,-9.06651,0.239226,
2,1,0,1,0,3667.74,0.249498,0.249245,4.12264,3,0.0183786,11,0.00102755,-2.38482,-0.903808,-0.0652794,-10.4793,0.249245,
2,1,0,1,0,3667.84,0.259486,0.259235,4.03324,3,0.0187851,11,0.00104556,-2.39435,-0.815968,-0.0723068,-11.3683,0.259235,
2,1,0,1,0,3667.94,0.269474,0.269205,3.95133,3,0.0191834,11,0.00106372,-2.40326,-1.48888,-0.0396271,-6.11435,0.269205,
2,1,0,1,0,3668.04,0.279462,0.279201,3.88599,3,0.0195747,11,0.00108497,-2.4105,-1.19879,-0.0492163,-7.46085,0.279201,
2,1,0,1,0,3668.14,0.28945,0.28921,3.8215,3,0.0199593,11,0.00110522,-2.41777,-3.90724,-0.0151002,-2.25163,0.28921,
2,1,0,1,0,3668.24,0.299438,0.29916,3.76486,3,0.0203377,11,0.00112629,-2.42425,-0.0236506,-2.49466,-328.398,0.29916,
2,0,0,1,0,3668.33,0.291747,0.291433,-1.6301,3,0.0203111,11,-0.000475067,-2.78778,-0.064642,-0.912719,57.5641,0.291433,
2,0,0,1,0,3668.43,0.281759,0.281438,-2.00552,3,0.0201277,11,-0.000564429,-2.69777,-0.159836,-0.369127,28.8029,0.281438,
2,0,0,1,0,3668.53,0.271771,0.27147,-2.26817,3,0.0199142,11,-0.000615741,-2.64432,-0.201344,-0.29303,25.8518,0.27147,
2,0,0,1,0,3668.63,0.261783,0.261461,-2.46998,3,0.0196775,11,-0.000645803,-2.60731,-0.344486,-0.17127,16.4993,0.261461,
2,0,0,1,0,3668.73,0.251795,0.251557,-2.6488,3,0.0194218,11,-0.000666325,-2.57695,-0.330355,-0.178596,18.4674,0.251557,
2,0,0,1,0,3668.83,0.241807,0.241537,-2.81419,3,0.0191484,11,-0.00067973,-2.55065,-0.336002,-0.175594,19.3746,0.241537,
2,0,0,1,0,3668.93,0.231815,0.231522,-2.99648,3,0.0188582,11,-0.000693752,-2.52339,-0.359228,-0.164241,19.2153,0.231522,
2,0,0,1,0,3669.03,0.221831,0.221511,-3.17742,3,0.0185504,11,-0.000703832,-2.49793,-0.374573,-0.157513,19.5206,0.221511,
2,0,0,1,0,3669.13,0.211843,0.211522,-3.39777,3,0.0182223,11,-0.000718705,-2.46881,-0.373451,-0.157986,20.936,0.211522,
2,0,0,1,0,3669.23,0.201856,0.201584,-3.66875,3,0.0178698,11,-0.00073956,-2.43548,-0.284288,-0.207536,29.7656,0.201584,
2,0,0,1,0,3669.33,0.191868,0.191608,-4.04887,3,0.0174854,11,-0.000775796,-2.39267,-0.206066,-0.286315,45.3335,0.191608,
2,0,0,1,0,3669.43,0.18188,0.181559,-4.61217,3,0.017056,11,-0.00083738,-2.33609,-0.148807,-0.396487,71.167,0.181559,
2,0,0,1,0,3669.53,0.171892,0.17157,-5.46481,3,0.0165569,11,-0.000937597,-2.26242,-0.117545,-0.501934,107.02,0.17157,
2,0,0,1,0,3669.63,0.161904,0.161622,-6.83814,3,0.0159481,11,-0.0011052,-2.16506,-0.0910233,-0.648185,173.207,0.161622,
2,0,0,1,0,3669.73,0.151916,0.151644,-8.92216,3,0.0151659,11,-0.00135299,-2.04953,-0.0846033,-0.697372,243.516,0.151644,
2,0,0,1,0,3669.83,0.141928,0.141633,-11.5496,3,0.0141435,11,-0.0016358,-1.93743,-0.100954,-0.584422,263.073,0.141633,
2,0,0,1,0,3669.93,0.13194,0.131646,-13.9114,3,0.0128683,11,-0.00183138,-1.85663,-0.161581,-0.365143,197.861,0.131646,
2,0,0,1,0,3670.03,0.121952,0.121683,-15.2922,3,0.0113993,11,-0.0018608,-1.81553,-0.540424,-0.109173,64.9726,0.121683,
2,0,0,1,0,3670.13,0.111964,0.111682,-15.1269,3,0.00986532,11,-0.0016894,-1.82025,0.328567,0.179568,-105.785,0.111682,
2,0,0,1,0,3670.23,0.101976,0.1017,-13.3101,3,0.00843395,11,-0.00135363,-1.87582,0.131158,0.449839,-233.397,0.1017,
2,0,0,1,0,3670.33,0.0919883,0.0916813,-11.1454,3,0.00721748,11,-0.00102182,-1.95291,0.152319,0.387345,-168.908,0.0916813,
2,0,0,1,0,3670.43,0.0820004,0.0816904,-9.85447,3,0.00617629,11,-0.000805015,-2.00637,0.238041,0.247856,-95.3469,0.0816904,
2,0,0,1,0,3670.53,0.0720124,0.0717176,-9.07627,3,0.00523332,11,-0.000650928,-2.04209,0.287411,0.205281,-72.7059,0.07171759,
2,0,0,1,0,3670.63,0.0620245,0.0617508,-8.344,3,0.0043626,11,-0.000515249,-2.07863,0.232849,0.253383,-82.5096,0.0617508,
2,0,0,1,0,3670.73,0.0520366,0.051728,-7.53883,3,0.00356943,11,-0.000389968,-2.1227,0.211144,0.27943,-82.112,0.051728,
2,0,0,1,0,3670.83,0.0420486,0.0417693,-6.83338,3,0.00285369,11,-0.000285425,-2.16536,0.305075,0.193395,-51.7084,0.0417693,
2,0,0,1,0,3670.93,0.0320607,0.0317326,-6.44063,3,0.00219366,11,-0.000204378,-2.19107,0.542244,0.108807,-27.3297,0.0317326,
2,0,0,1,0,3671.03,0.0220728,0.0217622,-6.26016,3,0.00156135,11,-0.000136235,-2.20341,1.87851,0.0314078,-7.6805,0.0217622,
2,0,0,1,0,3671.13,0.0120848,0.0117955,-6.25128,3,0.000937267,11,-7.37372e-05,-2.20403,-13.6473,-0.0043232,1.05511,0.0117955,
2,0,0,1,0,3671.23,0.0020969,0.00179554,-6.40629,3,0.00030898,11,-1.15027e-05,-2.19339,-0.600562,-0.0982413,24.3876,0.00179554,
2,0,0,1,0,3671.33,-0.00789103,-0.00824241,-6.49041,3,-0.00033425,11,5.34966e-05,-2.18773,-0.782655,-0.0753845,19.152,-0.00824241,
2,0,0,1,0,3671.43,-0.017879,-0.0181952,-6.72149,3,-0.000993838,11,0.000122299,-2.17253,-0.582606,-0.101269,26.5315,-0.0181952,
2,0,0,1,0,3671.53,-0.0278669,-0.0282284,-6.96898,3,-0.00167702,11,0.000196723,-2.15683,-0.688255,-0.085724,23.3267,-0.0282284,
2,0,0,1,0,3671.63,-0.0378548,-0.0382045,-7.25449,3,-0.00238715,11,0.000277155,-2.13939,-0.622392,-0.0947956,26.8141,-0.0382045,
2,0,0,1,0,3671.73,-0.0478428,-0.0482276,-7.56262,3,-0.00312718,11,0.000364727,-2.12133,-0.452997,-0.130244,38.5086,-0.0482276,
2,0,0,1,0,3671.83,-0.0578216,-0.0581738,-7.95341,3,-0.00390141,11,0.00046268,-2.09945,-0.426794,-0.13824,42.9041,-0.0581738,
2,0,0,1,0,3671.93,-0.0678187,-0.0681567,-8.41573,3,-0.00471816,11,0.000573588,-2.07491,-0.366323,-0.16106,52.8917,-0.0681567,
2,0,0,1,0,3672.03,-0.0778066,-0.0781678,-8.99071,3,-0.00558679,11,0.000702784,-2.04621,-0.344967,-0.171031,60.0448,-0.0781678,
2,0,0,1,0,3672.13,-0.0877945,-0.0881532,-9.67303,3,-0.00651851,11,0.000852709,-2.01444,-0.309141,-0.190852,72.0428,-0.0881532,
2,0,0,1,0,3672.23,-0.0977825,-0.0981318,-10.3398,3,-0.00751919,11,0.00101466,-1.98549,-0.376006,-0.156913,63.3467,-0.0981318,
2,1,0,1,1,3672.32,-0.0927386,-0.093124,0.732415,3,-0.00799486,11,-6.82054e-05,-3.13524,0.0118729,4.96929,662.706,-0.093124,
2,1,0,1,1,3672.42,-0.0827529,-0.0830945,3.94147,3,-0.00772342,11,-0.000327514,-2.40434,0.059414,0.993033,150.923,-0.0830945,
2,1,0,1,1,3672.52,-0.0727627,-0.0730937,4.89049,3,-0.00727597,11,-0.000357464,-2.31065,0.186081,0.317066,60.1965,-0.0730937,
2,1,0,1,1,3672.62,-0.0627748,-0.0631113,5.32075,3,-0.00676431,11,-0.0003358,-2.27403,0.380215,0.155175,32.2463,-0.0631113,
2,1,0,1,1,3672.72,-0.0527868,-0.0531014,5.57125,3,-0.00621907,11,-0.000295841,-2.25405,0.963895,0.06121,13.2933,-0.0531014,
2,1,0,1,1,3672.82,-0.0427989,-0.0431117,5.68549,3,-0.00565648,11,-0.000245111,-2.24523,1.15746,0.0509735,11.3228,-0.0431117,
2,1,0,1,1,3672.92,-0.0328109,-0.033149,5.74151,3,-0.00508651,11,-0.000190325,-2.24097,9.51267,0.00620226,1.38744,-0.033149,
2,1,0,1,1,3673.02,-0.022823,-0.0231583,5.72399,3,-0.00451485,11,-0.000132558,-2.2423,-5.75525,-0.0102515,-2.28726,-0.0231583,
2,1,0,1,1,3673.12,-0.0128351,-0.0131446,5.66521,3,-0.00394625,11,-7.4467e-05,-2.24678,-1.69454,-0.0348176,-7.7076,-0.0131446,
2,1,0,1,1,3673.22,-0.00284713,-0.00320087,5.60544,3,-0.00338327,11,-1.79423e-05,-2.25139,-1.50231,-0.0392729,-8.5871,-0.00320087,
2,1,0,0,1,3673.25,-2.55332e-05,-0.000344411,5.56982,3,-0.00322626,11,-1.91831e-06,-2.25416, , , ,-0.000344411,