File: Figure_codes/Fig_3-5/rawdata_trumpetplot_data/before 10th/20221101_1-115_002_TrumpetPlot_ParaChange_12_CV_C01_2.csv
mode,ox/red,error,control changes,counter inc.,time/s,control/V,Ewe/V,<I>/mA,cycle number,(Q-Qo)/C,I Range,P/W,log(|I|),Tafel slope mV/dec,alpha_eff,dI/d(E-IR),E-IR/V,
2,1,0,0,0,3673.35,2.44065e-05,-0.000325324,7.30338,3,0.0000000E+000,10,-2.37596e-06,-2.13648, , , ,-0.000325324,
2,1,0,1,0,3673.4,0.00977853,0.00947168,9.67893,3,0.000420287,10,9.16757e-05,-2.01417,0.174356,0.338389,126.976,0.00947168,
2,1,0,1,0,3673.45,0.0197755,0.0194622,10.2804,3,0.000923169,10,0.00020008,-1.98799,1.0715,0.0550632,22.1113,0.0194622,
2,1,0,1,0,3673.5,0.0297726,0.0295142,10.4382,3,0.00144159,10,0.000308076,-1.98137,2.90551,0.0203063,8.25804,0.0295142,
2,1,0,1,0,3673.55,0.0397514,0.0394312,10.5548,3,0.00196514,10,0.000416189,-1.97655,0.942806,0.0625792,25.8345,0.03943117,
2,1,0,1,0,3673.6,0.0497393,0.0494449,10.8645,3,0.00249889,10,0.000537193,-1.96399,0.647148,0.0911692,38.5966,0.0494449,
2,1,0,1,0,3673.65,0.0597364,0.0594371,11.3629,3,0.00305339,10,0.000675378,-1.94451,0.379062,0.155648,69.113,0.0594371,
2,1,0,1,0,3673.7,0.0697152,0.0694341,12.1647,3,0.00363976,10,0.000844641,-1.9149,0.315492,0.187009,88.8324,0.0694341,
2,1,0,1,0,3673.75,0.0796941,0.0793712,13.1936,3,0.0042716,10,0.00104719,-1.87964,0.253821,0.232447,119.766,0.0793712,
2,1,0,1,0,3673.8,0.0896911,0.0893807,14.4025,3,0.00496183,10,0.00128731,-1.84156,0.264333,0.223203,125.504,0.0893807,
2,1,0,1,0,3673.85,0.099679,0.0993471,15.6538,3,0.00571196,10,0.00155515,-1.80538,0.284566,0.207333,126.627,0.0993471,
2,1,0,1,0,3673.9,0.109658,0.109386,16.9151,3,0.00652441,10,0.00185027,-1.77173,0.29118,0.202624,133.797,0.109386,
2,1,0,1,0,3673.95,0.119655,0.119359,18.3952,3,0.00740604,10,0.00219563,-1.7353,0.257996,0.228685,164.314,0.1193591,
2,1,0,1,0,3674,0.129652,0.129342,20.3913,3,0.00837321,10,0.00263745,-1.69055,0.204822,0.288054,229.205,0.129342,
2,1,0,1,0,3674.05,0.139631,0.13931,22.9791,3,0.00945362,10,0.00320121,-1.63867,0.18997,0.310576,278.584,0.13931,
2,1,0,1,0,3674.1,0.149619,0.149337,25.8385,3,0.0106718,10,0.00385866,-1.58773,0.2114,0.279092,281.084,0.149337,
2,1,0,1,0,3674.15,0.159616,0.159348,28.3182,3,0.0120288,10,0.00451244,-1.54793,0.321005,0.183798,203.076,0.159348,
2,1,0,1,0,3674.2,0.169595,0.169258,29.5845,3,0.0134812,10,0.0050074,-1.52894,7.44741,0.00792222,9.11982,0.169258,
2,1,0,1,0,3674.25,0.179573,0.179268,27.6638,3,0.0149274,10,0.00495924,-1.55809,-0.148182,-0.398159,-428.363,0.179268,
2,1,0,1,0,3674.3,0.18957,0.189282,21.2822,3,0.0161655,10,0.00402833,-1.67198,-0.0642943,-0.917656,-759.98,0.189282,
2,1,0,1,0,3674.35,0.199558,0.199264,14.3775,3,0.0170436,10,0.00286491,-1.84232,-0.0640562,-0.921066,-518.887,0.199264,
2,1,0,1,0,3674.4,0.209537,0.209221,10.9785,3,0.0176614,10,0.00229694,-1.95946,-0.124883,-0.472443,-202.765,0.209221,
2,1,0,1,0,3674.45,0.219534,0.219244,9.73288,3,0.0181741,10,0.00213387,-2.01176,-0.292894,-0.201438,-76.6553,0.219244,
2,1,0,1,0,3674.5,0.229531,0.229196,9.14203,3,0.0186451,10,0.00209532,-2.03896,-0.428136,-0.137807,-49.1689,0.229196,
2,1,0,1,0,3674.55,0.23951,0.239224,8.7357,3,0.0190909,10,0.00208979,-2.0587,-0.720798,-0.0818537,-27.9703,0.239224,
2,1,0,1,0,3674.6,0.249498,0.249179,8.45853,3,0.0195195,10,0.00210769,-2.07271,-0.853149,-0.0691556,-22.7842,0.249179,
2,1,0,1,0,3674.65,0.259495,0.259221,8.22454,3,0.019936,10,0.00213197,-2.08489,-0.888407,-0.066411,-21.3137,0.259221,
2,1,0,1,0,3674.7,0.269474,0.269169,8.03111,3,0.0203414,10,0.00216172,-2.09522,-1.01999,-0.0578439,-18.1362,0.269169,
2,1,0,1,0,3674.75,0.279453,0.279186,7.86495,3,0.0207382,10,0.00219578,-2.1043,-1.0863,-0.0543127,-16.7004,0.279186,
2,1,0,1,0,3674.8,0.28945,0.289192,7.72611,3,0.021128,10,0.00223433,-2.11204,-2.02526,-0.029132,-8.77737,0.289192,
2,1,0,1,0,3674.84,0.299438,0.299149,7.59706,3,0.0215104,10,0.00227265,-2.11935,-0.0435209,-1.35567,-379.381,0.2991491,
2,0,0,1,0,3674.89,0.291747,0.291466,-2.45516,3,0.0215566,10,-0.000715594,-2.60992,-0.0174439,-3.38227,298.146,0.291466,
2,0,0,1,0,3674.94,0.28175,0.28144,-3.65938,3,0.0213955,10,-0.0010299,-2.43659,-0.13647,-0.43233,61.6177,0.28144,
2,0,0,1,0,3674.99,0.27178,0.27143,-4.16351,3,0.0212002,10,-0.0011301,-2.38054,-0.19602,-0.300989,48.6383,0.27143,
2,0,0,1,0,3675.04,0.261783,0.261427,-4.54922,3,0.0209821,10,-0.00118929,-2.34206,-0.304256,-0.193916,34.4961,0.261427,
2,0,0,1,0,3675.09,0.251786,0.251467,-4.91637,3,0.0207453,10,-0.0012363,-2.30836,-0.328661,-0.179516,34.3377,0.251467,
2,0,0,1,0,3675.14,0.241807,0.241525,-5.22919,3,0.0204918,10,-0.00126298,-2.28157,-0.338094,-0.174508,35.8029,0.241525,
2,0,0,1,0,3675.19,0.231824,0.23154,-5.59497,3,0.0202217,10,-0.00129546,-2.2522,-0.348263,-0.169412,36.8376,0.23154,
2,0,0,1,0,3675.24,0.221822,0.221479,-5.93237,3,0.0199337,10,-0.00131389,-2.22677,-0.381106,-0.154813,35.9229,0.221479,
2,0,0,1,0,3675.29,0.211844,0.211548,-6.35291,3,0.0196274,10,-0.00134395,-2.19703,-0.359888,-0.16394,40.582,0.211548,
2,0,0,1,0,3675.34,0.201865,0.201553,-6.84035,3,0.0192985,10,-0.0013787,-2.16492,-0.299066,-0.197281,52.8766,0.201553,
2,0,0,1,0,3675.39,0.191868,0.191605,-7.52572,3,0.01894,10,-0.00144196,-2.12345,-0.213768,-0.276,81.0029,0.191605,
2,0,0,1,0,3675.44,0.18188,0.181566,-8.46207,3,0.0185428,10,-0.00153643,-2.07252,-0.167096,-0.353091,116.663,0.181566,
2,0,0,1,0,3675.49,0.171901,0.171604,-9.84255,3,0.0180888,10,-0.00168902,-2.00689,-0.134813,-0.437642,167.782,0.171604,
2,0,0,1,0,3675.54,0.161904,0.161635,-11.8538,3,0.0175496,10,-0.00191599,-1.92614,-0.110141,-0.535676,248.414,0.161635,
2,0,0,1,0,3675.59,0.151907,0.15161,-14.8313,3,0.0168856,10,-0.00224857,-1.82882,-0.10071,-0.585841,339.081,0.15161,
2,0,0,1,0,3675.64,0.141928,0.1417,-18.511,3,0.0160549,10,-0.00262301,-1.73257,-0.106896,-0.551939,399.492,0.1417,
2,0,0,1,0,3675.69,0.13194,0.131679,-22.4679,3,0.0150305,10,-0.00295856,-1.64844,-0.138888,-0.424803,371.892,0.1316791,
2,0,0,1,0,3675.74,0.121943,0.121667,-25.8144,3,0.01382,10,-0.00314076,-1.58814,-0.211307,-0.279215,280.973,0.121667,
2,0,0,1,0,3675.79,0.111964,0.111681,-27.8995,3,0.0124728,10,-0.00311583,-1.5544,-0.527909,-0.111762,121.477,0.111681,
2,0,0,1,0,3675.84,0.101985,0.101691,-28.0209,3,0.0110681,10,-0.00284948,-1.55252,0.57971,0.101775,-111.114,0.101691,
2,0,0,1,0,3675.89,0.0919883,0.0917077,-25.804,3,0.00971397,10,-0.00236643,-1.58831,0.194144,0.303898,-305.663,0.0917077,
2,0,0,1,0,3675.94,0.0820004,0.0817215,-22.4396,3,0.00851018,10,-0.0018338,-1.64899,0.161873,0.364484,-319.439,0.0817215,
2,0,0,1,0,3675.99,0.0720215,0.071764,-19.7478,3,0.00746238,10,-0.00141718,-1.70448,0.201943,0.292161,-225.148,0.071764,
2,0,0,1,0,3676.04,0.0620245,0.0616989,-17.8327,3,0.00652517,10,-0.00110026,-1.74878,0.238355,0.247529,-172.493,0.06169891,
2,0,0,1,0,3676.09,0.0520275,0.0517006,-16.1846,3,0.00567476,10,-0.000836755,-1.7909,0.215229,0.274127,-172.835,0.0517006,
2,0,0,1,0,3676.14,0.0420486,0.0417352,-14.4577,3,0.00491073,10,-0.000603393,-1.8399,0.212274,0.277943,-157.2,0.0417352,
2,0,0,1,0,3676.19,0.0320607,0.0317336,-13.1195,3,0.00422505,10,-0.000416329,-1.88208,0.290431,0.203147,-103.896,0.0317336,
2,0,0,1,0,3676.24,0.0220637,0.0217552,-12.3289,3,0.00359161,10,-0.000268217,-1.90908,0.550902,0.107097,-51.6201,0.0217552,
2,0,0,1,0,3676.29,0.0120848,0.0117705,-12.0481,3,0.00298506,10,-0.000141812,-1.91908,1.43648,0.0410725,-19.2951,0.0117705,
2,0,0,1,0,3676.34,0.00210598,0.00178035,-12.0736,3,0.00238608,10,-2.14952e-05,-1.91816,-1.33874,-0.0440714,20.7114,0.00178035,
2,0,0,1,0,3676.39,-0.00789103,-0.00826045,-12.1713,3,0.00178049,10,0.00010054,-1.91466,-1.35996,-0.0433838,20.6104,-0.00826045,
2,0,0,1,0,3676.44,-0.017879,-0.0181974,-12.4394,3,0.00116677,10,0.000226365,-1.9052,-0.842234,-0.0700518,34.004,-0.0181974,
2,0,0,1,0,3676.49,-0.0278578,-0.0281885,-12.755,3,0.000538433,10,0.000359544,-1.89432,-0.838938,-0.070327,35.0128,-0.02818848,
2,0,0,1,0,3676.54,-0.0378548,-0.0381989,-13.1203,3,-0.000108394,10,0.000501182,-1.88206,-0.789612,-0.0747203,38.2651,-0.0381989,
2,0,0,1,0,3676.59,-0.0478519,-0.0481833,-13.5266,3,-0.000774486,10,0.000651755,-1.86881,-0.659808,-0.08942,47.171,-0.0481833,
2,0,0,1,0,3676.64,-0.0578126,-0.0581807,-13.9598,3,-0.00145889,10,0.000812193,-1.85512,-0.670874,-0.087945,47.9542,-0.0581807,
2,0,0,1,0,3676.69,-0.0678187,-0.0681808,-14.472,3,-0.00216945,10,0.000986715,-1.83947,-0.563955,-0.104618,59.0438,-0.0681808,
2,0,0,1,0,3676.74,-0.0778157,-0.0781817,-15.0691,3,-0.00290774,10,0.00117812,-1.82191,-0.553313,-0.10663,62.7836,-0.0781817,
2,0,0,1,0,3676.79,-0.0877945,-0.0881493,-15.8384,3,-0.00367825,10,0.00139614,-1.80029,-0.42797,-0.13786,85.1575,-0.0881493,
2,0,0,1,0,3676.84,-0.0977734,-0.0981375,-16.6951,3,-0.00448994,10,0.00163841,-1.77741,-0.395242,-0.149275,97.444,-0.0981375,
2,0,0,1,1,3676.88,-0.0936874,-0.0940831,-2.98184,3,-0.00495839,10,0.00028054,-2.52552,-0.00345191,-17.092,1428.91,-0.0940831,
2,1,0,1,1,3676.93,-0.0837086,-0.0841022,5.75177,3,-0.00485013,10,-0.000483736,-2.2402,0.0253497,2.32744,510.977,-0.0841022,
2,1,0,1,1,3676.98,-0.0737025,-0.0740467,9.12071,3,-0.00446512,10,-0.000675358,-2.03997,0.0998632,0.590808,208.889,-0.0740467,
2,1,0,1,1,3677.03,-0.0637236,-0.0640945,10.426,3,-0.00397266,10,-0.000668248,-1.98188,0.300077,0.196616,79.9601,-0.0640945,
2,1,0,1,1,3677.08,-0.0537447,-0.0540605,10.9836,3,-0.0034363,10,-0.000593779,-1.95926,0.812042,0.0726564,31.1107,-0.0540605,
2,1,0,1,1,3677.13,-0.0437477,-0.0440839,11.2,3,-0.00288071,10,-0.000493741,-1.95078,2.74155,0.0215207,9.40451,-0.0440839,
2,1,0,1,1,3677.18,-0.0337507,-0.0340891,11.2562,3,-0.00231866,10,-0.000383713,-1.94861,468.865,0.000125836,0.055282,-0.03408907,
2,1,0,1,1,3677.23,-0.0237809,-0.0240691,11.2207,3,-0.00175889,10,-0.000270072,-1.94998,-5.76401,-0.0102359,-4.47553,-0.0240691,
2,1,0,1,1,3677.28,-0.0137839,-0.0140795,11.1112,3,-0.00120055,10,-0.00015644,-1.95424,-1.606,-0.0367373,-15.9294,-0.0140795,
2,1,0,1,1,3677.33,-0.0037869,-0.00410461,10.9719,3,-0.00064835,10,-4.50356e-05,-1.95972,-1.861,-0.0317034,-13.5745,-0.00410461,
2,1,0,1,1,3677.35,-2.55332e-05,-0.000306236,10.8868,3,-0.000443735,10,-3.33393e-06,-1.9631, , , ,-0.000306236,