File: Figure_codes/Fig_3-5/rawdata_trumpetplot_data/before 10th/20221101_1-115_002_TrumpetPlot_ParaChange_16_CV_C01_3.csv
mode,ox/red,error,control changes,counter inc.,time/s,control/V,Ewe/V,<I>/mA,cycle number,(Q-Qo)/C,I Range,P/W,log(|I|),Tafel slope mV/dec,alpha_eff,dI/d(E-IR),E-IR/V,
2,1,0,1,0,4913.96,2.44065e-05,-0.00103155,61.3871,4,0.0000000E+000,10,-6.33241e-05,-1.21192, , , ,-0.00103155,
2,1,0,1,0,4913.98,0.0131086,0.0127569,54.8009,4,0.000738743,10,0.00069909,-1.26121,-1.24515,-0.047384,-102.508,0.0127569,
2,1,0,1,0,4913.99,0.0271416,0.0267967,54.6141,4,0.00150368,10,0.00146348,-1.2627,30.272,0.001949,4.15418,0.0267967,
2,1,0,1,0,4914,0.0411248,0.040793,54.7102,4,0.00226876,10,0.00223179,-1.26193,13.2474,0.00445371,9.50882,0.040793,
2,1,0,1,0,4914.02,0.0551079,0.0547384,54.8532,4,0.00303564,10,0.00300257,-1.2608,5.98268,0.0098618,21.1413,0.0547384,
2,1,0,1,0,4914.03,0.0691409,0.0688227,55.4185,4,0.00380648,10,0.00381405,-1.25635,1.97296,0.0299043,64.703,0.0688227,
2,1,0,1,0,4914.05,0.083124,0.082801,56.4934,4,0.0045894,10,0.00467771,-1.248,1.23905,0.0476171,105.295,0.082801,
2,1,0,1,0,4914.06,0.0971071,0.0967846,58.4676,4,0.00539324,10,0.00565876,-1.23308,0.745031,0.0791913,181.273,0.0967846,
2,1,0,1,0,4914.07,0.11114,0.110817,61.5101,4,0.00623221,10,0.00681636,-1.21105,0.566141,0.104214,250.554,0.110817,
2,1,0,1,0,4914.09,0.125123,0.124804,65.3996,4,0.00711998,10,0.00816211,-1.18442,0.489834,0.120449,307.901,0.124804,
2,1,0,1,0,4914.1,0.139106,0.138797,70.0624,4,0.00806787,10,0.00972444,-1.15451,0.448554,0.131534,360.191,0.138797,
2,1,0,1,0,4914.12,0.153139,0.1528,75.4792,4,0.00908643,10,0.0115332,-1.12217,0.423215,0.139409,411.07,0.1527995,
2,1,0,1,0,4914.13,0.167123,0.166798,81.6152,4,0.0101859,10,0.0136132,-1.08823,0.399849,0.147556,470.522,0.166798,
2,1,0,1,0,4914.14,0.181106,0.180765,88.5592,4,0.0113771,10,0.0160084,-1.05277,0.396144,0.148936,514.888,0.180765,
2,1,0,1,0,4914.16,0.195139,0.194846,95.8641,4,0.012669,10,0.0186787,-1.01834,0.438367,0.134591,502.614,0.194846,
2,1,0,1,0,4914.17,0.209122,0.208851,102.392,4,0.0140589,10,0.0213847,-0.989735,0.59398,0.09933,395.172,0.2088515,
2,1,0,1,0,4914.19,0.223105,0.222829,106.328,4,0.0155249,10,0.023693,-0.973351,2.17395,0.0271396,111.682,0.222829,
2,1,0,1,0,4914.2,0.237138,0.236883,104.724,4,0.0170105,10,0.0248073,-0.979954,-0.604616,-0.0975826,-393.721,0.236883,
2,1,0,1,0,4914.21,0.251121,0.250961,95.2744,4,0.0184184,10,0.0239102,-1.02102,-0.236895,-0.249056,-914.364,0.250961,
2,1,0,1,0,4914.23,0.265104,0.264963,79.832,4,0.019647,10,0.0211525,-1.09782,-0.156054,-0.378075,-1171.02,0.264963,
2,1,0,1,0,4914.24,0.279137,0.278957,63.5201,4,0.0206471,10,0.0177194,-1.19709,-0.137465,-0.429201,-1068.27,0.2789571,
2,1,0,1,0,4914.26,0.29312,0.292921,50.8109,4,0.0214402,10,0.0148835,-1.29404,-0.159954,-0.368857,-745.437,0.292921,
2,1,0,1,0,4914.26,0.298714,0.298804,41.7833,4,0.0218303,10,0.012485,-1.379,0.019766,2.98493,3559.16,0.298804,
2,1,0,1,0,4914.28,0.28473,0.284637,7.00035,4,0.022135,10,0.00199256,-2.15488,0.0195029,3.02519,1657.93,0.284637,
2,0,0,1,0,4914.29,0.270747,0.270561,-8.82405,4,0.022107,10,-0.00238744,-2.05433,-0.0154158,-3.82724,784.626,0.2705608,
2,0,0,1,0,4914.31,0.256714,0.256481,-16.5485,4,0.0219225,10,-0.00424438,-1.78124,-0.0912681,-0.646447,397.985,0.256481,
2,0,0,1,0,4914.32,0.242731,0.242537,-20.6935,4,0.021659,10,-0.00501895,-1.68417,-0.200844,-0.29376,233.979,0.242537,
2,0,0,1,0,4914.33,0.228748,0.228539,-23.3909,4,0.021349,10,-0.00534573,-1.63095,-0.315877,-0.186782,169.92,0.228539,
2,0,0,1,0,4914.35,0.214715,0.214476,-25.5965,4,0.0210052,10,-0.00548982,-1.59182,-0.395574,-0.14915,148.843,0.2144759,
2,0,0,1,0,4914.36,0.200732,0.200498,-27.7067,4,0.020632,10,-0.00555513,-1.55742,-0.390706,-0.151009,163.539,0.200498,
2,0,0,1,0,4914.38,0.186735,0.186499,-30.2149,4,0.020227,10,-0.00563505,-1.51978,-0.339413,-0.17383,205.745,0.186499,
2,0,0,1,0,4914.39,0.172716,0.172454,-33.5272,4,0.0197814,10,-0.0057819,-1.4746,-0.28308,-0.208422,273.92,0.172454,
2,0,0,1,0,4914.4,0.158733,0.158501,-38.0433,4,0.0192818,10,-0.00602992,-1.41972,-0.229812,-0.256731,383.234,0.158501,
2,0,0,1,0,4914.42,0.144719,0.14453,-44.3395,4,0.0187069,10,-0.00640841,-1.35321,-0.197912,-0.298112,518.189,0.14453,
2,0,0,1,0,4914.43,0.130717,0.130556,-52.5276,4,0.0180297,10,-0.00685781,-1.27961,-0.189063,-0.312065,640.581,0.1305564,
2,0,0,1,0,4914.45,0.116733,0.116553,-62.1379,4,0.0172276,10,-0.00724234,-1.20664,-0.199061,-0.296392,717.26,0.116553,
2,0,0,1,0,4914.46,0.102703,0.10261,-72.0908,4,0.0162865,10,-0.00739727,-1.14212,-0.234903,-0.251167,705.23,0.10261,
2,0,0,1,0,4914.47,0.0887173,0.0886375,-81.672,4,0.0152077,10,-0.0072392,-1.08793,-0.293771,-0.200837,637.383,0.0886375,
2,0,0,1,0,4914.49,0.0747342,0.074585,-89.9037,4,0.0140046,10,-0.00670546,-1.04622,-0.398393,-0.148095,516.845,0.074585,
2,0,0,1,0,4914.5,0.0607011,0.0605155,-95.9282,4,0.0127002,10,-0.00580514,-1.01805,-0.691089,-0.0853725,317.652,0.0605155,
2,0,0,1,0,4914.52,0.046718,0.0464884,-98.6207,4,0.011334,10,-0.00458472,-1.00603,-3.29352,-0.017914,68.5508,0.0464884,
2,0,0,1,0,4914.53,0.0327349,0.0324837,-97.9282,4,0.00995477,10,-0.00318107,-1.00909,1.52625,0.0386568,-147.125,0.0324837,
2,0,0,1,0,4914.54,0.0187018,0.0184237,-94.9268,4,0.00860374,10,-0.00174891,-1.02261,0.827772,0.0712757,-263.344,0.0184237,
2,0,0,1,0,4914.56,0.00471873,0.00448256,-90.605,4,0.00730434,10,-0.000406142,-1.04285,0.610794,0.0965955,-340.973,0.00448256,
2,0,0,1,0,4914.57,-0.00926438,-0.00960282,-85.2653,4,0.00607195,10,0.000818787,-1.06923,0.454637,0.129774,-430.675,-0.00960282,
2,0,0,1,0,4914.59,-0.0232974,-0.0236278,-78.8514,4,0.00492327,10,0.00186308,-1.10319,0.385402,0.153087,-470.445,-0.0236278,
2,0,0,1,0,4914.6,-0.0372805,-0.0375965,-72.4038,4,0.00386639,10,0.00272213,-1.14024,0.410091,0.14387,-407.933,-0.0375965,
2,0,0,1,0,4914.61,-0.0512636,-0.0515568,-67.6646,4,0.00288881,10,0.00348857,-1.16964,0.58587,0.100705,-267.133,-0.0515568,
2,0,0,1,0,4914.63,-0.0652967,-0.0655817,-64.9948,4,0.00196291,10,0.00426247,-1.18712,1.12386,0.0524975,-133.541,-0.0655817,
2,0,0,1,0,4914.64,-0.0792798,-0.0796141,-63.7734,4,0.00106322,10,0.00507726,-1.19536,3.3799,0.0174562,-43.5706,-0.0796141,
2,0,0,1,0,4914.66,-0.0932629,-0.0935362,-63.6479,4,0.000172165,10,0.00595338,-1.19622,-7.29742,-0.00808505,20.1242,-0.0935362,
2,0,0,1,0,4914.67,-0.107296,-0.107587,-64.3382,4,-0.000722942,10,0.00692193,-1.19153,-2.27383,-0.0259474,65.1793,-0.107587,
2,0,0,1,0,4914.68,-0.121279,-0.121567,-65.4149,4,-0.00163068,10,0.00795229,-1.18432,-1.63361,-0.0361163,92.2784,-0.121567,
2,0,0,1,0,4914.7,-0.135262,-0.135574,-66.8692,4,-0.00255647,10,0.00906571,-1.17477,-1.33001,-0.0443605,115.877,-0.135574,
2,0,0,1,0,4914.71,-0.149295,-0.149595,-68.7171,4,-0.00350539,10,0.0102797,-1.16294,-1.14999,-0.051305,137.57,-0.149595,
2,0,0,1,0,4914.73,-0.163278,-0.163552,-70.7024,4,-0.00448119,10,0.0115635,-1.15057,-1.08433,-0.0544117,150.175,-0.163552,
2,0,0,1,0,4914.74,-0.177261,-0.177539,-72.9068,4,-0.00548641,10,0.0129438,-1.13723,-0.999572,-0.0590253,168.047,-0.177539,
2,0,0,1,0,4914.75,-0.191295,-0.191591,-75.4902,4,-0.00652493,10,0.0144632,-1.12211,-0.8844,-0.0667119,196.52,-0.191591,
2,0,0,1,1,4914.76,-0.199984,-0.200456,-76.9308,4,-0.00723536,10,0.0154212,-1.1139,-0.0335311,-1.75956,4540.9,-0.200456,
2,0,0,1,1,4914.78,-0.186686,-0.187128,-43.0943,4,-0.00799771,10,0.00806413,-1.36558,-0.0467769,-1.26131,2094.68,-0.187128,
2,0,0,1,1,4914.79,-0.172667,-0.173101,-18.0957,4,-0.00841461,10,0.00313237,-1.74243,-0.0237006,-2.48939,1550.95,-0.173101,
2,0,0,1,1,4914.81,-0.158684,-0.159131,0.83635,4,-0.00852771,10,-0.000133089,-3.07761,0.899203,0.0656136,1199.6,-0.159131,
2,1,0,1,1,4914.82,-0.14467,-0.145143,15.6872,4,-0.00840673,10,-0.00227689,-1.80445,0.0335772,1.75715,950.911,-0.145143,
2,1,0,1,1,4914.83,-0.130668,-0.131096,27.631,4,-0.00809908,10,-0.0036223,-1.5586,0.0816312,0.722763,754.703,-0.131096,
2,1,0,1,1,4914.85,-0.116685,-0.117087,36.973,4,-0.00764303,10,-0.00432905,-1.43212,0.142445,0.414196,589.22,-0.117087,
2,1,0,1,1,4914.86,-0.102654,-0.103043,44.3052,4,-0.00707162,10,-0.00456532,-1.35355,0.220699,0.267332,457.864,-0.1030427,
2,1,0,1,1,4914.88,-0.0886685,-0.0890411,49.8599,4,-0.00641022,10,-0.00443958,-1.30225,0.330542,0.178495,345.402,-0.0890411,
2,1,0,1,1,4914.89,-0.0746854,-0.075014,54.0485,4,-0.00568104,10,-0.0040544,-1.26722,0.477467,0.123569,259.724,-0.075014,
2,1,0,1,1,4914.9,-0.0606523,-0.0609456,57.2695,4,-0.0049009,10,-0.00349032,-1.24208,0.679307,0.0868532,193.372,-0.0609456,
2,1,0,1,1,4914.92,-0.0466692,-0.0470055,59.5104,4,-0.0040826,10,-0.00279732,-1.22541,1.01535,0.0581079,134.634,-0.0470055,
2,1,0,1,1,4914.93,-0.0326861,-0.0330569,61.0447,4,-0.0032379,10,-0.00201795,-1.21435,1.57315,0.0375043,89.2096,-0.0330569,
2,1,0,1,1,4914.95,-0.018653,-0.0189789,62.0755,4,-0.00237553,10,-0.00117813,-1.20708,2.75619,0.0214064,51.7568,-0.0189789,
2,1,0,1,1,4914.96,-0.00466992,-0.00498475,62.4701,4,-0.00150307,10,-0.000311398,-1.20433, , , ,-0.00498475,
2,1,0,1,1,4914.96,-0.000175352,-0.000439847,62.4919,4,-0.00122188,10,-2.74869e-05,-1.20418, , , ,-0.000439847,