File: Figure_codes/Fig_3-5/rawdata_trumpetplot_data/before 10th/20221101_1-115_002_TrumpetPlot_ParaChange_10_CV_C01.mpt
EC-Lab ASCII FILE
Nb header lines : 68

Cyclic Voltammetry

Run on channel : 1 (SN 65296)
User :
CE vs. WE compliance from -10 V to 10 V
Electrode connection : standard
Potential control : Ewe
Ewe ctrl range : min = -1.00 V, max = 1.00 V
Safety Limits :
	Do not start on E overload
Acquisition started on : 11/08/2022 17:30:03.488
Loaded Setting File :  NONE
Saved on :
	File : 20221101_1-115_002_TrumpetPlot_ParaChange_10_CV_C01.mpr
	Directory : C:\Users\NakamuraT\Documents\EC-Lab\Data\Yatsuzuka\20221108_1-115_001_TrumpetPlot\
	Host : 192.109.209.100
Device : SP-50e (SN .003219)
Address : 192.109.209.128
EC-Lab for windows v11.43 (software)
Internet server v11.40 (firmware)
Command interpretor v11.40 (firmware)
Electrode material : Au/Pd
Initial state :
Electrolyte : NaCl (0.2M)
Comments : Fe(CN)63-/Fe(CN)64- 5.10-3 M
Reference electrode : SCE Saturated Calomel Electrode (0.241 V)
Electrode surface area : 0.001 cm2
Characteristic mass : 0.001 g
Equivalent Weight : 0.000 g/eq.
Density : 0.000 g/cm3
Volume (V) : 0.001 cm3
Cycle Definition : Charge/Discharge alternance
Ei (V)              0.000
vs.                 Ref
dE/dt               80.000
dE/dt unit          mV/s
E1 (V)              0.300
vs.                 Ref
Step percent        50
N                   10
E range min (V)     -1.000
E range max (V)     1.000
I Range             10 mA
I Range min         Unset
I Range max         Unset
I Range init        Unset
Bandwidth           5
E2 (V)              0.000
vs.                 Ref
nc cycles           0
Reverse Scan        0
Ef (V)              0.000
vs.                 Eoc

Number of loops : 8
Loop 0 from point number 0 to 1205
Loop 1 from point number 1206 to 2411
Loop 2 from point number 2412 to 3617
Loop 3 from point number 3618 to 4823
Loop 4 from point number 4824 to 6029
Loop 5 from point number 6030 to 7235
Loop 6 from point number 7236 to 8441
Loop 7 from point number 8442 to 9647

mode	ox/red	error	control changes	counter inc.	time/s	control/V	Ewe/V	<I>/mA	cycle number	(Q-Qo)/C	I Range	P/W
2	0	0	1	0	1194.39	2.44065e-05	0.000247296	-5.24515	1	0.0000000E+000	11	-1.29711e-06
2	1	0	1	0	1194.82	0.0347503	0.0344521	3.63948	1	0.00125741	11	0.000125388
2	1	0	1	0	1195.26	0.0697116	0.0694272	4.47599	1	0.00298926	11	0.000310755
2	1	0	1	0	1195.7	0.104671	0.104406	6.55091	1	0.00537174	11	0.000683955
2	1	0	1	0	1196.13	0.139631	0.139358	11.8269	1	0.0091886	11	0.00164817
2	1	0	1	0	1196.57	0.17459	0.174295	8.9067	1	0.0146858	11	0.00155239
2	1	0	1	0	1197.01	0.20955	0.209269	4.03187	1	0.0170411	11	0.000843747
2	1	0	1	0	1197.45	0.244509	0.244264	3.40643	1	0.0186335	11	0.000832069
2	1	0	1	0	1197.88	0.279462	0.279188	3.16801	1	0.0200651	11	0.000884471
2	0	0	1	0	1198.31	0.286753	0.286421	-1.52794	1	0.0206998	11	-0.000437634
2	0	0	1	0	1198.74	0.251793	0.251446	-2.19787	1	0.0198686	11	-0.000552647
2	0	0	1	0	1199.18	0.216832	0.216566	-2.77881	1	0.01879	11	-0.000601795
2	0	0	1	0	1199.62	0.18188	0.181617	-4.12785	1	0.0173444	11	-0.000749687
2	0	0	1	0	1200.05	0.146927	0.146637	-9.87718	1	0.0145519	11	-0.00144836
2	0	0	1	0	1200.49	0.111968	0.111695	-12.0097	1	0.00908725	11	-0.00134142
2	0	0	1	0	1200.93	0.0770082	0.0767414	-6.66458	1	0.00535589	11	-0.000511449
2	0	0	1	0	1201.36	0.0420486	0.0417489	-5.08837	1	0.00284693	11	-0.000212434
2	0	0	1	0	1201.8	0.00708909	0.00681879	-5.13476	1	0.000651823	11	-3.50128e-05
2	1	0	1	0	2426.35	0.0267671	0.0264566	3.61266	2	0.000921764	11	9.55785e-05
2	1	0	1	0	2426.79	0.0617266	0.0614457	4.42223	2	0.00263554	11	0.000271727
2	1	0	1	0	2427.23	0.0966862	0.0963911	6.42863	2	0.00498771	11	0.000619663
2	1	0	1	0	2427.66	0.131646	0.131413	10.4794	2	0.00849455	11	0.00137712
2	1	0	1	0	2428.1	0.166598	0.166306	11.3726	2	0.0139576	11	0.00189133
2	1	0	1	0	2428.54	0.201551	0.201248	4.24585	2	0.016757	11	0.000854467
2	1	0	1	0	2428.97	0.23651	0.23624	3.47376	2	0.0184059	11	0.00082064
2	1	0	1	0	2429.41	0.27147	0.271173	3.22864	2	0.0198624	11	0.000875519
2	0	0	1	0	2429.83	0.294736	0.294432	-1.31297	2	0.0209529	11	-0.00038658
2	0	0	1	0	2430.27	0.259791	0.259476	-2.07366	2	0.0201886	11	-0.000538064
2	0	0	1	0	2430.71	0.224831	0.224546	-2.60526	2	0.0191663	11	-0.000584999
2	0	0	1	0	2431.14	0.189872	0.18957	-3.56067	2	0.0178558	11	-0.000674996
2	0	0	1	0	2431.58	0.154912	0.154633	-7.67865	2	0.0156369	11	-0.00118737
2	0	0	1	0	2432.02	0.119953	0.119652	-13.2383	2	0.0106684	11	-0.00158399
2	0	0	1	0	2432.46	0.0849932	0.0846671	-7.51635	2	0.00626242	11	-0.000636387
2	0	0	1	0	2432.89	0.0500336	0.0497267	-5.5081	2	0.00342043	11	-0.0002739
2	0	0	1	0	2433.33	0.0150884	0.0147635	-5.07732	2	0.001168	11	-7.49592e-05
2	1	0	1	0	3657.88	0.0187821	0.0184801	3.38282	3	0.000486204	11	6.2515e-05
2	1	0	1	0	3658.32	0.0537345	0.053467	4.17384	3	0.00211112	11	0.000223163
2	1	0	1	0	3658.75	0.0886869	0.0884539	6.07092	3	0.00432055	11	0.000536996
2	1	0	1	0	3659.19	0.123646	0.123393	8.87723	3	0.00747712	11	0.00109539
2	1	0	1	0	3659.63	0.158606	0.158354	12.5763	3	0.0124141	11	0.00199151
2	1	0	1	0	3660.07	0.193566	0.193283	4.7419	3	0.016011	11	0.000916531
2	1	0	1	0	3660.5	0.228527	0.228275	3.55789	3	0.0177564	11	0.000812179
2	1	0	1	0	3660.94	0.263486	0.263189	3.25601	3	0.0192378	11	0.000856947
2	1	0	1	0	3661.38	0.298439	0.298181	3.07201	3	0.0206193	11	0.000916015
2	0	0	1	0	3661.8	0.267776	0.267502	-1.89877	3	0.0201294	11	-0.000507924
2	0	0	1	0	3662.24	0.232816	0.232445	-2.41205	3	0.0191853	11	-0.000560668
2	0	0	1	0	3662.67	0.197857	0.19755	-3.0962	3	0.0179996	11	-0.000611657
2	0	0	1	0	3663.11	0.162897	0.162606	-5.54654	3	0.0162484	11	-0.000901901
2	0	0	1	0	3663.55	0.127945	0.12761	-12.2253	3	0.0123241	11	-0.00156008
2	0	0	1	0	3663.98	0.0929924	0.0926718	-8.78605	3	0.00737205	11	-0.000814219
2	0	0	1	0	3664.42	0.0580329	0.0577124	-6.38715	3	0.00410978	11	-0.000368618
2	0	0	1	0	3664.86	0.0230716	0.0227318	-5.09281	3	0.00169145	11	-0.000115769
2	1	0	1	0	4889.41	0.0107828	0.0104839	3.08301	4	0.000142387	11	3.2322e-05
2	1	0	1	0	4889.85	0.0457424	0.0454767	3.98947	4	0.0016961	11	0.000181428
2	1	0	1	0	4890.28	0.0807019	0.0804219	5.7861	4	0.00379293	11	0.000465329
2	1	0	1	0	4890.72	0.115661	0.115373	8.01589	4	0.0067617	11	0.000924818
2	1	0	1	0	4891.16	0.150623	0.150318	12.1221	4	0.0112327	11	0.00182216
2	1	0	1	0	4891.59	0.185582	0.18533	5.52931	4	0.0153563	11	0.00102475
2	1	0	1	0	4892.03	0.220528	0.220243	3.73313	4	0.0172731	11	0.000822197
2	1	0	1	0	4892.47	0.255487	0.255243	3.31523	4	0.0187961	11	0.00084619
2	1	0	1	0	4892.91	0.290447	0.290187	3.12095	4	0.0201998	11	0.000905659
2	0	0	1	0	4893.33	0.275761	0.275462	-1.72842	4	0.0202103	11	-0.000476113
2	0	0	1	0	4893.76	0.240808	0.240514	-2.27657	4	0.0193227	11	-0.000547546
2	0	0	1	0	4894.2	0.205856	0.205537	-2.84664	4	0.0182108	11	-0.00058509
2	0	0	1	0	4894.64	0.170897	0.170562	-4.35934	4	0.0167139	11	-0.000743539
2	0	0	1	0	4895.08	0.135937	0.135629	-10.4366	4	0.0136523	11	-0.00141551
2	0	0	1	0	4895.51	0.100976	0.100689	-10.3206	4	0.00859955	11	-0.00103917
2	0	0	1	0	4895.95	0.0660161	0.0657441	-7.22307	4	0.00493444	11	-0.000474874
2	0	0	1	0	4896.39	0.0310566	0.0307355	-5.30817	4	0.00223852	11	-0.000163149
2	0	0	1	0	6120.94	0.00279784	0.00247233	0.0245028	5	-8.81601e-05	11	6.0579e-08
2	1	0	1	0	6121.38	0.0377574	0.0374911	3.8156	5	0.00129778	11	0.000143051
2	1	0	1	0	6121.81	0.0727187	0.0724325	5.46555	5	0.00328535	11	0.000395883
2	1	0	1	0	6122.25	0.107662	0.107368	7.42789	5	0.00610007	11	0.000797519
2	1	0	1	0	6122.69	0.142624	0.142409	11.3103	5	0.0101532	11	0.00161069
2	1	0	1	0	6123.12	0.177583	0.177323	6.78179	5	0.0147121	11	0.00120257
2	1	0	1	0	6123.56	0.212543	0.212259	3.87675	5	0.0168284	11	0.000822873
2	1	0	1	0	6124	0.247502	0.247234	3.36567	5	0.018387	11	0.000832108
2	1	0	1	0	6124.43	0.282462	0.282176	3.14826	5	0.0198084	11	0.000888363
2	0	0	1	0	6124.86	0.28376	0.283456	-1.55249	5	0.0203006	11	-0.000440062
2	0	0	1	0	6125.29	0.248801	0.248464	-2.19112	5	0.0194663	11	-0.000544413
2	0	0	1	0	6125.73	0.213841	0.213519	-2.678	5	0.018407	11	-0.000571805
2	0	0	1	0	6126.17	0.17888	0.178546	-3.68515	5	0.0170612	11	-0.000657967
2	0	0	1	0	6126.6	0.14392	0.143607	-8.28863	5	0.0146805	11	-0.00119031
2	0	0	1	0	6127.04	0.108968	0.108653	-11.5197	5	0.00993582	11	-0.00125164
2	0	0	1	0	6127.48	0.0740154	0.0736994	-7.84591	5	0.00582166	11	-0.000578239
2	0	0	1	0	6127.92	0.0390558	0.0387243	-5.79545	5	0.0028212	11	-0.000224425
2	0	0	1	0	6128.35	0.00409627	0.00378765	-5.17044	5	0.000499326	11	-1.95838e-05
2	1	0	1	0	7352.9	0.0297581	0.0294761	3.68949	6	0.000954924	11	0.000108752
2	1	0	1	0	7353.34	0.0647195	0.0644209	5.17073	6	0.00284204	11	0.000333103
2	1	0	1	0	7353.78	0.099679	0.0994008	7.05853	6	0.00552983	11	0.000701624
2	1	0	1	0	7354.21	0.134639	0.134308	10.4808	6	0.00927724	11	0.00140766
2	1	0	1	0	7354.65	0.169598	0.169354	8.247	6	0.0140046	11	0.00139666
2	1	0	1	0	7355.09	0.204558	0.204291	3.95091	6	0.0163086	11	0.000807136
2	1	0	1	0	7355.53	0.23951	0.239247	3.387	6	0.0178831	11	0.000810331
2	1	0	1	0	7355.96	0.274462	0.274188	3.16522	6	0.0193101	11	0.000867868
2	0	0	1	0	7356.38	0.291745	0.291436	-1.30993	6	0.0202461	11	-0.000381761
2	0	0	1	0	7356.82	0.256786	0.256503	-2.07064	6	0.0194758	11	-0.000531126
2	0	0	1	0	7357.26	0.221824	0.221569	-2.53008	6	0.018468	11	-0.000560587
2	0	0	1	0	7357.7	0.186879	0.186592	-3.2556	6	0.0172276	11	-0.000607469
2	0	0	1	0	7358.13	0.151919	0.151611	-6.35088	6	0.0153176	11	-0.000962862
2	0	0	1	0	7358.57	0.11696	0.116626	-11.7019	6	0.0111335	11	-0.00136475
2	0	0	1	0	7359.01	0.0820004	0.0816731	-8.32581	6	0.00665468	11	-0.000679995
2	0	0	1	0	7359.44	0.0470408	0.046728	-6.38554	6	0.00342719	11	-0.000298383
2	0	0	1	0	7359.88	0.0120813	0.0117467	-5.14564	6	0.000997451	11	-6.04444e-05
2	1	0	1	0	8584.43	0.0217749	0.0214871	3.39009	7	0.000538236	11	7.28429e-05
2	1	0	1	0	8584.87	0.0567345	0.0564383	4.73324	7	0.00227459	11	0.000267136
2	1	0	1	0	8585.31	0.091694	0.0913814	6.59075	7	0.00476715	11	0.000602272
2	1	0	1	0	8585.74	0.126646	0.126345	9.36854	7	0.00815494	11	0.00118367
2	1	0	1	0	8586.18	0.161599	0.161326	9.97887	7	0.0127563	11	0.00160985
2	1	0	1	0	8586.62	0.196558	0.196277	4.23811	7	0.0154946	11	0.000831842
2	1	0	1	0	8587.05	0.231518	0.231278	3.45757	7	0.0171329	11	0.000799659
2	1	0	1	0	8587.49	0.266477	0.266229	3.22352	7	0.0185872	11	0.000858195
2	1	0	1	0	8587.91	0.299744	0.299539	2.37889	7	0.0199094	11	0.000712571
2	0	0	1	0	8588.35	0.264783	0.264526	-1.88482	7	0.0193197	11	-0.000498584
2	0	0	1	0	8588.79	0.229824	0.229478	-2.36728	7	0.0183835	11	-0.000543237
2	0	0	1	0	8589.22	0.194864	0.194532	-2.9236	7	0.0172377	11	-0.000568734
2	0	0	1	0	8589.66	0.159904	0.159601	-4.76631	7	0.0156638	11	-0.000760706
2	0	0	1	0	8590.1	0.124945	0.124614	-10.5841	7	0.0123201	11	-0.00131893
2	0	0	1	0	8590.54	0.0899854	0.0896652	-9.18152	7	0.00768698	11	-0.000823263
2	0	0	1	0	8590.97	0.0550329	0.0547057	-7.07061	7	0.00420842	11	-0.000386803
2	0	0	1	0	8591.41	0.0200805	0.0197109	-5.30619	7	0.00155078	11	-0.00010459
2	1	0	1	0	9815.96	0.0137828	0.0134524	3.24786	8	0.000237994	11	4.36916e-05
2	1	0	1	0	9816.4	0.0487352	0.0484189	4.51531	8	0.00191539	11	0.000218626
2	1	0	1	0	9816.83	0.0836947	0.0833903	6.36018	8	0.00429619	11	0.000530377
2	1	0	1	0	9817.27	0.118654	0.118359	8.69971	8	0.00750025	11	0.00102969
2	1	0	1	0	9817.71	0.153614	0.153323	10.8702	8	0.0119661	11	0.00166666
2	1	0	1	0	9818.15	0.188573	0.18828	4.53681	8	0.0151848	11	0.00085419
2	1	0	1	0	9818.58	0.223535	0.223262	3.49789	8	0.0168761	11	0.000780948
2	1	0	1	0	9819.02	0.258494	0.25821	3.25259	8	0.0183423	11	0.000839849
2	1	0	1	0	9819.46	0.29344	0.293173	3.07165	8	0.0197213	11	0.000900526
2	0	0	1	0	9819.88	0.272768	0.272476	-1.79719	8	0.0195464	11	-0.000489692
2	0	0	1	0	9820.32	0.237809	0.237516	-2.30463	8	0.0186398	11	-0.000547387
2	0	0	1	0	9820.75	0.202849	0.202504	-2.78371	8	0.0175331	11	-0.000563713
2	0	0	1	0	9821.19	0.167897	0.167531	-3.9904	8	0.0161156	11	-0.000668513
2	0	0	1	0	9821.63	0.132944	0.132655	-9.30309	8	0.0133993	11	-0.0012341
2	0	0	1	0	9822.06	0.0979846	0.0976768	-10.2628	8	0.00872257	11	-0.00100243
2	0	0	1	0	9822.5	0.0630251	0.0627078	-7.50221	8	0.00496617	11	-0.000470447
2	0	0	1	0	9822.94	0.0280637	0.0277511	-5.61547	8	0.00208724	11	-0.000155835
2	0	0	1	0	9823.29	-2.44065e-05	-0.000268062	-5.23166	8	0.000228272	11	1.40241e-06