File: Figure_codes/Fig_3-5/rawdata_trumpetplot_data/before 10th/20221101_1-115_002_TrumpetPlot_ParaChange_06_CV_C01_3.csv
mode,ox/red,error,control changes,counter inc.,time/s,control/V,Ewe/V,<I>/mA,cycle number,(Q-Qo)/C,I Range,P/W,log(|I|),Tafel slope mV/dec,alpha_eff,dI/d(E-IR),E-IR/V,
2,0,0,1,0,4773.87,2.44065e-05,-0.000344411,-0.524722,4,0.0000000E+000,11,1.8072e-07,-3.28007, , , ,-0.000344411,
2,1,0,1,0,4774.6,0.00729063,0.00698618,0.399462,4,0.000241949,11,2.79071e-06,-3.39852,0.103019,0.572707,8.87909,0.00698618,
2,1,0,1,0,4775.35,0.0147814,0.0144872,0.446147,4,0.000570654,11,6.46343e-06,-3.35052,0.215045,0.274361,4.78139,0.0144872,
2,1,0,1,0,4776.1,0.0222725,0.0219782,0.473085,4,0.000926192,11,1.03976e-05,-3.32506,0.328775,0.179454,3.31343,0.0219782,
2,1,0,1,0,4776.85,0.0297635,0.0294657,0.498102,4,0.00130063,11,1.46769e-05,-3.30268,0.348304,0.169392,3.29437,0.0294657,
2,1,0,1,0,4777.6,0.0372544,0.0369533,0.523031,4,0.00169387,11,1.93277e-05,-3.28147,0.31345,0.188228,3.86177,0.0369533,
2,1,0,1,0,4778.34,0.0447458,0.0444517,0.55852,4,0.00210942,11,2.48271e-05,-3.25296,0.22743,0.25942,5.66008,0.04445165,
2,1,0,1,0,4779.09,0.0522363,0.0518997,0.602206,4,0.00255411,11,3.12543e-05,-3.22026,0.174329,0.338441,7.95057,0.0518997,
2,1,0,1,0,4779.84,0.0597282,0.0594134,0.660937,4,0.00303716,11,3.92685e-05,-3.17984,0.180524,0.326826,8.40922,0.0594134,
2,1,0,1,0,4780.59,0.0672182,0.0669564,0.728406,4,0.00356642,11,4.87714e-05,-3.13763,0.189749,0.310938,8.79857,0.0669564,
2,1,0,1,0,4781.34,0.0747092,0.0744196,0.794569,4,0.00414639,11,5.91314e-05,-3.09987,0.20637,0.285894,8.88099,0.0744196,
2,1,0,1,0,4782.09,0.0822001,0.0818944,0.853964,4,0.00477606,11,6.99348e-05,-3.06856,0.271303,0.217469,7.27675,0.0818944,
2,1,0,1,0,4782.84,0.0896911,0.0894126,0.914557,4,0.00544998,11,8.1773e-05,-3.03879,0.289339,0.203913,7.28736,0.0894126,
2,1,0,1,0,4783.59,0.097182,0.0968917,0.971293,4,0.00616725,11,9.41102e-05,-3.01265,0.219014,0.269389,10.2185,0.0968917,
2,1,0,1,0,4784.34,0.104673,0.104373,1.05482,4,0.00693353,11,0.000110094,-2.97682,0.198646,0.297011,12.1904,0.104373,
2,1,0,1,0,4785.09,0.112164,0.111907,1.16647,4,0.00777103,11,0.000130537,-2.93312,0.148856,0.396355,18.0334,0.111907,
2,1,0,1,0,4785.84,0.119655,0.119367,1.33125,4,0.00871364,11,0.000158907,-2.87574,0.138348,0.426462,22.1627,0.119367,
2,1,0,1,0,4786.58,0.127146,0.126841,1.50925,4,0.00978946,11,0.000191435,-2.82124,0.142765,0.413265,24.3726,0.126841,
2,1,0,1,0,4787.33,0.134637,0.134356,1.67195,4,0.0109964,11,0.000224636,-2.77678,0.246163,0.239679,15.6348,0.134356,
2,1,0,1,0,4788.08,0.142127,0.141818,1.74969,4,0.0122946,11,0.000248137,-2.75704,1.14652,0.0514603,3.49483,0.141818,
2,1,0,1,0,4788.83,0.149619,0.149374,1.67033,4,0.0135961,11,0.000249504,-2.7772,-0.159992,-0.368767,-23.9011,0.1493744,
2,1,0,1,0,4789.58,0.157109,0.156852,1.41577,4,0.0147706,11,0.000222065,-2.84901,-0.0763189,-0.773072,-42.5716,0.156852,
2,1,0,1,0,4790.33,0.164601,0.164347,1.1104,4,0.0157245,11,0.000182491,-2.95452,-0.0693629,-0.850599,-36.9283,0.164347,
2,1,0,1,0,4791.08,0.172091,0.171792,0.882006,4,0.0164756,11,0.000151522,-3.05453,-0.0905328,-0.651697,-22.6408,0.171792,
2,1,0,1,0,4791.83,0.179582,0.179304,0.751817,4,0.0170946,11,0.000134804,-3.12389,-0.128387,-0.459548,-13.5309,0.179304,
2,1,0,1,0,4792.58,0.187074,0.186769,0.677928,4,0.0176368,11,0.000126616,-3.16882,-0.203951,-0.289285,-7.6273,0.186769,
2,1,0,1,0,4793.33,0.194564,0.194297,0.624476,4,0.0181324,11,0.000121334,-3.20448,-0.264481,-0.223078,-5.44106,0.194297,
2,1,0,1,0,4794.08,0.202056,0.201754,0.592492,4,0.0185974,11,0.000119538,-3.22732,-0.322267,-0.183078,-4.22198,0.201754,
2,1,0,1,0,4794.82,0.209546,0.20927,0.568407,4,0.0190419,11,0.000118951,-3.24534,-0.457942,-0.128837,-2.8609,0.2092704,
2,1,0,1,0,4795.57,0.217038,0.216738,0.551359,4,0.0194704,11,0.000119501,-3.25857,-0.692995,-0.0851377,-1.83203,0.216738,
2,1,0,1,0,4796.32,0.224528,0.224217,0.536051,4,0.0198879,11,0.000120192,-3.27079,-0.644185,-0.0915886,-1.91835,0.2242168,
2,1,0,1,0,4797.07,0.232019,0.231724,0.526638,4,0.0202961,11,0.000122035,-3.27849,-0.748256,-0.07885,-1.61888,0.2317245,
2,1,0,1,0,4797.82,0.23951,0.239213,0.517586,4,0.0206971,11,0.000123813,-3.28602,-1.31953,-0.044713,-0.901706,0.239213,
2,1,0,1,0,4798.57,0.247001,0.246722,0.509674,4,0.0210917,11,0.000125748,-3.29271,-0.79884,-0.0738571,-1.4642,0.246722,
2,1,0,1,0,4799.32,0.254492,0.254227,0.503325,4,0.0214811,11,0.000127959,-3.29815,-1.12915,-0.0522515,-1.02607,0.254227,
2,1,0,1,0,4800.07,0.261983,0.261689,0.497282,4,0.0218657,11,0.000130133,-3.3034,-0.93523,-0.0630861,-1.2215,0.261689,
2,1,0,1,0,4800.82,0.269474,0.269183,0.491121,4,0.022246,11,0.000132202,-3.30881,-5.41561,-0.0108944,-0.208638,0.269183,
2,1,0,1,0,4801.57,0.276965,0.276697,0.486481,4,0.0226225,11,0.000134608,-3.31293,-1.86877,-0.0315716,-0.59996,0.2766974,
2,1,0,1,0,4802.32,0.284456,0.28419,0.482409,4,0.0229954,11,0.000137096,-3.31658,-32.8138,-0.00179802,-0.0337639,0.28419,
2,1,0,1,0,4803.06,0.291947,0.29166,0.477354,4,0.0233647,11,0.000139225,-3.32116,-1.02781,-0.0574036,-1.0687,0.29166,
2,1,0,1,0,4803.81,0.299437,0.299154,0.470848,4,0.0237308,11,0.000140856,-3.32712,-0.00109455,-53.9032,-277.481,0.299154,
2,0,0,1,0,4804.5,0.293745,0.293461,-0.111889,4,0.0237143,11,-3.28352e-05,-3.95121,-0.0253489,-2.32752,9.67353,0.293461,
2,0,0,1,0,4805.25,0.286253,0.285966,-0.161187,4,0.0235999,11,-4.60939e-05,-3.79267,-0.0675037,-0.874026,5.48782,0.285966,
2,0,0,1,0,4806,0.278763,0.278482,-0.194765,4,0.0234555,11,-5.42385e-05,-3.71049,-0.103873,-0.568,4.29418,0.278482,
2,0,0,1,0,4806.75,0.271272,0.270987,-0.22082,4,0.0232894,11,-5.98395e-05,-3.65596,-0.199696,-0.295449,2.54532,0.270987,
2,0,0,1,0,4807.49,0.263781,0.263455,-0.242403,4,0.0231052,11,-6.38624e-05,-3.61546,-0.194939,-0.302659,2.88045,0.263455,
2,0,0,1,0,4808.24,0.25629,0.256012,-0.262709,4,0.0229054,11,-6.72566e-05,-3.58053,-0.290658,-0.202988,2.07325,0.256012,
2,0,0,1,0,4808.99,0.248799,0.248496,-0.281664,4,0.0226911,11,-6.99924e-05,-3.55027,-0.252496,-0.233667,2.5791,0.248496,
2,0,0,1,0,4809.74,0.241308,0.241054,-0.301049,4,0.022463,11,-7.2569e-05,-3.52136,-0.319714,-0.18454,2.16183,0.241054,
2,0,0,1,0,4810.49,0.233817,0.233488,-0.31868,4,0.0222214,11,-7.44078e-05,-3.49665,-0.246178,-0.239664,2.96537,0.233488,
2,0,0,1,0,4811.24,0.226326,0.226057,-0.336172,4,0.0219661,11,-7.5994e-05,-3.47344,-0.410523,-0.143719,1.88878,0.226057,
2,0,0,1,0,4811.99,0.218835,0.218585,-0.356909,4,0.0216962,11,-7.8015e-05,-3.44744,-0.290975,-0.202767,2.81996,0.218585,
2,0,0,1,0,4812.74,0.211344,0.21106,-0.37888,4,0.0214108,11,-7.99666e-05,-3.4215,-0.268236,-0.219955,3.25484,0.21106,
2,0,0,1,0,4813.49,0.203854,0.203558,-0.404685,4,0.0211071,11,-8.23769e-05,-3.39288,-0.269914,-0.218588,3.46515,0.203558,
2,0,0,1,0,4814.24,0.196362,0.196039,-0.437618,4,0.0207824,11,-8.579e-05,-3.3589,-0.220154,-0.267994,4.55719,0.196039,
2,0,0,1,0,4814.99,0.188872,0.188583,-0.478757,4,0.0204302,11,-9.02854e-05,-3.31989,-0.143938,-0.409898,7.63967,0.188583,
2,0,0,1,0,4815.73,0.18138,0.181089,-0.538356,4,0.0200416,11,-9.74904e-05,-3.26893,-0.137717,-0.428414,8.96736,0.181089,
2,0,0,1,0,4816.48,0.17389,0.173583,-0.62051,4,0.019601,11,-0.00010771,-3.20725,-0.100681,-0.586011,14.1723,0.173583,
2,0,0,1,0,4817.23,0.166398,0.166115,-0.747719,4,0.0190819,11,-0.000124207,-3.12626,-0.0861217,-0.685077,20.1516,0.166115,
2,0,0,1,0,4817.98,0.158907,0.158602,-0.949964,4,0.018439,11,-0.000150666,-3.02229,-0.0659631,-0.89444,33.3548,0.158602,
2,0,0,1,0,4818.73,0.151417,0.151107,-1.24367,4,0.0176087,11,-0.000187928,-2.90529,-0.0709527,-0.831539,40.3169,0.151107,
2,0,0,1,0,4819.48,0.143925,0.143614,-1.5359,4,0.0165536,11,-0.000220576,-2.81364,-0.0945903,-0.623743,37.3002,0.143614,
2,0,0,1,0,4820.23,0.136435,0.136152,-1.72812,4,0.0153113,11,-0.000235287,-2.76243,-0.255209,-0.231183,15.5157,0.136152,
2,0,0,1,0,4820.98,0.128943,0.128668,-1.76668,4,0.0139842,11,-0.000227315,-2.75284,0.737988,0.0799471,-5.48248,0.128668,
2,0,0,1,0,4821.73,0.121453,0.121098,-1.66204,4,0.012684,11,-0.000201269,-2.77936,0.187332,0.314949,-20.4206,0.121098,
2,0,0,1,0,4822.48,0.113962,0.113636,-1.48769,4,0.0114897,11,-0.000169055,-2.82749,0.14436,0.4087,-23.8312,0.1136355,
2,0,0,1,0,4823.23,0.106471,0.106174,-1.32655,4,0.0104257,11,-0.000140845,-2.87728,0.171136,0.344755,-17.9339,0.106174,
2,0,0,1,0,4823.97,0.0989799,0.0986795,-1.21596,4,0.00946631,11,-0.00011999,-2.91508,0.247223,0.238651,-11.3188,0.0986795,
2,0,0,1,0,4824.72,0.0914889,0.0911697,-1.14537,4,0.00857578,11,-0.000104423,-2.94105,0.352813,0.167227,-7.44002,0.0911697,
2,0,0,1,0,4825.47,0.083998,0.0836971,-1.08745,4,0.00773153,11,-9.10166e-05,-2.96359,0.277365,0.212716,-9.01306,0.0836971,
2,0,0,1,0,4826.22,0.076507,0.0761841,-1.03598,4,0.00692605,11,-7.89252e-05,-2.98465,0.313351,0.188287,-7.60162,0.0761841,
2,0,0,1,0,4826.97,0.0690161,0.0687146,-0.972164,4,0.00616259,11,-6.68018e-05,-3.01226,0.266402,0.22147,-8.43756,0.0687146,
2,0,0,1,0,4827.72,0.0615251,0.0612111,-0.911098,4,0.00544548,11,-5.57693e-05,-3.04044,0.249654,0.236327,-8.42535,0.0612111,
2,0,0,1,0,4828.47,0.0540342,0.0537162,-0.85154,4,0.0047763,11,-4.57415e-05,-3.0698,0.272552,0.216472,-7.17137,0.0537162,
2,0,0,1,0,4829.22,0.0465441,0.0462478,-0.803109,4,0.00414725,11,-3.71421e-05,-3.09523,0.402003,0.146765,-4.61735,0.0462478,
2,0,0,1,0,4829.97,0.0390523,0.0387454,-0.773955,4,0.00354724,11,-2.99871e-05,-3.11128,0.396249,0.148896,-4.48341,0.0387454,
2,0,0,1,0,4830.72,0.0315618,0.0312561,-0.758057,4,0.00296481,11,-2.36939e-05,-3.1203,1.88386,0.0313187,-0.927354,0.03125605,
2,0,0,1,0,4831.47,0.0240704,0.0238339,-0.749767,4,0.0023899,11,-1.78699e-05,-3.12507,9.11309,0.0064742,-0.190442,0.0238339,
2,0,0,1,0,4832.22,0.0165796,0.0162414,-0.757977,4,0.00181471,11,-1.23106e-05,-3.12034,-0.88431,-0.0667187,1.97244,0.0162414,
2,0,0,1,0,4832.96,0.00908846,0.00874539,-0.769534,4,0.00123299,11,-6.72988e-06,-3.11377,-0.870499,-0.0677772,2.03611,0.00874539,
2,0,0,1,0,4833.71,0.00159728,0.00127158,-0.793503,4,0.0006389,11,-1.009e-06,-3.10045, , , ,0.00127158,
2,0,0,1,0,4833.85,0.000199195,-0.000161173,-0.789975,4,0.000526386,11,1.27322e-07,-3.10239, , , ,-0.000161173,