File: Figure_codes/Fig_3-5/rawdata_trumpetplot_data/before 10th/20221101_1-115_002_TrumpetPlot_ParaChange_09_CV_C01_4.csv
mode,ox/red,error,control changes,counter inc.,time/s,control/V,Ewe/V,<I>/mA,cycle number,(Q-Qo)/C,I Range,P/W,log(|I|),Tafel slope mV/dec,alpha_eff,dI/d(E-IR),E-IR/V,
2,0,0,1,0,6110.8,2.44065e-05,-9.62757e-05,-4.37901,5,0.0000000E+000,11,4.21592e-07,-2.35862, , , ,-9.62757e-05,
2,1,0,1,0,6110.92,0.007288,0.00701576,2.14859,5,7.03823e-05,11,1.5074e-05,-2.66785,0.039036,1.51143,121.841,0.00701576,
2,1,0,1,0,6111.05,0.0147816,0.0144725,2.50005,5,0.000367207,11,3.6182e-05,-2.60205,0.214856,0.274603,26.8409,0.0144725,
2,1,0,1,0,6111.17,0.0222712,0.0220107,2.66472,5,0.000690714,11,5.86524e-05,-2.57435,0.37364,0.157906,16.3637,0.0220107,
2,1,0,1,0,6111.3,0.0297648,0.029529,2.79966,5,0.00103164,11,8.26711e-05,-2.55289,0.35561,0.165912,18.0327,0.029529,
2,1,0,1,0,6111.42,0.0372518,0.036965,2.93747,5,0.00138937,11,0.000108583,-2.53203,0.310111,0.190254,21.8474,0.036965,
2,1,0,1,0,6111.55,0.0447467,0.0444667,3.11654,5,0.00176793,11,0.000138582,-2.50633,0.266641,0.221272,27.0309,0.0444667,
2,1,0,1,0,6111.67,0.052235,0.0519352,3.3591,5,0.00217241,11,0.000174456,-2.47378,0.218305,0.270264,35.4473,0.0519352,
2,1,0,1,0,6111.8,0.0597299,0.0594745,3.66068,5,0.00261063,11,0.000217717,-2.43644,0.188693,0.312677,44.551,0.0594745,
2,1,0,1,0,6111.92,0.0672156,0.0669389,3.99237,5,0.0030876,11,0.000267245,-2.39877,0.180816,0.326298,50.8129,0.0669389,
2,1,0,1,0,6112.05,0.0747105,0.0744567,4.33093,5,0.00360803,11,0.000322467,-2.36342,0.228629,0.258059,43.6673,0.0744567,
2,1,0,1,0,6112.17,0.0821988,0.0819059,4.66426,5,0.0041705,11,0.00038203,-2.33122,0.27689,0.213081,38.7677,0.0819059,
2,1,0,1,0,6112.3,0.0896937,0.0893914,4.96815,5,0.00477252,11,0.00044411,-2.30381,0.28756,0.205175,39.7219,0.0893914,
2,1,0,1,0,6112.42,0.0971794,0.0968691,5.25362,5,0.005411,11,0.000508913,-2.27954,0.277798,0.212384,43.5995,0.0968691,
2,1,0,1,0,6112.55,0.104674,0.104359,5.59185,5,0.00608822,11,0.00058356,-2.25244,0.232303,0.253979,55.5296,0.104359,
2,1,0,1,0,6112.67,0.112163,0.111834,6.06805,5,0.00681475,11,0.000678613,-2.21695,0.194456,0.30341,71.8454,0.111834,
2,1,0,1,0,6112.8,0.119657,0.119351,6.7145,5,0.00761109,11,0.00080138,-2.17299,0.164087,0.359565,94.1412,0.119351,
2,1,0,1,0,6112.92,0.127143,0.126854,7.46002,5,0.00849556,11,0.000946337,-2.12726,0.164458,0.358755,104.497,0.126854,
2,1,0,1,0,6113.05,0.134638,0.134348,8.19984,5,0.00947605,11,0.00110163,-2.08619,0.205845,0.286623,91.8992,0.134348,
2,1,0,1,0,6113.17,0.142126,0.141841,8.81403,5,0.0105415,11,0.00125019,-2.05483,0.303145,0.194626,66.8822,0.1418414,
2,1,0,1,0,6113.3,0.149621,0.149317,9.11692,5,0.0116666,11,0.00136131,-2.04015,4.09558,0.0144058,5.1068,0.149317,
2,1,0,1,0,6113.42,0.157107,0.156789,8.74915,5,0.0127904,11,0.00137177,-2.05803,-0.186298,-0.316696,-107.649,0.1567889,
2,1,0,1,0,6113.55,0.164602,0.164316,7.43197,5,0.013811,11,0.00122119,-2.1289,-0.0741926,-0.795228,-230.049,0.164316,
2,1,0,1,0,6113.67,0.17209,0.171811,5.72327,5,0.0146307,11,0.000983321,-2.24236,-0.064767,-0.910957,-204.216,0.171811,
2,1,0,1,0,6113.8,0.179585,0.179313,4.56403,5,0.0152666,11,0.00081839,-2.34065,-0.0935698,-0.630545,-112.674,0.179313,
2,1,0,1,0,6113.92,0.187072,0.186807,3.89522,5,0.0157915,11,0.000727654,-2.40947,-0.138654,-0.425519,-64.7848,0.186807,
2,1,0,1,0,6114.05,0.194566,0.19426,3.46754,5,0.0162498,11,0.000673604,-2.45998,-0.172935,-0.341169,-46.2157,0.19426,
2,1,0,1,0,6114.17,0.202055,0.201827,3.17851,5,0.0166633,11,0.000641508,-2.49778,-0.21351,-0.276334,-34.2318,0.201827,
2,1,0,1,0,6114.3,0.209549,0.20926,2.99085,5,0.0170478,11,0.000625867,-2.5242,-0.282283,-0.20901,-24.3358,0.2092602,
2,1,0,1,0,6114.42,0.217036,0.216737,2.8442,5,0.0174113,11,0.000616444,-2.54604,-0.480473,-0.122796,-13.6649,0.216737,
2,1,0,1,0,6114.54,0.224529,0.224239,2.74618,5,0.0177614,11,0.000615802,-2.56127,-0.521556,-0.113123,-12.191,0.224239,
2,1,0,1,0,6114.67,0.232019,0.231733,2.68692,5,0.0181009,11,0.000622649,-2.57074,-0.783273,-0.0753249,-7.88763,0.231733,
2,1,0,1,0,6114.79,0.239513,0.239224,2.63644,5,0.0184331,11,0.000630701,-2.57898,-1.13951,-0.0517766,-5.30196,0.239224,
2,1,0,1,0,6114.92,0.247001,0.2467,2.58497,5,0.0187587,11,0.000637713,-2.58754,-1.07339,-0.054966,-5.5366,0.2467,
2,1,0,1,0,6115.04,0.254493,0.254222,2.53614,5,0.0190792,11,0.000644742,-2.59583,-0.845295,-0.0697982,-6.93803,0.254222,
2,1,0,1,0,6115.17,0.261983,0.261721,2.5058,5,0.0193948,11,0.000655821,-2.60105,-0.974323,-0.0605549,-5.93071,0.261721,
2,1,0,1,0,6115.29,0.269477,0.269202,2.48186,5,0.0197064,11,0.000668122,-2.60522,-2.71909,-0.0216984,-2.09331,0.269202,
2,1,0,1,0,6115.42,0.276965,0.276672,2.44468,5,0.0200139,11,0.000676373,-2.61178,-3.85636,-0.0152994,-1.46141,0.276672,
2,1,0,1,0,6115.54,0.284457,0.284177,2.41113,5,0.0203178,11,0.000685187,-2.61778,-1.4771,-0.0399432,-3.76726,0.2841773,
2,1,0,1,0,6115.67,0.291947,0.291703,2.38881,5,0.0206179,11,0.000696823,-2.62182,-0.693976,-0.0850173,-7.90979,0.291703,
2,1,0,1,0,6115.79,0.29944,0.29916,2.36133,5,0.0209148,11,0.000706416,-2.62684,-0.00352244,-16.7497,-897.564,0.29916,
2,0,0,1,0,6115.91,0.293742,0.293429,-0.872683,5,0.0209065,11,-0.00025607,-3.05914,-0.0374941,-1.57358,51.6388,0.293429,
2,0,0,1,0,6116.03,0.286254,0.285951,-1.10737,5,0.0207808,11,-0.000316653,-2.95571,-0.0977756,-0.603423,26.2853,0.285951,
2,0,0,1,0,6116.16,0.278761,0.27847,-1.27095,5,0.0206305,11,-0.000353921,-2.89587,-0.187025,-0.315466,15.6874,0.27847,
2,0,0,1,0,6116.28,0.271272,0.270943,-1.39986,5,0.0204635,11,-0.000379283,-2.85391,-0.202935,-0.290733,15.7647,0.270943,
2,0,0,1,0,6116.41,0.263778,0.263454,-1.49788,5,0.0202826,11,-0.000394623,-2.82452,-0.216089,-0.273035,15.8753,0.263454,
2,0,0,1,0,6116.53,0.25629,0.256045,-1.57953,5,0.0200902,11,-0.000404431,-2.80147,-0.347081,-0.169989,10.486,0.256045,
2,0,0,1,0,6116.66,0.248797,0.248504,-1.65823,5,0.0198871,11,-0.000412077,-2.78036,-0.5106,-0.11555,7.48923,0.248504,
2,0,0,1,0,6116.78,0.241308,0.241017,-1.74107,5,0.0196743,11,-0.000419629,-2.75918,-0.40763,-0.144739,9.83511,0.241017,
2,0,0,1,0,6116.91,0.233814,0.233508,-1.81847,5,0.0194517,11,-0.000424628,-2.74029,-0.315718,-0.186875,13.2484,0.233508,
2,0,0,1,0,6117.03,0.226326,0.226044,-1.89468,5,0.0192196,11,-0.000428281,-2.72246,-0.368466,-0.160124,11.8618,0.226044,
2,0,0,1,0,6117.16,0.218834,0.218542,-1.98407,5,0.018977,11,-0.000433603,-2.70244,-0.418486,-0.140985,10.909,0.218542,
2,0,0,1,0,6117.28,0.211344,0.21105,-2.08217,5,0.0187234,11,-0.000439442,-2.68148,-0.417245,-0.141404,11.4486,0.21105,
2,0,0,1,0,6117.4,0.203856,0.203498,-2.18938,5,0.0184568,11,-0.000445533,-2.65968,-0.311267,-0.189548,16.2026,0.2034978,
2,0,0,1,0,6117.53,0.196362,0.196092,-2.31715,5,0.0181751,11,-0.000454375,-2.63505,-0.253108,-0.233102,21.1619,0.196092,
2,0,0,1,0,6117.65,0.18887,0.188553,-2.49285,5,0.0178739,11,-0.000470034,-2.6033,-0.215329,-0.273999,26.7658,0.188553,
2,0,0,1,0,6117.78,0.18138,0.181121,-2.74375,5,0.0175474,11,-0.000496952,-2.56165,-0.166233,-0.354924,37.9409,0.181121,
2,0,0,1,0,6117.9,0.173892,0.1736,-3.08445,5,0.0171852,11,-0.000535461,-2.51082,-0.123259,-0.478666,57.5392,0.1736,
2,0,0,1,0,6118.03,0.166398,0.166047,-3.57573,5,0.016771,11,-0.000593741,-2.44663,-0.101699,-0.580145,81.2801,0.166047,
2,0,0,1,0,6118.15,0.158905,0.158629,-4.32983,5,0.0162792,11,-0.000686836,-2.36353,-0.0848543,-0.69531,117.9,0.158629,
2,0,0,1,0,6118.28,0.151417,0.15113,-5.40379,5,0.0156744,11,-0.000816675,-2.2673,-0.0784631,-0.751946,158.365,0.15113,
2,0,0,1,0,6118.4,0.143927,0.143647,-6.67131,5,0.0149218,11,-0.000958311,-2.17579,-0.0857603,-0.687964,178.931,0.143647,
2,0,0,1,0,6118.53,0.136435,0.136129,-7.88014,5,0.0140094,11,-0.00107271,-2.10347,-0.125311,-0.470828,144.645,0.1361289,
2,0,0,1,0,6118.65,0.128941,0.128634,-8.77318,5,0.0129643,11,-0.00112853,-2.05684,-0.236317,-0.249665,85.2466,0.1286335,
2,0,0,1,0,6118.78,0.121453,0.121136,-9.15169,5,0.01184,11,-0.00110859,-2.0385,-2.09194,-0.0282035,10.0424,0.121136,
2,0,0,1,0,6118.9,0.113963,0.113628,-8.97939,5,0.010703,11,-0.00102031,-2.04675,0.372067,0.158573,-55.4532,0.113628,
2,0,0,1,0,6119.03,0.106471,0.106206,-8.322,5,0.00961751,11,-0.000883842,-2.07977,0.178801,0.329976,-107.244,0.106206,
2,0,0,1,0,6119.15,0.0989825,0.0986698,-7.47652,5,0.00863024,11,-0.000737707,-2.1263,0.15818,0.372993,-108.943,0.09866979,
2,0,0,1,0,6119.28,0.0914889,0.0911953,-6.77658,5,0.00774299,11,-0.000617992,-2.16899,0.203528,0.289887,-76.5877,0.0911953,
2,0,0,1,0,6119.4,0.0839993,0.0836571,-6.29884,5,0.00692971,11,-0.000526942,-2.20074,0.291431,0.202449,-49.7333,0.0836571,
2,0,0,1,0,6119.53,0.076507,0.0761912,-5.96862,5,0.00616423,11,-0.000454757,-2.22413,0.354481,0.166441,-38.801,0.0761912,
2,0,0,1,0,6119.65,0.0690187,0.0686876,-5.68042,5,0.00543638,11,-0.000390175,-2.24562,0.315625,0.186931,-41.4999,0.0686876,
2,0,0,1,0,6119.78,0.0615251,0.0611807,-5.37748,5,0.0047444,11,-0.000328998,-2.26942,0.277823,0.212365,-44.5771,0.0611807,
2,0,0,1,0,6119.9,0.0540355,0.0537408,-5.01758,5,0.00409492,11,-0.000269648,-2.29951,0.245478,0.240348,-47.0298,0.0537408,
2,0,0,1,0,6120.03,0.0465432,0.0462085,-4.63778,5,0.00349143,11,-0.000214305,-2.33369,0.225681,0.261431,-47.4317,0.0462085,
2,0,0,1,0,6120.15,0.0390549,0.0387303,-4.33477,5,0.00293193,11,-0.000167887,-2.36303,0.254085,0.232206,-39.2468,0.0387303,
2,0,0,1,0,6120.28,0.0315613,0.0312229,-4.12125,5,0.00240494,11,-0.000128678,-2.38497,0.413956,0.142527,-22.9105,0.0312229,
2,0,0,1,0,6120.4,0.0240717,0.0237624,-3.98859,5,0.00189918,11,-9.47784e-05,-2.39918,0.937613,0.0629257,-9.82377,0.0237624,
2,0,0,1,0,6120.53,0.0165781,0.0162887,-3.94183,5,0.00140372,11,-6.42073e-05,-2.4043,17.1617,0.00343789,-0.530336,0.0162887,
2,0,0,1,0,6120.65,0.00909108,0.00875873,-3.94332,5,0.000911337,11,-3.45385e-05,-2.40414,-2.85042,-0.0206987,3.18904,0.00875873,
2,0,0,1,0,6120.78,0.00159616,0.0012842,-4.03798,5,0.000415234,11,-5.18558e-06,-2.39384, , , ,0.0012842,
2,0,0,0,0,6120.8,0.000199195,-0.000178351,-4.02571,5,0.000321338,11,7.17991e-07,-2.39516, , , ,-0.0001783512,