File: Figure_codes/Fig_3-5/rawdata_trumpetplot_data/before 10th/20221101_1-115_002_TrumpetPlot_ParaChange_07_CV_C01_1.csv
mode,ox/red,error,control changes,counter inc.,time/s,control/V,Ewe/V,<I>/mA,cycle number,(Q-Qo)/C,I Range,P/W,log(|I|),Tafel slope mV/dec,alpha_eff,dI/d(E-IR),E-IR/V,
2,0,0,0,0,2370.72,2.44065e-05,-0.000439847,-1.08768,2,0.0000000E+000,11,4.78415e-07,-2.9635, , , ,-0.000439847,
2,1,0,1,0,2371.08,0.00729063,0.00701696,0.847939,2,0.000247978,11,5.94995e-06,-3.07164,0.167945,0.351305,11.5878,0.00701696,
2,1,0,1,0,2371.45,0.0147802,0.0145264,0.913222,2,0.000581605,11,1.32658e-05,-3.03942,0.296826,0.198769,7.09016,0.0145264,
2,1,0,1,0,2371.83,0.0222725,0.0219781,0.953955,2,0.00093458,11,2.09661e-05,-3.02047,0.575109,0.102589,3.81015,0.0219781,
2,1,0,1,0,2372.2,0.0297644,0.0295031,0.985642,2,0.00130042,11,2.90795e-05,-3.00628,0.577978,0.10208,3.92166,0.0295031,
2,1,0,1,0,2372.58,0.0372544,0.0370117,1.01689,2,0.00167763,11,3.76368e-05,-2.99273,0.43138,0.13677,5.43538,0.0370117,
2,1,0,1,0,2372.95,0.0447449,0.0444586,1.06132,2,0.00206877,11,4.71849e-05,-2.97415,0.33752,0.174804,7.22682,0.0444586,
2,1,0,1,0,2373.33,0.0522363,0.0519316,1.11576,2,0.00247851,11,5.7943e-05,-2.95243,0.225361,0.261802,11.4016,0.0519316,
2,1,0,1,0,2373.7,0.0597291,0.0594871,1.2007,2,0.00291405,11,7.14262e-05,-2.92057,0.217197,0.271643,12.7023,0.05948709,
2,1,0,1,0,2374.08,0.0672182,0.0669459,1.30317,2,0.00338346,11,8.72422e-05,-2.885,0.198485,0.297252,15.0452,0.0669459,
2,1,0,1,0,2374.45,0.0747092,0.0744493,1.42065,2,0.00389467,11,0.000105767,-2.84751,0.210283,0.280574,15.5244,0.0744493,
2,1,0,1,0,2374.83,0.0822001,0.0819431,1.54072,2,0.00445304,11,0.000126251,-2.81228,0.225649,0.261469,15.7768,0.0819431,
2,1,0,1,0,2375.2,0.0896911,0.0894254,1.67216,2,0.00505795,11,0.000149534,-2.77672,0.227599,0.259228,16.9309,0.0894254,
2,1,0,1,0,2375.57,0.097182,0.0969067,1.79417,2,0.00570962,11,0.000173867,-2.74614,0.203653,0.289708,20.2711,0.0969067,
2,1,0,1,0,2375.95,0.104673,0.104438,1.94687,2,0.00641066,11,0.000203326,-2.71066,0.192822,0.305982,23.1941,0.104438,
2,1,0,1,0,2376.32,0.112164,0.111842,2.1541,2,0.00717803,11,0.000240919,-2.66674,0.14373,0.410491,34.5307,0.111842,
2,1,0,1,0,2376.7,0.119655,0.119403,2.48606,2,0.00804544,11,0.000296844,-2.60449,0.118121,0.499488,48.49,0.119403,
2,1,0,1,0,2377.07,0.127146,0.126861,2.90406,2,0.00905634,11,0.000368412,-2.53699,0.110913,0.531947,60.4142,0.1268609,
2,1,0,1,0,2377.45,0.134637,0.13431,3.34165,2,0.0102332,11,0.000448818,-2.47604,0.155753,0.378805,49.3841,0.13431,
2,1,0,1,0,2377.82,0.142128,0.141884,3.61091,2,0.011546,11,0.000512329,-2.44238,0.372975,0.158188,22.2258,0.141884,
2,1,0,1,0,2378.2,0.149619,0.149328,3.58438,2,0.0129076,11,0.000535246,-2.44559,-0.283629,-0.208018,-28.9638,0.149328,
2,1,0,1,0,2378.57,0.157108,0.156844,3.15458,2,0.0141844,11,0.000494777,-2.50106,-0.0847806,-0.695914,-85.1041,0.1568439,
2,1,0,1,0,2378.95,0.164601,0.164343,2.45494,2,0.0152377,11,0.000403452,-2.60996,-0.0610325,-0.966699,-92.4925,0.164343,
2,1,0,1,0,2379.32,0.172092,0.171817,1.88743,2,0.0160459,11,0.000324293,-2.72413,-0.0769388,-0.766844,-56.9408,0.171817,
2,1,0,1,0,2379.69,0.179582,0.179296,1.5623,2,0.0166898,11,0.000280115,-2.80623,-0.109581,-0.538415,-32.9952,0.179296,
2,1,0,1,0,2380.07,0.187073,0.186786,1.36489,2,0.0172373,11,0.000254942,-2.8649,-0.157057,-0.37566,-19.9869,0.186786,
2,1,0,1,0,2380.44,0.194564,0.194328,1.23898,2,0.0177259,11,0.00024077,-2.90693,-0.216025,-0.273116,-13.2168,0.194328,
2,1,0,1,0,2380.82,0.202057,0.201722,1.15864,2,0.0181758,11,0.000233723,-2.93605,-0.265106,-0.222552,-10.0285,0.201722,
2,1,0,1,0,2381.19,0.209546,0.209276,1.09868,2,0.0186,11,0.000229928,-2.95913,-0.342283,-0.172372,-7.38662,0.209276,
2,1,0,1,0,2381.57,0.217037,0.216791,1.05362,2,0.0190051,11,0.000228414,-2.97732,-0.578818,-0.101932,-4.20614,0.2167906,
2,1,0,1,0,2381.94,0.224528,0.224274,1.02384,2,0.0193968,11,0.000229621,-2.98977,-0.536369,-0.109999,-4.38899,0.224274,
2,1,0,1,0,2382.32,0.232019,0.231714,0.998571,2,0.0197777,11,0.000231383,-3.00062,-0.852943,-0.0691723,-2.69934,0.231714,
2,1,0,1,0,2382.69,0.23951,0.239222,0.977511,2,0.0201504,11,0.000233842,-3.00988,-1.23914,-0.0476137,-1.81616,0.239222,
2,1,0,1,0,2383.07,0.247001,0.246735,0.962987,2,0.0205161,11,0.000237602,-3.01638,-0.819999,-0.0719513,-2.69157,0.246735,
2,1,0,1,0,2383.44,0.254492,0.254206,0.943847,2,0.0208757,11,0.000239932,-3.0251,-1.24202,-0.0475033,-1.7584,0.254206,
2,1,0,1,0,2383.81,0.261983,0.261712,0.931817,2,0.0212299,11,0.000243867,-3.03067,-1.27576,-0.0462469,-1.68354,0.261712,
2,1,0,1,0,2384.19,0.269474,0.269188,0.91889,2,0.0215797,11,0.000247354,-3.03674,-30.7055,-0.00192148,-0.0688524,0.269188,
2,1,0,1,0,2384.56,0.276965,0.276695,0.908725,2,0.0219251,11,0.00025144,-3.04157,-0.953865,-0.0618536,-2.19862,0.276695,
2,1,0,1,0,2384.94,0.284456,0.284211,0.900024,2,0.0222664,11,0.000255797,-3.04575,-2.52913,-0.0233282,-0.819151,0.284211,
2,1,0,1,0,2385.31,0.291947,0.291688,0.887332,2,0.0226038,11,0.000258824,-3.05191,-0.987284,-0.0597599,-2.07633,0.291688,
2,1,0,1,0,2385.69,0.299436,0.299202,0.874596,2,0.0229377,11,0.000261681,-3.05819,-0.00202179,-29.1821,-576.085,0.299202,
2,0,0,1,0,2386.03,0.293745,0.293409,-0.287435,2,0.0229028,11,-8.43362e-05,-3.54146,-0.0406247,-1.45232,15.8877,0.293409,
2,0,0,1,0,2386.4,0.286254,0.285982,-0.371216,2,0.0227755,11,-0.000106161,-3.43037,-0.0892576,-0.661008,9.59433,0.285982,
2,0,0,1,0,2386.78,0.278763,0.278484,-0.428831,2,0.0226216,11,-0.000119423,-3.36771,-0.150581,-0.391815,6.54842,0.278484,
2,0,0,1,0,2387.15,0.271272,0.270978,-0.479298,2,0.0224488,11,-0.000129879,-3.31939,-0.211971,-0.27834,5.1825,0.270978,
2,0,0,1,0,2387.53,0.263781,0.263464,-0.515502,2,0.0222601,11,-0.000135816,-3.28777,-0.254711,-0.231635,4.67479,0.263464,
2,0,0,1,0,2387.9,0.25629,0.255994,-0.552475,2,0.0220574,11,-0.00014143,-3.25769,-0.447988,-0.1317,2.82176,0.255994,
2,0,0,1,0,2388.28,0.248799,0.248491,-0.58499,2,0.0218419,11,-0.000145365,-3.23285,-0.329138,-0.179256,4.09328,0.248491,
2,0,0,1,0,2388.65,0.241308,0.241006,-0.618017,2,0.021614,11,-0.000148946,-3.209,-0.306116,-0.192737,4.65607,0.241006,
2,0,0,1,0,2389.03,0.233817,0.233541,-0.648903,2,0.0213737,11,-0.000151546,-3.18782,-0.274503,-0.214934,5.4571,0.2335411,
2,0,0,1,0,2389.4,0.226326,0.226037,-0.685914,2,0.0211205,11,-0.000155042,-3.16373,-0.34088,-0.173081,4.63463,0.226037,
2,0,0,1,0,2389.78,0.218835,0.218561,-0.72898,2,0.0208531,11,-0.000159326,-3.13728,-0.266846,-0.221101,6.27587,0.218561,
2,0,0,1,0,2390.15,0.211344,0.211066,-0.773006,2,0.0205703,11,-0.000163155,-3.11182,-0.318272,-0.185376,5.58408,0.211066,
2,0,0,1,0,2390.52,0.203855,0.203508,-0.824467,2,0.0202684,11,-0.000167785,-3.08383,-0.245361,-0.240462,7.76312,0.203508,
2,0,0,1,0,2390.9,0.196362,0.196065,-0.89528,2,0.0199438,11,-0.000175533,-3.04804,-0.196712,-0.29993,10.4827,0.196065,
2,0,0,1,0,2391.27,0.188871,0.188544,-0.989914,2,0.0195885,11,-0.000186642,-3.0044,-0.134281,-0.439376,16.9856,0.188544,
2,0,0,1,0,2391.65,0.18138,0.181098,-1.11905,2,0.0191922,11,-0.000202658,-2.95115,-0.126711,-0.465628,20.4371,0.181098,
2,0,0,1,0,2392.02,0.173891,0.173574,-1.31044,2,0.0187365,11,-0.000227458,-2.88258,-0.0956798,-0.61664,31.5601,0.173574,
2,0,0,1,0,2392.4,0.166398,0.166065,-1.60839,2,0.018191,11,-0.000267097,-2.79361,-0.0792767,-0.744229,46.8309,0.1660652,
2,0,0,1,0,2392.77,0.158906,0.158615,-2.05695,2,0.0175067,11,-0.000326262,-2.68678,-0.066184,-0.891455,71.8122,0.158615,
2,0,0,1,0,2393.15,0.151417,0.151102,-2.64954,2,0.016623,11,-0.000400349,-2.57683,-0.0733775,-0.804061,83.2368,0.151102,
2,0,0,1,0,2393.52,0.143926,0.143638,-3.22716,2,0.0155139,11,-0.000463544,-2.49118,-0.106216,-0.555473,69.7835,0.143638,
2,0,0,1,0,2393.9,0.136435,0.136177,-3.58588,2,0.0142258,11,-0.000488314,-2.4454,-0.283808,-0.207887,28.96,0.136177,
2,0,0,1,0,2394.27,0.128942,0.128658,-3.61195,2,0.0128651,11,-0.000464705,-2.44226,0.374246,0.15765,-22.1121,0.128658,
2,0,0,1,0,2394.64,0.121453,0.121145,-3.29751,2,0.0115608,11,-0.000399478,-2.48181,0.128225,0.460128,-59.0597,0.121145,
2,0,0,1,0,2395.02,0.113962,0.113656,-2.83025,2,0.0104095,11,-0.000321674,-2.54817,0.108952,0.541524,-60.0156,0.113656,
2,0,0,1,0,2395.39,0.106471,0.106187,-2.46588,2,0.00941822,11,-0.000261844,-2.60803,0.151662,0.389024,-37.6109,0.106187,
2,0,0,1,0,2395.77,0.0989799,0.0986797,-2.23523,2,0.00853883,11,-0.000220572,-2.65068,0.236041,0.249957,-21.7966,0.0986797,
2,0,0,1,0,2396.14,0.0914889,0.0911728,-2.09213,2,0.00772907,11,-0.000190745,-2.67941,0.287644,0.205115,-16.6748,0.0911728,
2,0,0,1,0,2396.52,0.083998,0.0837035,-1.96962,2,0.00696767,11,-0.000164864,-2.70562,0.258943,0.22785,-17.4865,0.0837035,
2,0,0,1,0,2396.89,0.076507,0.0761715,-1.85523,2,0.00624904,11,-0.000141315,-2.7316,0.254226,0.232077,-16.7754,0.07617145,
2,0,0,1,0,2397.27,0.0690161,0.0687549,-1.7227,2,0.00557532,11,-0.000118444,-2.76379,0.236308,0.249674,-16.8809,0.0687549,
2,0,0,1,0,2397.64,0.0615251,0.0612093,-1.61485,2,0.00494589,11,-9.88438e-05,-2.79187,0.270579,0.218051,-13.7841,0.0612093,
2,0,0,1,0,2398.02,0.0540342,0.0537022,-1.53015,2,0.00435595,11,-8.21723e-05,-2.81527,0.388674,0.151798,-9.02718,0.0537022,
2,0,0,1,0,2398.39,0.0465432,0.0462309,-1.45825,2,0.00379486,11,-6.7416e-05,-2.83617,0.512109,0.11521,-6.58029,0.04623086,
2,0,0,1,0,2398.76,0.0390523,0.0387253,-1.42422,2,0.00325246,11,-5.51534e-05,-2.84642,0.621631,0.0949115,-5.2629,0.0387253,
2,0,0,1,0,2399.14,0.0315626,0.0312475,-1.41149,2,0.00271987,11,-4.41055e-05,-2.85032,4.40841,0.0133835,-0.736763,0.0312475,
2,0,0,1,0,2399.51,0.0240704,0.0237671,-1.40612,2,0.00218971,11,-3.34195e-05,-2.85198,-7.54274,-0.0078221,0.431671,0.0237671,
2,0,0,1,0,2399.89,0.0165785,0.0162746,-1.42416,2,0.00165637,11,-2.31776e-05,-2.84644,-0.838165,-0.0703919,3.91694,0.0162746,
2,0,0,1,0,2400.26,0.00908846,0.00876159,-1.45228,2,0.00111552,11,-1.27242e-05,-2.83795,-0.750804,-0.0785825,4.43897,0.00876159,
2,0,0,1,0,2400.64,0.0015984,0.00125483,-1.50668,2,0.000562577,11,-1.89063e-06,-2.82198, , , ,0.00125483,
2,0,0,1,0,2400.71,0.000199195,-0.000119673,-1.4919,2,0.000457514,11,1.7854e-07,-2.82626, , , ,-0.000119673,