File: Figure_codes/Fig_3-5/rawdata_trumpetplot_data/before 10th/20221101_1-115_002_TrumpetPlot_ParaChange_08_CV_C01_5.csv
mode,ox/red,error,control changes,counter inc.,time/s,control/V,Ewe/V,<I>/mA,cycle number,(Q-Qo)/C,I Range,P/W,log(|I|),Tafel slope mV/dec,alpha_eff,dI/d(E-IR),E-IR/V,
2,0,0,0,0,7327.33,2.44065e-05,-0.000268062,-2.34257,6,0.0000000E+000,11,6.27953e-07,-2.63031, , , ,-0.000268062,
2,1,0,1,0,7327.51,0.00729063,0.00700642,1.61773,6,0.000167391,11,1.13345e-05,-2.79109,0.103749,0.568678,35.6117,0.00700642,
2,1,0,1,0,7327.7,0.014778,0.0144939,1.76998,6,0.000487461,11,2.56539e-05,-2.75203,0.255347,0.231058,15.9059,0.0144939,
2,1,0,1,0,7327.89,0.0222743,0.0219869,1.86733,6,0.000829279,11,4.10568e-05,-2.72878,0.318382,0.185312,13.5208,0.0219869,
2,1,0,1,0,7328.07,0.0297626,0.0294991,1.96412,6,0.00118826,11,5.79397e-05,-2.70683,0.353837,0.166743,12.7443,0.0294991,
2,1,0,1,0,7328.26,0.0372544,0.0369934,2.07425,6,0.00156641,11,7.67336e-05,-2.68314,0.293563,0.200979,16.2536,0.0369934,
2,1,0,1,0,7328.45,0.0447472,0.0444414,2.21061,6,0.00196867,11,9.82427e-05,-2.65549,0.223165,0.264379,22.9494,0.0444414,
2,1,0,1,0,7328.64,0.0522345,0.0519555,2.40364,6,0.00240164,11,0.000124882,-2.61913,0.188763,0.312561,29.2879,0.0519555,
2,1,0,1,0,7328.82,0.0597309,0.0594504,2.6261,6,0.00287322,11,0.000156122,-2.58069,0.183414,0.321677,32.943,0.0594504,
2,1,0,1,0,7329.01,0.0672182,0.0669264,2.86846,6,0.00338762,11,0.000191976,-2.54235,0.206766,0.285347,31.8967,0.06692645,
2,1,0,1,0,7329.2,0.0747074,0.0744344,3.10088,6,0.00394632,11,0.000230812,-2.50852,0.248479,0.237445,28.6186,0.0744344,
2,1,0,1,0,7329.39,0.0822019,0.0819114,3.30059,6,0.00454716,11,0.000270356,-2.48141,0.292743,0.201542,25.9909,0.0819114,
2,1,0,1,0,7329.57,0.0896911,0.0894318,3.49101,6,0.00518461,11,0.000312208,-2.45705,0.291953,0.202087,27.6003,0.0894318,
2,1,0,1,0,7329.76,0.097182,0.0968917,3.69724,6,0.00585898,11,0.000358232,-2.43212,0.283014,0.20847,30.037,0.0968917,
2,1,0,1,0,7329.95,0.104675,0.104399,3.95392,6,0.00657452,11,0.000412783,-2.40297,0.212072,0.278208,42.9835,0.1043986,
2,1,0,1,0,7330.13,0.112162,0.111837,4.33304,6,0.00734828,11,0.000484595,-2.36321,0.172607,0.341817,57.6864,0.111837,
2,1,0,1,0,7330.32,0.119655,0.119379,4.82166,6,0.00820413,11,0.000575606,-2.3168,0.168214,0.350743,65.9305,0.1193791,
2,1,0,1,0,7330.51,0.127146,0.126841,5.316,6,0.00915526,11,0.000674286,-2.27442,0.191443,0.308186,64.0661,0.126841,
2,1,0,1,0,7330.7,0.134635,0.134341,5.77022,6,0.0101961,11,0.000775179,-2.23881,0.259063,0.227744,51.233,0.134341,
2,1,0,1,0,7330.88,0.14213,0.141828,6.06342,6,0.0113093,11,0.000859963,-2.21728,0.533444,0.110602,26.1423,0.141828,
2,1,0,1,0,7331.07,0.149619,0.149347,6.03613,6,0.0124506,11,0.000901478,-2.21924,-0.358456,-0.164595,-38.6436,0.149347,
2,1,0,1,0,7331.26,0.157106,0.156811,5.4045,6,0.0135329,11,0.000847483,-2.26724,-0.0940336,-0.627435,-131.471,0.156811,
2,1,0,1,0,7331.45,0.164602,0.164339,4.25724,6,0.0144412,11,0.00069963,-2.37087,-0.0639576,-0.922486,-153.522,0.164339,
2,1,0,1,0,7331.63,0.172091,0.171844,3.31373,6,0.0151443,11,0.000569444,-2.47968,-0.0780661,-0.75577,-98.1954,0.171844,
2,1,0,1,0,7331.82,0.179582,0.179282,2.76239,6,0.01571,11,0.000495247,-2.55872,-0.112169,-0.525994,-56.8504,0.179282,
2,1,0,1,0,7332.01,0.187074,0.186795,2.42236,6,0.0161939,11,0.000452485,-2.61576,-0.160786,-0.366948,-34.7622,0.186795,
2,1,0,1,0,7332.19,0.194563,0.19427,2.21498,6,0.0166266,11,0.000430305,-2.65463,-0.225552,-0.261581,-22.5592,0.19427,
2,1,0,1,0,7332.38,0.202059,0.201798,2.07186,6,0.0170276,11,0.000418097,-2.68364,-0.310653,-0.189922,-15.3489,0.201798,
2,1,0,1,0,7332.57,0.209546,0.209292,1.97979,6,0.0174076,11,0.000414355,-2.70338,-0.338553,-0.174271,-13.5075,0.209292,
2,1,0,1,0,7332.76,0.217035,0.216799,1.91673,6,0.0177727,11,0.000415545,-2.71744,-0.555309,-0.106247,-7.93737,0.216799,
2,1,0,1,0,7332.94,0.22453,0.22422,1.86519,6,0.018128,11,0.000418213,-2.72928,-0.719802,-0.081967,-5.98931,0.22422,
2,1,0,1,0,7333.13,0.232019,0.231714,1.83378,6,0.0184747,11,0.000424911,-2.73665,-1.43496,-0.0411163,-2.93444,0.231714,
2,1,0,1,0,7333.32,0.23951,0.239262,1.7972,6,0.0188153,11,0.000430003,-2.7454,-1.1003,-0.0536215,-3.76084,0.239262,
2,1,0,1,0,7333.51,0.247003,0.246708,1.76888,6,0.0191503,11,0.000436396,-2.7523,-0.912016,-0.0646918,-4.47352,0.246708,
2,1,0,1,0,7333.69,0.25449,0.254255,1.74971,6,0.0194801,11,0.000444871,-2.75703,-1.01053,-0.0583851,-3.97258,0.254255,
2,1,0,1,0,7333.88,0.261983,0.261716,1.72179,6,0.0198058,11,0.000450619,-2.76402,-1.18442,-0.0498135,-3.35511,0.261716,
2,1,0,1,0,7334.07,0.269474,0.269188,1.70088,6,0.0201274,11,0.000457855,-2.76933,-2.01242,-0.0293179,-1.94953,0.269188,
2,1,0,1,0,7334.25,0.276963,0.276683,1.68636,6,0.0204452,11,0.000466587,-2.77305,-1.56005,-0.0378192,-2.48136,0.276683,
2,1,0,1,0,7334.44,0.284458,0.284163,1.6607,6,0.0207596,11,0.000471911,-2.77971,-1.82801,-0.0322756,-2.09846,0.2841633,
2,1,0,1,0,7334.63,0.291947,0.291665,1.64674,6,0.0210702,11,0.000480296,-2.78338,-1.12701,-0.0523508,-3.36188,0.291665,
2,1,0,1,0,7334.82,0.299434,0.299152,1.62542,6,0.0213774,11,0.000486248,-2.78903,-0.00783059,-7.53455,-354.428,0.299152,
2,0,0,1,0,7334.98,0.294196,0.293857,-0.574919,6,0.0213618,11,-0.000168944,-3.24039,-0.0458961,-1.28551,28.6264,0.293857,
2,0,0,1,0,7335.16,0.286701,0.286385,-0.738146,6,0.0212362,11,-0.000211394,-3.13186,-0.0972708,-0.606554,17.3586,0.286385,
2,0,0,1,0,7335.35,0.279212,0.278895,-0.846164,6,0.0210862,11,-0.000235991,-3.07255,-0.155416,-0.379627,12.565,0.278895,
2,0,0,1,0,7335.54,0.271725,0.271403,-0.927136,6,0.0209188,11,-0.000251627,-3.03286,-0.181456,-0.325148,11.8047,0.271403,
2,0,0,1,0,7335.72,0.264228,0.263963,-1.0031,6,0.0207371,11,-0.000264781,-2.99866,-0.287776,-0.205021,7.94778,0.263963,
2,0,0,1,0,7335.91,0.256741,0.256424,-1.05761,6,0.0205435,11,-0.000271197,-2.97567,-0.365032,-0.16163,6.69246,0.256424,
2,0,0,1,0,7336.1,0.249248,0.248912,-1.11631,6,0.0203388,11,-0.000277861,-2.95222,-0.373778,-0.157848,6.87195,0.2489115,
2,0,0,1,0,7336.29,0.241756,0.24141,-1.16306,6,0.020124,11,-0.000280775,-2.9344,-0.361181,-0.163353,7.44763,0.24141,
2,0,0,1,0,7336.47,0.234268,0.233939,-1.21724,6,0.0198994,11,-0.00028476,-2.91462,-0.32812,-0.179812,8.62594,0.233939,
2,0,0,1,0,7336.66,0.226772,0.226487,-1.2818,6,0.0196644,11,-0.000290311,-2.89218,-0.338287,-0.174408,8.65322,0.226487,
2,0,0,1,0,7336.85,0.219284,0.218942,-1.33911,6,0.0194193,11,-0.000293187,-2.87318,-0.332986,-0.177184,9.23091,0.218942,
2,0,0,1,0,7337.04,0.211796,0.211487,-1.39461,6,0.0191629,11,-0.000294941,-2.85555,-0.452508,-0.130384,7.10089,0.211487,
2,0,0,1,0,7337.22,0.204301,0.203942,-1.47567,6,0.0188934,11,-0.000300951,-2.83101,-0.425409,-0.13869,7.95343,0.203942,
2,0,0,1,0,7337.41,0.196812,0.196489,-1.55209,6,0.0186095,11,-0.000304969,-2.80908,-0.261725,-0.225427,13.7573,0.196489,
2,0,0,1,0,7337.6,0.189321,0.189022,-1.671,6,0.0183066,11,-0.000315855,-2.77702,-0.22806,-0.258704,16.9022,0.189022,
2,0,0,1,0,7337.78,0.181828,0.181531,-1.83048,6,0.0179792,11,-0.00033229,-2.73743,-0.169365,-0.34836,24.804,0.1815313,
2,0,0,1,0,7337.97,0.174341,0.174026,-2.04149,6,0.0176173,11,-0.000355272,-2.69005,-0.130479,-0.452179,36.2158,0.174026,
2,0,0,1,0,7338.16,0.166848,0.166537,-2.3779,6,0.0172046,11,-0.000396007,-2.62381,-0.10325,-0.571426,52.8992,0.166537,
2,0,0,1,0,7338.35,0.159357,0.159095,-2.88644,6,0.0167145,11,-0.000459217,-2.53964,-0.079856,-0.738829,83.3463,0.159095,
2,0,0,1,0,7338.53,0.151868,0.151565,-3.63619,6,0.0161061,11,-0.00055112,-2.43935,-0.0726715,-0.811872,115.666,0.151565,
2,0,0,1,0,7338.72,0.144373,0.144108,-4.57449,6,0.0153369,11,-0.000659218,-2.33966,-0.0840644,-0.701843,124.936,0.144108,
2,0,0,1,0,7338.91,0.136884,0.136598,-5.43965,6,0.0143956,11,-0.000743046,-2.26443,-0.12419,-0.47508,100.701,0.136598,
2,0,0,1,0,7339.1,0.129393,0.129093,-6.01549,6,0.013316,11,-0.000776554,-2.22073,-0.263113,-0.224238,52.5133,0.129093,
2,0,0,1,0,7339.28,0.1219,0.121622,-6.18712,6,0.0121661,11,-0.000752493,-2.20851,1.90248,0.0310122,-7.46078,0.121622,
2,0,0,1,0,7339.47,0.114413,0.114113,-5.96953,6,0.0110222,11,-0.0006812,-2.22406,0.256866,0.229692,-53.4829,0.114113,
2,0,0,1,0,7339.66,0.10692,0.106614,-5.48103,6,0.00994592,11,-0.000584356,-2.26114,0.161516,0.365289,-78.1071,0.106614,
2,0,0,1,0,7339.84,0.0994284,0.0991143,-4.92391,6,0.00897122,11,-0.00048803,-2.30769,0.16808,0.351023,-67.5162,0.0991143,
2,0,0,1,0,7340.03,0.0919401,0.0916202,-4.49415,6,0.00809147,11,-0.000411754,-2.34735,0.22828,0.258455,-45.4288,0.0916202,
2,0,0,1,0,7340.22,0.0844447,0.0841323,-4.22717,6,0.00727556,11,-0.000355641,-2.37395,0.336071,0.175558,-28.9142,0.0841323,
2,0,0,1,0,7340.41,0.0769565,0.0766129,-4.02971,6,0.00650341,11,-0.000308728,-2.39473,0.360457,0.163681,-25.7374,0.0766129,
2,0,0,1,0,7340.59,0.0694682,0.0692036,-3.85094,6,0.00576462,11,-0.000266499,-2.41443,0.348293,0.169398,-25.4795,0.0692036,
2,0,0,1,0,7340.78,0.0619728,0.0616604,-3.65448,6,0.00505977,11,-0.000225337,-2.43717,0.277792,0.212389,-30.2594,0.0616604,
2,0,0,1,0,7340.97,0.0544836,0.0541995,-3.41828,6,0.00439635,11,-0.000185269,-2.46619,0.267236,0.220778,-29.4853,0.0541995,
2,0,0,1,0,7341.16,0.0469927,0.0466474,-3.17467,6,0.00377808,11,-0.00014809,-2.4983,0.241456,0.244351,-30.2433,0.0466474,
2,0,0,1,0,7341.34,0.0394999,0.0391839,-2.97342,6,0.00320332,11,-0.00011651,-2.52674,0.302243,0.195207,-22.586,0.0391839,
2,0,0,1,0,7341.53,0.0320125,0.0317155,-2.81743,6,0.00266188,11,-8.9356e-05,-2.55015,0.405618,0.145457,-16.0416,0.0317155,
2,0,0,1,0,7341.72,0.0245198,0.0242236,-2.73513,6,0.00214145,11,-6.62547e-05,-2.56302,0.699628,0.0843305,-9.00411,0.0242236,
2,0,0,1,0,7341.9,0.0170289,0.0166902,-2.69838,6,0.00163219,11,-4.50364e-05,-2.5689,2.9254,0.0201682,-2.13007,0.01669017,
2,0,0,1,0,7342.09,0.0095397,0.00924288,-2.70292,6,0.00112581,11,-2.49828e-05,-2.56817,-1.17188,-0.0503464,5.31569,0.00924288,
2,0,0,1,0,7342.28,0.00204518,0.00165976,-2.80137,6,0.00061557,11,-4.6496e-06,-2.55263,-0.680504,-0.0867004,9.25183,0.00165976,
2,0,0,1,0,7342.33,0.000177222,-0.00014743,-2.75233,6,0.00048597,11,4.05775e-07,-2.5603, , , ,-0.00014743,