File: Figure_codes/Fig_3-5/rawdata_trumpetplot_data/before 10th/20221101_1-115_002_TrumpetPlot_ParaChange_11_CV_C01_1.csv
mode,ox/red,error,control changes,counter inc.,time/s,control/V,Ewe/V,<I>/mA,cycle number,(Q-Qo)/C,I Range,P/W,log(|I|),Tafel slope mV/dec,alpha_eff,dI/d(E-IR),E-IR/V,
2,0,0,1,0,2433.62,2.44065e-05,0.000609955,-6.1318,2,0.0000000E+000,11,-3.74012e-06,-2.21241, , , ,0.000609955,
2,1,0,1,0,2433.72,0.00978761,0.00947081,4.10332,2,0.000117566,11,3.88617e-05,-2.38686,0.0689651,0.855505,133.205,0.00947081,
2,1,0,1,0,2433.82,0.0197755,0.0194612,4.41271,2,0.000550484,11,8.58764e-05,-2.35529,3.02739,0.0194887,3.36717,0.0194612,
2,1,0,1,0,2433.92,0.0297635,0.0295168,4.51206,2,0.000996126,11,0.000133182,-2.34562,0.984507,0.0599284,10.5481,0.0295168,
2,1,0,1,0,2434.02,0.0397514,0.0394697,4.6615,2,0.00145432,11,0.000183988,-2.33147,0.375496,0.157125,28.7079,0.0394697,
2,1,0,1,0,2434.12,0.0497484,0.0494652,4.93701,2,0.00193293,11,0.000244211,-2.30654,0.356651,0.165428,31.8019,0.0494652,
2,1,0,1,0,2434.22,0.0597273,0.0594097,5.32279,2,0.00244296,11,0.000316226,-2.27386,0.242982,0.242816,50.4087,0.0594097,
2,1,0,1,0,2434.32,0.0697152,0.0694251,5.87982,2,0.00300141,11,0.000408207,-2.23064,0.231253,0.255132,58.648,0.0694251,
2,1,0,1,0,2434.42,0.0797031,0.0794467,6.57951,2,0.00362309,11,0.00052272,-2.18181,0.201166,0.293291,75.3327,0.0794467,
2,1,0,1,0,2434.52,0.0896911,0.0894062,7.32595,2,0.00431802,11,0.000654985,-2.13514,0.218788,0.269667,77.2283,0.08940623,
2,1,0,1,0,2434.62,0.099679,0.0994433,8.10271,2,0.00508748,11,0.00080576,-2.09137,0.243037,0.242761,76.5992,0.0994433,
2,1,0,1,0,2434.72,0.109667,0.109414,8.96849,2,0.0059368,11,0.00098128,-2.04728,0.202795,0.290934,101.844,0.109414,
2,1,0,1,0,2434.82,0.119655,0.119371,10.227,2,0.00688955,11,0.00122081,-1.99025,0.15131,0.389929,155.711,0.119371,
2,1,0,1,0,2434.92,0.129643,0.129331,12.0877,2,0.0079993,11,0.00156331,-1.91766,0.13214,0.446496,210.673,0.129331,
2,1,0,1,0,2435.02,0.139631,0.139417,14.2814,2,0.0093166,11,0.00199108,-1.84523,0.156836,0.37619,209.571,0.139417,
2,1,0,1,0,2435.11,0.149619,0.149357,16.0803,2,0.0108379,11,0.00240171,-1.7937,0.274413,0.215004,134.564,0.149357,
2,1,0,1,0,2435.21,0.159607,0.159352,16.4504,2,0.0124792,11,0.0026214,-1.78382,-0.426666,-0.138281,-88.4993,0.1593518,
2,1,0,1,0,2435.31,0.169595,0.169332,13.8043,2,0.0140212,11,0.00233752,-1.85998,-0.0705294,-0.836531,-447.739,0.169332,
2,1,0,1,0,2435.41,0.179582,0.179339,8.77628,2,0.015146,11,0.00157393,-2.05669,-0.0467962,-1.26079,-434.046,0.179339,
2,1,0,1,0,2435.51,0.18957,0.189276,6.14253,2,0.0158646,11,0.00116263,-2.21165,-0.111176,-0.530691,-127.81,0.189276,
2,1,0,1,0,2435.61,0.199558,0.199315,5.34718,2,0.0164313,11,0.00106577,-2.27188,-0.243968,-0.241835,-50.4242,0.199315,
2,1,0,1,0,2435.71,0.209546,0.209261,4.89579,2,0.0169402,11,0.0010245,-2.31018,-0.250552,-0.23548,-44.9859,0.209261,
2,1,0,1,0,2435.81,0.219534,0.219285,4.57425,2,0.0174113,11,0.00100306,-2.33968,-0.464592,-0.126993,-22.7008,0.219285,
2,1,0,1,0,2435.91,0.229522,0.22923,4.36489,2,0.0178576,11,0.00100056,-2.36003,-0.537661,-0.109735,-18.7302,0.22923,
2,1,0,1,0,2436.01,0.23951,0.239217,4.23471,2,0.0182865,11,0.00101302,-2.37318,-1.01695,-0.0580168,-9.59241,0.239217,
2,1,0,1,0,2436.11,0.249498,0.249198,4.13138,2,0.0187029,11,0.00102953,-2.3839,-1.06959,-0.0551615,-8.88057,0.249198,
2,1,0,1,0,2436.21,0.259486,0.259204,4.04141,2,0.0191101,11,0.00104755,-2.39347,-0.691576,-0.0853123,-13.4477,0.259204,
2,1,0,1,0,2436.31,0.269474,0.269193,3.95831,2,0.0195089,11,0.00106555,-2.40249,-1.49778,-0.0393917,-6.09265,0.269193,
2,1,0,1,0,2436.41,0.279462,0.279233,3.89449,2,0.0199006,11,0.00108747,-2.40955,-1.4258,-0.0413803,-6.28653,0.279233,
2,1,0,1,0,2436.51,0.28945,0.289199,3.82647,2,0.0202856,11,0.00110661,-2.4172,-3.19248,-0.0184809,-2.76125,0.289199,
2,1,0,1,0,2436.61,0.299438,0.299202,3.7742,2,0.0206645,11,0.00112925,-2.42318,-0.020982,-2.81194,-365.087,0.299202,
2,0,0,1,0,2436.7,0.291747,0.291467,-1.80062,2,0.0206137,11,-0.000524821,-2.74458,-0.117846,-0.500652,35.2598,0.291467,
2,0,0,1,0,2436.8,0.281759,0.281477,-2.10311,2,0.0204186,11,-0.000591979,-2.67714,-0.179878,-0.327999,26.8444,0.281477,
2,0,0,1,0,2436.9,0.271771,0.271485,-2.35008,2,0.0201967,11,-0.000638013,-2.62892,-0.212089,-0.278186,25.4291,0.271485,
2,0,0,1,0,2437,0.261783,0.26145,-2.55677,2,0.0199523,11,-0.000668467,-2.59231,-0.395356,-0.149232,14.8389,0.26145,
2,0,0,1,0,2437.1,0.251795,0.251502,-2.73143,2,0.0196891,11,-0.000686959,-2.56361,-0.347058,-0.170001,18.0908,0.251502,
2,0,0,1,0,2437.2,0.241807,0.241513,-2.89283,2,0.0194082,11,-0.000698658,-2.53868,-0.335382,-0.175919,20.0027,0.241513,
2,0,0,1,0,2437.3,0.231815,0.231521,-3.08737,2,0.0191099,11,-0.000714791,-2.51041,-0.354222,-0.166562,20.0752,0.231521,
2,0,0,1,0,2437.4,0.221831,0.221552,-3.28356,2,0.018793,11,-0.00072748,-2.48365,-0.357466,-0.165051,21.1332,0.221552,
2,0,0,1,0,2437.5,0.211843,0.211546,-3.5239,2,0.018454,11,-0.000745469,-2.45298,-0.374436,-0.15757,21.6484,0.211546,
2,0,0,1,0,2437.6,0.201856,0.201519,-3.82922,2,0.018088,11,-0.000771661,-2.41689,-0.245505,-0.240321,35.9735,0.201519,
2,0,0,1,0,2437.7,0.191868,0.191579,-4.26295,2,0.0176854,11,-0.000816692,-2.37029,-0.183723,-0.321135,53.5969,0.191579,
2,0,0,1,0,2437.8,0.18188,0.18157,-4.9237,2,0.0172307,11,-0.000893998,-2.30771,-0.132292,-0.445985,85.5138,0.18157,
2,0,0,1,0,2437.9,0.171892,0.171606,-5.92233,2,0.0166943,11,-0.00101631,-2.22751,-0.108143,-0.545574,126.128,0.171606,
2,0,0,1,0,2438,0.161904,0.16165,-7.5313,2,0.0160291,11,-0.00121743,-2.12313,-0.0866298,-0.681059,200.538,0.16165,
2,0,0,1,0,2438.1,0.151916,0.151663,-9.95648,2,0.0151624,11,-0.00151003,-2.00189,-0.083508,-0.706519,274.709,0.151663,
2,0,0,1,0,2438.2,0.141928,0.141682,-12.8366,2,0.0140238,11,-0.00181871,-1.89155,-0.101715,-0.580051,290.288,0.141682,
2,0,0,1,0,2438.3,0.13194,0.131667,-15.2931,2,0.0126129,11,-0.0020136,-1.8155,-0.183432,-0.321645,191.507,0.131667,
2,0,0,1,0,2438.4,0.121952,0.121648,-16.4013,2,0.0110168,11,-0.00199519,-1.78512,-2.48949,-0.0236996,15.1218,0.121648,
2,0,0,1,0,2438.5,0.111964,0.111663,-15.454,2,0.00940722,11,-0.00172565,-1.81096,0.173203,0.34064,-204.858,0.111663,
2,0,0,1,0,2438.6,0.101976,0.101689,-12.7138,2,0.00799385,11,-0.00129286,-1.89572,0.0977868,0.603353,-299.243,0.101689,
2,0,0,1,0,2438.7,0.0919883,0.0916536,-10.331,2,0.00685467,11,-0.000946872,-1.98586,0.153318,0.384821,-155.743,0.0916536,
2,0,0,1,0,2438.8,0.0820004,0.0817335,-9.17567,2,0.0058884,11,-0.00074996,-2.03736,0.256019,0.230451,-82.4853,0.0817335,
2,0,0,1,0,2438.9,0.0720124,0.0716998,-8.45175,2,0.00500976,11,-0.000605989,-2.07305,0.268876,0.219432,-72.3651,0.0716998,
2,0,0,1,0,2439,0.0620245,0.0617234,-7.70957,2,0.00420241,11,-0.00047586,-2.11297,0.223733,0.263708,-79.378,0.0617234,
2,0,0,1,0,2439.1,0.0520366,0.0517709,-6.99445,2,0.0034695,11,-0.000362109,-2.15525,0.244576,0.241234,-65.8487,0.0517709,
2,0,0,1,0,2439.2,0.0420486,0.04179,-6.49337,2,0.00279864,11,-0.000271358,-2.18753,0.441144,0.133743,-33.969,0.04179,
2,0,0,1,0,2439.3,0.0320607,0.0317986,-6.27056,2,0.00216419,11,-0.000199395,-2.20269,1.03685,0.056903,-13.9055,0.0317986,
2,0,0,1,0,2439.4,0.0220728,0.0217574,-6.20518,2,0.00154337,11,-0.000135009,-2.20725,-23.0174,-0.00256328,0.620621,0.0217574,
2,0,0,1,0,2439.5,0.0120848,0.0117943,-6.25761,2,0.000922066,11,-7.38041e-05,-2.20359,-2.05403,-0.028724,7.01777,0.0117943,
2,0,0,1,0,2439.6,0.0020969,0.00172223,-6.46102,2,0.000291006,11,-1.11273e-05,-2.1897,-0.52383,-0.112632,28.1829,0.00172223,
2,0,0,1,0,2439.7,-0.00789103,-0.00824283,-6.57321,2,-0.000358639,11,5.41818e-05,-2.18222,-0.693286,-0.0851019,21.9041,-0.00824283,
2,0,0,1,0,2439.8,-0.017879,-0.0182305,-6.83159,2,-0.00102736,11,0.000124543,-2.16548,-0.573882,-0.102809,27.3489,-0.0182305,
2,0,0,1,0,2439.9,-0.0278669,-0.0281833,-7.08523,2,-0.00172187,11,0.000199685,-2.14965,-0.66688,-0.0884717,24.5207,-0.0281833,
2,0,0,1,0,2440,-0.0378548,-0.0381498,-7.39848,2,-0.00244496,11,0.00028225,-2.13086,-0.586762,-0.100552,28.9975,-0.0381498,
2,0,0,1,0,2440.1,-0.0478428,-0.0481616,-7.72777,2,-0.00320021,11,0.000372182,-2.11195,-0.418448,-0.140997,42.6163,-0.0481616,
2,0,0,1,0,2440.2,-0.0578216,-0.0582007,-8.14524,2,-0.00399196,11,0.000474059,-2.0891,-0.416056,-0.141808,45.065,-0.0582007,
2,0,0,1,0,2440.3,-0.0678187,-0.0681986,-8.65045,2,-0.00482969,11,0.000589948,-2.06296,-0.332493,-0.177447,59.8678,-0.0681986,
2,0,0,1,0,2440.4,-0.0778066,-0.0781309,-9.27574,2,-0.00572421,11,0.000724722,-2.03265,-0.33795,-0.174582,63.2769,-0.0781309,
2,0,0,1,0,2440.5,-0.0877945,-0.0881307,-10.0159,2,-0.00668724,11,0.000882713,-1.99931,-0.304831,-0.19355,75.6262,-0.08813075,
2,0,0,1,0,2440.6,-0.0977825,-0.0981288,-10.7053,2,-0.00772364,11,0.0010505,-1.9704,-0.395395,-0.149218,62.3717,-0.0981288,
2,1,0,1,1,2440.69,-0.0927386,-0.0930637,1.60747,2,-0.00816612,11,-0.000149597,-2.79386,0.00124136,47.5286,661.351,-0.0930637,
2,1,0,1,1,2440.79,-0.0827529,-0.0831175,4.50321,2,-0.00782218,11,-0.000374295,-2.34648,0.0856105,0.689168,120.218,-0.0831175,
2,1,0,1,1,2440.89,-0.0727627,-0.0730833,5.23757,2,-0.00733073,11,-0.000382779,-2.28087,0.252085,0.234048,47.6538,-0.0730833,
2,1,0,1,1,2440.99,-0.0627748,-0.0630645,5.57364,2,-0.0067898,11,-0.000351499,-2.25386,0.491991,0.119921,26.1266,-0.0630645,
2,1,0,1,1,2441.09,-0.0527868,-0.05312,5.76164,2,-0.0062223,11,-0.000306059,-2.23945,1.40431,0.0420135,9.45076,-0.05312,
2,1,0,1,1,2441.19,-0.0427989,-0.043097,5.8519,2,-0.00564169,11,-0.000252199,-2.2327,1.23346,0.0478329,10.927,-0.043097,
2,1,0,1,1,2441.29,-0.0328109,-0.0331226,5.88392,2,-0.00505654,11,-0.00019489,-2.23033,-4.13745,-0.01426,-3.26604,-0.0331226,
2,1,0,1,1,2441.39,-0.022823,-0.0231554,5.85048,2,-0.00447178,11,-0.00013547,-2.23281,-2.09399,-0.0281759,-6.42513,-0.0231554,
2,1,0,1,1,2441.49,-0.0128351,-0.0131767,5.76912,2,-0.00389153,11,-7.60182e-05,-2.23889,-1.49742,-0.039401,-8.89112,-0.0131767,
2,1,0,1,1,2441.59,-0.00284713,-0.00317224,5.7083,2,-0.00331814,11,-1.81081e-05,-2.24349,-1.56727,-0.0376451,-8.37819,-0.00317224,
2,1,0,0,1,2441.62,-2.55332e-05,-0.000401673,5.6739,2,-0.00315839,11,-2.27905e-06,-2.24612, , , ,-0.000401673,