File: Figure_codes/Fig_3-5/rawdata_trumpetplot_data/before 10th/20221101_1-115_002_TrumpetPlot_ParaChange_08_CV_C01_1.csv
mode,ox/red,error,control changes,counter inc.,time/s,control/V,Ewe/V,<I>/mA,cycle number,(Q-Qo)/C,I Range,P/W,log(|I|),Tafel slope mV/dec,alpha_eff,dI/d(E-IR),E-IR/V,
2,0,0,0,0,2400.82,2.44065e-05,-0.000229887,-2.18636,2,0.0000000E+000,11,5.02616e-07,-2.66028, , , ,-0.000229887,
2,1,0,1,0,2401,0.00729063,0.00699245,1.73144,2,0.000208428,11,1.2107e-05,-2.76159,0.263538,0.223877,15.0293,0.00699245,
2,1,0,1,0,2401.19,0.014778,0.0144728,1.80421,2,0.000540561,11,2.6112e-05,-2.74371,0.358821,0.164427,11.6285,0.0144728,
2,1,0,1,0,2401.37,0.0222743,0.0220406,1.87629,2,0.000886631,11,4.13546e-05,-2.7267,0.551055,0.107067,7.79531,0.0220406,
2,1,0,1,0,2401.56,0.0297626,0.0295049,1.92603,2,0.00124252,11,5.68274e-05,-2.71534,0.760067,0.0776248,5.81407,0.0295049,
2,1,0,1,0,2401.75,0.0372544,0.0369929,1.97895,2,0.00160854,11,7.3207e-05,-2.70357,0.589277,0.100123,7.74855,0.0369929,
2,1,0,1,0,2401.94,0.0447472,0.0444528,2.05672,2,0.00198675,11,9.14272e-05,-2.68682,0.408597,0.144397,11.5667,0.0444528,
2,1,0,1,0,2402.12,0.0522345,0.0519543,2.15522,2,0.00238105,11,0.000111973,-2.66651,0.264462,0.223094,18.8326,0.0519543,
2,1,0,1,0,2402.31,0.0597309,0.0594844,2.30352,2,0.00279935,11,0.000137024,-2.63761,0.22924,0.257372,23.1382,0.0594844,
2,1,0,1,0,2402.5,0.0672182,0.0669668,2.49898,2,0.00324858,11,0.000167349,-2.60224,0.21263,0.277477,26.9523,0.0669668,
2,1,0,1,0,2402.68,0.0747074,0.0744336,2.71887,2,0.00373686,11,0.000202375,-2.56561,0.208027,0.283616,30.1269,0.0744336,
2,1,0,1,0,2402.87,0.0822019,0.0819456,2.95276,2,0.00426951,11,0.000241966,-2.52977,0.219362,0.268961,31.0527,0.0819456,
2,1,0,1,0,2403.06,0.0896911,0.0894086,3.19736,2,0.00484633,11,0.000285872,-2.49521,0.228454,0.258258,32.2029,0.0894086,
2,1,0,1,0,2403.25,0.097182,0.096898,3.42466,2,0.00546833,11,0.000331842,-2.46538,0.227871,0.258919,34.7172,0.096898,
2,1,0,1,0,2403.43,0.104675,0.104393,3.70765,2,0.00613673,11,0.000387052,-2.4309,0.199645,0.295525,42.7063,0.104393,
2,1,0,1,0,2403.62,0.112162,0.111924,4.0794,2,0.00686369,11,0.000456585,-2.3894,0.159811,0.369185,58.7537,0.111924,
2,1,0,1,0,2403.81,0.119655,0.11937,4.63316,2,0.00767701,11,0.000553061,-2.33412,0.126155,0.467678,84.7954,0.11937,
2,1,0,1,0,2404,0.127146,0.126864,5.37963,2,0.00861363,11,0.000682478,-2.26925,0.113019,0.522038,109.593,0.126864,
2,1,0,1,0,2404.18,0.134635,0.134348,6.19627,2,0.00969926,11,0.000832457,-2.20787,0.139051,0.424305,102.519,0.134348,
2,1,0,1,0,2404.37,0.14213,0.141875,6.8248,2,0.0109254,11,0.000968266,-2.16591,0.239397,0.246452,65.5416,0.141875,
2,1,0,1,0,2404.56,0.149619,0.149341,7.04635,2,0.0122331,11,0.00105231,-2.15204,-1.40574,-0.0419708,-11.4833,0.149341,
2,1,0,1,0,2404.74,0.157106,0.156842,6.55298,2,0.0135191,11,0.00102778,-2.18356,-0.121831,-0.484278,-123.155,0.156842,
2,1,0,1,0,2404.93,0.164602,0.164304,5.24282,2,0.0146355,11,0.000861417,-2.28044,-0.0586984,-1.00514,-205.389,0.164304,
2,1,0,1,0,2405.12,0.172091,0.171885,3.86889,2,0.0154818,11,0.000665003,-2.41241,-0.0624492,-0.944767,-143.449,0.171885,
2,1,0,1,0,2405.31,0.179582,0.179318,3.09426,2,0.016127,11,0.000554857,-2.50944,-0.0984691,-0.599173,-72.7867,0.179318,
2,1,0,1,0,2405.49,0.187074,0.186835,2.66768,2,0.0166642,11,0.000498416,-2.57387,-0.141807,-0.416058,-43.2633,0.186835,
2,1,0,1,0,2405.68,0.194563,0.194258,2.39509,2,0.0171361,11,0.000465265,-2.62068,-0.192165,-0.307028,-28.6327,0.194258,
2,1,0,1,0,2405.87,0.202059,0.201769,2.20116,2,0.0175663,11,0.000444125,-2.65735,-0.223017,-0.264554,-22.7896,0.201769,
2,1,0,1,0,2406.06,0.209546,0.209295,2.08586,2,0.0179682,11,0.00043656,-2.68072,-0.289343,-0.203911,-16.6062,0.209295,
2,1,0,1,0,2406.24,0.217035,0.216757,1.99157,2,0.0183499,11,0.000431686,-2.7008,-0.443042,-0.13317,-10.3646,0.216757,
2,1,0,1,0,2406.43,0.22453,0.224219,1.92287,2,0.018718,11,0.000431144,-2.71605,-0.633738,-0.0930984,-7.01476,0.224219,
2,1,0,1,0,2406.62,0.232019,0.23177,1.8832,2,0.0190749,11,0.00043647,-2.7251,-0.791805,-0.0745133,-5.45156,0.23177,
2,1,0,1,0,2406.81,0.23951,0.239263,1.83743,2,0.0194236,11,0.000439628,-2.73579,-1.03183,-0.05718,-4.10851,0.239263,
2,1,0,1,0,2406.99,0.247003,0.246734,1.80294,2,0.0197655,11,0.000444847,-2.74402,-0.6414,-0.0919862,-6.47635,0.246734,
2,1,0,1,0,2407.18,0.25449,0.254224,1.77982,2,0.0201011,11,0.000452472,-2.74962,-0.96639,-0.061052,-4.22263,0.254224,
2,1,0,1,0,2407.37,0.261983,0.261703,1.74381,2,0.0204319,11,0.000456359,-2.7585,-1.10435,-0.053425,-3.65146,0.261703,
2,1,0,1,0,2407.55,0.269474,0.269208,1.72334,2,0.0207579,11,0.000463939,-2.76363,-4.23939,-0.0139171,-0.937072,0.269208,
2,1,0,1,0,2407.74,0.276963,0.276695,1.70812,2,0.0210797,11,0.000472627,-2.76748,-1.17375,-0.0502664,-3.33645,0.276695,
2,1,0,1,0,2407.93,0.284458,0.284194,1.68047,2,0.0213976,11,0.00047758,-2.77457,-1.67164,-0.0352946,-2.32104,0.284194,
2,1,0,1,0,2408.12,0.291947,0.291698,1.66652,2,0.0217114,11,0.00048612,-2.77819,-0.98992,-0.0596008,-3.86207,0.291698,
2,1,0,1,0,2408.3,0.299434,0.299203,1.63966,2,0.0220217,11,0.000490589,-2.78525,-0.00604871,-9.75414,-426.21,0.299203,
2,0,0,1,0,2408.46,0.294196,0.29393,-0.598701,2,0.0219926,11,-0.000175976,-3.22279,-0.062604,-0.942433,22.3602,0.29393,
2,0,0,1,0,2408.65,0.286701,0.286457,-0.757641,2,0.021863,11,-0.000217031,-3.12054,-0.103082,-0.57236,16.7969,0.2864567,
2,0,0,1,0,2408.84,0.279212,0.278973,-0.862818,2,0.0217098,11,-0.000240703,-3.06408,-0.16615,-0.355101,12.0037,0.278973,
2,0,0,1,0,2409.02,0.271725,0.27142,-0.948182,2,0.021539,11,-0.000257356,-3.02311,-0.156761,-0.37637,13.928,0.27142,
2,0,0,1,0,2409.21,0.264228,0.263926,-1.02618,2,0.0213535,11,-0.000270836,-2.98878,-0.255401,-0.231009,9.15673,0.263926,
2,0,0,1,0,2409.4,0.256741,0.256456,-1.08066,2,0.0211555,11,-0.000277141,-2.96631,-0.349141,-0.168986,7.18055,0.256456,
2,0,0,1,0,2409.59,0.249248,0.248937,-1.14739,2,0.0209458,11,-0.000285629,-2.94029,-0.347863,-0.169607,7.58795,0.248937,
2,0,0,1,0,2409.77,0.241756,0.241429,-1.20174,2,0.0207249,11,-0.000290136,-2.92019,-0.302589,-0.194984,9.13828,0.241429,
2,0,0,1,0,2409.96,0.234268,0.233986,-1.26158,2,0.0204932,11,-0.000295193,-2.89908,-0.347539,-0.169765,8.43653,0.2339863,
2,0,0,1,0,2410.15,0.226772,0.226491,-1.33311,2,0.0202493,11,-0.000301938,-2.87513,-0.26622,-0.221621,11.4513,0.226491,
2,0,0,1,0,2410.33,0.219284,0.219002,-1.40801,2,0.0199932,11,-0.000308357,-2.85139,-0.29204,-0.202027,11.0123,0.219002,
2,0,0,1,0,2410.52,0.211796,0.211489,-1.47852,2,0.0197227,11,-0.00031269,-2.83017,-0.326453,-0.180731,10.4639,0.211489,
2,0,0,1,0,2410.71,0.204301,0.20402,-1.59134,2,0.0194346,11,-0.000324665,-2.79824,-0.29198,-0.202068,12.503,0.20402,
2,0,0,1,0,2410.9,0.196812,0.196527,-1.70469,2,0.0191261,11,-0.000335017,-2.76836,-0.201232,-0.293194,19.5771,0.196527,
2,0,0,1,0,2411.08,0.189321,0.189012,-1.8774,2,0.0187896,11,-0.000354853,-2.72644,-0.164869,-0.35786,26.371,0.189012,
2,0,0,1,0,2411.27,0.181828,0.181558,-2.12883,2,0.0184155,11,-0.000386505,-2.67186,-0.12476,-0.472909,39.0054,0.181558,
2,0,0,1,0,2411.46,0.174341,0.174037,-2.46027,2,0.0179881,11,-0.000428178,-2.60902,-0.101439,-0.581631,55.8978,0.174037,
2,0,0,1,0,2411.65,0.166848,0.166547,-2.98034,2,0.0174814,11,-0.000496367,-2.52573,-0.0833768,-0.707631,82.3169,0.166547,
2,0,0,1,0,2411.83,0.159357,0.159084,-3.75676,2,0.0168551,11,-0.000597639,-2.42519,-0.0716384,-0.82358,120.551,0.1590836,
2,0,0,1,0,2412.02,0.151868,0.151559,-4.7673,2,0.0160593,11,-0.000722527,-2.32173,-0.0737724,-0.799757,149.062,0.151559,
2,0,0,1,0,2412.21,0.144373,0.144084,-5.85383,2,0.0150594,11,-0.000843443,-2.23256,-0.100893,-0.584781,133.539,0.144084,
2,0,0,1,0,2412.39,0.136884,0.136558,-6.68885,2,0.0138783,11,-0.000913418,-2.17465,-0.186639,-0.316118,82.167,0.136558,
2,0,0,1,0,2412.58,0.129393,0.12914,-7.008,2,0.0125863,11,-0.000905012,-2.15441,-2.29881,-0.0256654,7.00482,0.12914,
2,0,0,1,0,2412.77,0.1219,0.121612,-6.71047,2,0.0112904,11,-0.000816074,-2.17325,0.183462,0.321593,-83.9198,0.121612,
2,0,0,1,0,2412.96,0.114413,0.114098,-5.87848,2,0.0101064,11,-0.000670724,-2.23074,0.103574,0.569642,-130.43,0.114098,
2,0,0,1,0,2413.14,0.10692,0.106611,-4.97105,2,0.0090932,11,-0.000529968,-2.30355,0.114953,0.513253,-100.086,0.106611,
2,0,0,1,0,2413.33,0.0994284,0.0991586,-4.40038,2,0.00821896,11,-0.000436335,-2.35651,0.178582,0.33038,-56.8078,0.0991586,
2,0,0,1,0,2413.52,0.0919401,0.0915973,-4.06262,2,0.00742915,11,-0.000372125,-2.39119,0.270368,0.218221,-34.6238,0.0915973,
2,0,0,1,0,2413.71,0.0844447,0.0841362,-3.82063,2,0.00669078,11,-0.000321453,-2.41787,0.313657,0.188103,-28.0911,0.0841362,
2,0,0,1,0,2413.89,0.0769565,0.0766682,-3.61007,2,0.00599483,11,-0.000276777,-2.44248,0.257039,0.229537,-32.2477,0.0766682,
2,0,0,1,0,2414.08,0.0694682,0.0691619,-3.37169,2,0.00534099,11,-0.000233193,-2.47215,0.242793,0.243005,-31.9656,0.0691619,
2,0,0,1,0,2414.27,0.0619728,0.061671,-3.13261,2,0.00473048,11,-0.000193191,-2.50409,0.227522,0.259316,-31.7986,0.061671,
2,0,0,1,0,2414.45,0.0544836,0.0542271,-2.94275,2,0.00416197,11,-0.000159577,-2.53125,0.343009,0.172007,-19.6915,0.0542271,
2,0,0,1,0,2414.64,0.0469927,0.0466697,-2.79677,2,0.00362488,11,-0.000130524,-2.55334,0.440334,0.133989,-14.6278,0.0466697,
2,0,0,1,0,2414.83,0.0394999,0.0391853,-2.71712,2,0.00310913,11,-0.000106471,-2.56589,0.74528,0.0791649,-8.37786,0.0391853,
2,0,0,1,0,2415.02,0.0320125,0.0316718,-2.6705,2,0.00260531,11,-8.45796e-05,-2.57341,1.40254,0.0420665,-4.37415,0.0316718,
2,0,0,1,0,2415.2,0.0245198,0.0242146,-2.64974,2,0.00210565,11,-6.41625e-05,-2.5768,29.2454,0.00201741,-0.210241,0.0242146,
2,0,0,1,0,2415.39,0.0170289,0.0166977,-2.67646,2,0.00160499,11,-4.46906e-05,-2.57244,-1.07874,-0.0546936,5.73109,0.0166977,
2,0,0,1,0,2415.58,0.0095397,0.00924254,-2.72479,2,0.00109894,11,-2.5184e-05,-2.56467,-0.661289,-0.0892196,9.45215,0.00924254,
2,0,0,1,0,2415.77,0.00204518,0.00168788,-2.84803,2,0.000583244,11,-4.80712e-06,-2.54546,-0.710599,-0.0830286,9.00564,0.00168788,
2,0,0,1,0,2415.81,0.000177222,-0.000152392,-2.79668,2,0.00045151,11,4.26193e-07,-2.55336, , , ,-0.000152392,