File: Figure_codes/Fig_3-5/rawdata_trumpetplot_data/before 10th/20221101_1-115_002_TrumpetPlot_ParaChange_04_CV_C01_6.csv
mode,ox/red,error,control changes,counter inc.,time/s,control/V,Ewe/V,<I>/mA,cycle number,(Q-Qo)/C,I Range,P/W,log(|I|),Tafel slope mV/dec,alpha_eff,dI/d(E-IR),E-IR/V,
2,0,0,1,0,7748.57,2.44065e-05,-0.000439847,-0.403842,7,0.0000000E+000,11,1.77629e-07,-3.39379, , , ,-0.000439847,
2,0,0,1,0,7755.84,0.00729061,0.00699459,-0.0921909,7,-0.000844498,11,-6.44837e-07,-4.03531,-0.033307,-1.7714,6.45477,0.006994586,
2,0,0,1,0,7763.33,0.0147815,0.0144641,-0.060462,7,-0.00127308,11,-8.74528e-07,-4.21852,-0.044556,-1.32418,3.10112,0.01446409,
2,0,0,1,0,7770.82,0.0222725,0.0219411,-0.0416617,7,-0.00152208,11,-9.14103e-07,-4.38026,-0.0468267,-1.25997,2.05014,0.0219411,
2,0,0,1,0,7778.31,0.0297635,0.0294658,-0.0287495,7,-0.00165578,11,-8.47126e-07,-4.54137,-0.0388344,-1.51927,1.67034,0.0294658,
2,0,0,1,0,7785.8,0.0372544,0.0369511,-0.0170218,7,-0.00169766,11,-6.28975e-07,-4.76899,-0.0251673,-2.34431,1.48396,0.0369511,
2,0,0,1,0,7793.29,0.0447454,0.0444482,-0.00579159,7,-0.00165661,11,-2.57426e-07,-5.2372,-0.0097803,-6.03254,1.31431,0.0444482,
2,0,0,1,0,7800.78,0.0522363,0.0519379,0.00490668,7,-0.00153325,11,2.54843e-07,-5.30921,0.00565593,10.4315,1.71794,0.0519379,
2,1,0,1,0,7808.27,0.0597273,0.0594361,0.016706,7,-0.00132491,11,9.92941e-07,-4.77713,0.0271488,2.1732,1.35246,0.0594361,
2,1,0,1,0,7815.77,0.0672183,0.0669459,0.0271456,7,-0.00103201,11,1.81729e-06,-4.5663,0.0426731,1.3826,1.42837,0.0669459,
2,1,0,1,0,7823.26,0.0747092,0.0744238,0.0369963,7,-0.00066052,11,2.7534e-06,-4.43184,0.0646697,0.912329,1.32518,0.0744238,
2,1,0,1,0,7830.75,0.0822001,0.0819261,0.0454796,7,-0.000218088,11,3.72597e-06,-4.34218,0.0932942,0.632408,1.12998,0.0819261,
2,1,0,1,0,7838.24,0.0896911,0.0894116,0.0544451,7,0.000288475,11,4.86802e-06,-4.26404,0.0924097,0.638461,1.36121,0.0894116,
2,1,0,1,0,7845.73,0.0971821,0.0968843,0.0630886,7,0.000861417,11,6.1123e-06,-4.20005,0.0896821,0.657879,1.63099,0.0968843,
2,1,0,1,0,7853.22,0.104673,0.10441,0.0767477,7,0.00151626,11,8.01322e-06,-4.11493,0.0840644,0.701843,2.08323,0.10441,
2,1,0,1,0,7860.71,0.112164,0.111834,0.0923408,7,0.0022802,11,1.03268e-05,-4.03461,0.103972,0.567458,2.02946,0.111834,
2,1,0,1,0,7868.2,0.119655,0.119326,0.110151,7,0.00317638,11,1.31439e-05,-3.95801,0.118957,0.495979,2.13326,0.119326,
2,1,0,1,0,7875.69,0.127146,0.126863,0.125779,7,0.00420404,11,1.59568e-05,-3.90039,0.138236,0.426807,2.10732,0.126863,
2,1,0,1,0,7883.18,0.134637,0.13435,0.139158,7,0.00534769,11,1.86959e-05,-3.85649,0.26483,0.222784,1.21978,0.13435,
2,1,0,1,0,7890.67,0.142128,0.141819,0.14035,7,0.00654767,11,1.99043e-05,-3.85279,-0.242317,-0.243483,-1.32179,0.141819,
2,1,0,1,0,7898.17,0.149619,0.14933,0.120063,7,0.00767338,11,1.7929e-05,-3.92059,-0.0777615,-0.75873,-3.54685,0.14933,
2,1,0,1,0,7905.66,0.15711,0.156776,0.0920042,7,0.00860196,11,1.44241e-05,-4.03619,-0.0574351,-1.02725,-3.68501,0.1567761,
2,1,0,1,0,7913.15,0.164601,0.164285,0.0708655,7,0.0093383,11,1.16421e-05,-4.14957,-0.0801883,-0.735769,-2.0555,0.164285,
2,1,0,1,0,7920.64,0.172091,0.171832,0.0594489,7,0.00995304,11,1.02152e-05,-4.22586,-0.111509,-0.529104,-1.23901,0.171832,
2,1,0,1,0,7928.13,0.179582,0.179268,0.0534763,7,0.0105008,11,9.58661e-06,-4.27184,-0.180446,-0.326967,-0.680234,0.179268,
2,1,0,1,0,7935.62,0.187073,0.186766,0.0500364,7,0.0110106,11,9.34511e-06,-4.30071,-0.367377,-0.160598,-0.31145,0.186766,
2,1,0,1,0,7943.11,0.194564,0.194253,0.0476211,7,0.0114997,11,9.25054e-06,-4.3222,-0.90763,-0.0650045,-0.121938,0.194253,
2,1,0,1,0,7950.6,0.202055,0.20183,0.0467326,7,0.0119763,11,9.43202e-06,-4.33038,-3.72775,-0.0158272,-0.0288637,0.20183,
2,1,0,1,0,7958.09,0.209546,0.209253,0.046662,7,0.0124479,11,9.76418e-06,-4.33104,1.62033,0.0364124,0.0663833,0.209253,
2,1,0,1,0,7965.58,0.217037,0.216735,0.0467579,7,0.0129168,11,1.01341e-05,-4.33015,0.908547,0.0649389,0.118679,0.2167346,
2,1,0,1,0,7973.08,0.224528,0.224217,0.0470795,7,0.0133868,11,1.0556e-05,-4.32717,7.0508,0.00836784,0.0152343,0.224217,
2,1,0,1,0,7980.57,0.232019,0.231705,0.0475609,7,0.0138588,11,1.10201e-05,-4.32275,1.07362,0.0549542,0.101308,0.231705,
2,1,0,1,0,7988.06,0.23951,0.239259,0.0478157,7,0.0143346,11,1.14403e-05,-4.32043,1.25654,0.0469542,0.0882905,0.239259,
2,1,0,1,0,7995.55,0.247001,0.246704,0.0487068,7,0.014814,11,1.20162e-05,-4.31241,0.971827,0.0607104,0.114449,0.246704,
2,1,0,1,0,8003.04,0.254492,0.254208,0.0492145,7,0.0152985,11,1.25107e-05,-4.30791,-432.646,-0.00013637,-0.00026079,0.254208,
2,1,0,1,0,8010.53,0.261983,0.261678,0.0497263,7,0.0157873,11,1.30123e-05,-4.30341,1.20049,0.0491468,0.0962181,0.261678,
2,1,0,1,0,8018.02,0.269474,0.269212,0.0507563,7,0.0162811,11,1.36642e-05,-4.29451,0.712777,0.0827748,0.163838,0.269212,
2,1,0,1,0,8025.51,0.276965,0.276631,0.051366,7,0.0167796,11,1.42094e-05,-4.28932,2.25516,0.0261622,0.0522839,0.276631,
2,1,0,1,0,8033,0.284456,0.284166,0.0520694,7,0.0172833,11,1.47963e-05,-4.28342,-3.03134,-0.0194633,-0.0395522,0.284166,
2,1,0,1,0,8040.49,0.291947,0.291662,0.0530563,7,0.0177912,11,1.54745e-05,-4.27526,0.856387,0.0688941,0.14256,0.2916618,
2,1,0,1,0,8047.98,0.299438,0.299195,0.0532606,7,0.0183041,11,1.59353e-05,-4.27359,-0.00543381,-10.8579,-15.7114,0.299195,
2,1,0,1,0,8054.83,0.293745,0.293448,0.00934016,7,0.018356,11,2.74085e-06,-5.02965,0.0152762,3.86222,1.46033,0.293448,
2,1,0,1,0,8062.32,0.286254,0.285964,0.00160978,7,0.0182838,11,4.60339e-07,-5.79323,0.00243272,24.2527,0.781088,0.285964,
2,1,0,1,0,8069.81,0.278763,0.2785,-0.00425236,7,0.0181598,11,-1.18428e-06,-5.37137,-0.0128679,-4.58504,0.658619,0.2785,
2,0,0,1,0,8077.3,0.271272,0.270953,-0.00857125,7,0.0179963,11,-2.32241e-06,-5.06696,-0.0301518,-1.95677,0.660479,0.270953,
2,1,0,1,0,8084.79,0.263781,0.26351,-0.0123218,7,0.0177996,11,-3.24692e-06,-4.90933,-0.0700766,-0.841936,0.409485,0.26351,
2,0,0,1,0,8092.28,0.25629,0.255981,-0.0162272,7,0.0175739,11,-4.15386e-06,-4.78976,-0.0708067,-0.833255,0.519305,0.255981,
2,0,0,1,0,8099.77,0.248799,0.24851,-0.0198048,7,0.0173211,11,-4.92169e-06,-4.70323,-0.113804,-0.518435,0.39656,0.24851,
2,0,0,1,0,8107.26,0.241308,0.241031,-0.0234154,7,0.0170426,11,-5.64383e-06,-4.6305,-0.109089,-0.540844,0.4805,0.241031,
2,0,0,1,0,8114.75,0.233817,0.233539,-0.0265395,7,0.0167394,11,-6.19801e-06,-4.57611,-0.153484,-0.384404,0.392955,0.233539,
2,0,0,1,0,8122.25,0.226326,0.226011,-0.0293554,7,0.0164116,11,-6.63464e-06,-4.53231,-0.129629,-0.455145,0.525227,0.226011,
2,0,0,1,0,8129.74,0.218835,0.218559,-0.0328674,7,0.0160591,11,-7.18345e-06,-4.48323,-0.14996,-0.393439,0.503437,0.218559,
2,0,0,1,0,8137.23,0.211344,0.211072,-0.0362993,7,0.0156809,11,-7.66176e-06,-4.4401,-0.158921,-0.371254,0.526272,0.2110721,
2,0,0,1,0,8144.72,0.203853,0.20352,-0.0397019,7,0.0152753,11,-8.08012e-06,-4.40119,-0.172193,-0.342639,0.531369,0.20352,
2,0,0,1,0,8152.21,0.196362,0.196047,-0.0439952,7,0.0148405,11,-8.62513e-06,-4.35659,-0.155071,-0.380472,0.648989,0.196047,
2,0,0,1,0,8159.7,0.188871,0.188564,-0.0484891,7,0.0143709,11,-9.1433e-06,-4.31436,-0.135956,-0.433964,0.822155,0.188564,
2,0,0,1,0,8167.19,0.18138,0.18109,-0.0547974,7,0.0138591,11,-9.92326e-06,-4.26124,-0.157264,-0.375165,0.799981,0.18109,
2,0,0,1,0,8174.68,0.173889,0.17357,-0.0630923,7,0.0132925,11,-1.09509e-05,-4.20002,-0.110653,-0.533197,1.3052,0.17357,
2,0,0,1,0,8182.17,0.166398,0.16608,-0.074811,7,0.0126483,11,-1.24246e-05,-4.12603,-0.0930132,-0.634319,1.87098,0.16608,
2,0,0,1,0,8189.66,0.158907,0.158612,-0.0936653,7,0.0118862,11,-1.48564e-05,-4.02842,-0.0684444,-0.862014,3.18309,0.158612,
2,0,0,1,0,8197.16,0.151417,0.151111,-0.12359,7,0.0109381,11,-1.86759e-05,-3.90802,-0.0612706,-0.962941,4.64904,0.151111,
2,0,0,1,0,8204.65,0.143926,0.143629,-0.157682,7,0.00974172,11,-2.26478e-05,-3.80222,-0.0807833,-0.730349,4.48278,0.143629,
2,0,0,1,0,8212.14,0.136435,0.136067,-0.182215,7,0.00832083,11,-2.47935e-05,-3.73942,-0.227924,-0.258859,1.82135,0.136067,
2,0,0,1,0,8219.63,0.128944,0.128656,-0.186746,7,0.00679334,11,-2.4026e-05,-3.72875,0.628364,0.0938946,-0.683025,0.128656,
2,0,0,1,0,8227.12,0.121453,0.121136,-0.181589,7,0.00527214,11,-2.1997e-05,-3.74091,0.350956,0.168112,-1.18548,0.121136,
2,0,0,1,0,8234.61,0.113962,0.113646,-0.169514,7,0.00381554,11,-1.92646e-05,-3.77079,0.213746,0.276029,-1.83199,0.1136461,
2,0,0,1,0,8242.1,0.106471,0.106181,-0.157992,7,0.00244854,11,-1.67757e-05,-3.80136,0.278822,0.211605,-1.30975,0.106181,
2,0,0,1,0,8249.59,0.0989798,0.0986371,-0.147993,7,0.00116894,11,-1.45976e-05,-3.82976,0.302331,0.19515,-1.12311,0.0986371,
2,0,0,1,0,8257.08,0.0914889,0.0911612,-0.140615,7,-4.21762e-05,11,-1.28186e-05,-3.85197,0.446811,0.132047,-0.724622,0.0911612,
2,0,0,1,0,8264.57,0.083998,0.0836875,-0.134262,7,-0.00120569,11,-1.1236e-05,-3.87205,0.335219,0.176004,-0.923846,0.0836875,
2,0,0,1,0,8272.06,0.076507,0.0762064,-0.130475,7,-0.00233108,11,-9.94304e-06,-3.88447,0.350464,0.168348,-0.854431,0.0762064,
2,0,0,1,0,8279.56,0.069016,0.0687092,-0.124438,7,-0.00341807,11,-8.55006e-06,-3.90505,0.420385,0.140348,-0.686199,0.0687092,
2,0,0,1,0,8287.05,0.0615251,0.0612101,-0.119153,7,-0.0044651,11,-7.29335e-06,-3.9239,0.440588,0.133912,-0.621864,0.0612101,
2,0,0,1,0,8294.54,0.0540342,0.0537195,-0.11364,7,-0.00546785,11,-6.1047e-06,-3.94447,0.379157,0.155608,-0.689685,0.0537195,
2,0,0,1,0,8302.03,0.0465432,0.0462244,-0.108149,7,-0.00643036,11,-4.99913e-06,-3.96598,0.399378,0.14773,-0.626776,0.0462244,
2,0,0,1,0,8309.52,0.0390522,0.038722,-0.105037,7,-0.00736073,11,-4.06726e-06,-3.97866,0.570211,0.10347,-0.423122,0.038722,
2,0,0,1,0,8317.01,0.0315613,0.0312239,-0.103491,7,-0.0082712,11,-3.23141e-06,-3.9851,4.81347,0.0122573,-0.0496212,0.0312239,
2,0,0,1,0,8324.5,0.0240703,0.0237215,-0.103272,7,-0.00917473,11,-2.44976e-06,-3.98602,-2.21832,-0.0265967,0.107522,0.0237215,
2,0,0,1,0,8331.99,0.0165794,0.016304,-0.104806,7,-0.0100832,11,-1.70876e-06,-3.97961,-0.94856,-0.0621995,0.254704,0.016304,
2,0,0,1,0,8339.48,0.00908843,0.00875491,-0.10739,7,-0.011007,11,-9.40189e-07,-3.96904,-0.584132,-0.101005,0.424749,0.00875491,
2,0,0,1,0,8346.97,0.00159744,0.00123977,-0.111886,7,-0.0119583,11,-1.38713e-07,-3.95123, , , ,0.00123977,
2,0,0,1,0,8348.37,0.000199235,-0.000138233,-0.112309,7,-0.0121393,11,1.55248e-08,-3.94958, , , ,-0.000138233,