File: Figure_codes/Fig_3-5/rawdata_trumpetplot_data/before 10th/20221101_1-115_002_TrumpetPlot_ParaChange_05_CV_C01_5.csv
mode,ox/red,error,control changes,counter inc.,time/s,control/V,Ewe/V,<I>/mA,cycle number,(Q-Qo)/C,I Range,P/W,log(|I|),Tafel slope mV/dec,alpha_eff,dI/d(E-IR),E-IR/V,
2,0,0,1,0,7117.03,2.44065e-05,-0.000306236,-0.0265613,6,0.0000000E+000,11,8.13402e-09,-4.57575, , , ,-0.000306236,
2,1,0,1,0,7118.48,0.00729041,0.00701133,0.208949,6,0.000292804,11,1.46501e-06,-3.67996,0.112254,0.525593,4.24716,0.007011327,
2,1,0,1,0,7119.98,0.0147815,0.0144726,0.230894,6,0.000651477,11,3.34165e-06,-3.63659,0.222594,0.265056,2.38856,0.01447264,
2,1,0,1,0,7121.48,0.0222725,0.0219983,0.246482,6,0.00103696,11,5.4222e-06,-3.60821,0.258445,0.228288,2.19535,0.0219983,
2,1,0,1,0,7122.98,0.0297635,0.0294774,0.262325,6,0.00144426,11,7.73266e-06,-3.58116,0.283299,0.208261,2.12392,0.0294774,
2,1,0,1,0,7124.47,0.0372545,0.0369609,0.276802,6,0.00187537,11,1.02309e-05,-3.55783,0.220559,0.267502,2.91224,0.0369609,
2,1,0,1,0,7125.97,0.0447456,0.0444517,0.301321,6,0.00233568,11,1.33942e-05,-3.52097,0.211018,0.279597,3.27274,0.0444517,
2,1,0,1,0,7127.47,0.0522367,0.0519583,0.329292,6,0.00283392,11,1.71094e-05,-3.48242,0.147235,0.40072,5.14408,0.0519583,
2,1,0,1,0,7128.97,0.0597277,0.0594174,0.362749,6,0.00337888,11,2.15536e-05,-3.44039,0.193429,0.305022,4.31733,0.0594174,
2,1,0,1,0,7130.47,0.0672187,0.0669377,0.398871,6,0.00397543,11,2.66995e-05,-3.39917,0.218579,0.269926,4.17288,0.0669377,
2,1,0,1,0,7131.97,0.0747092,0.0744026,0.429027,6,0.00462294,11,3.19207e-05,-3.36752,0.260064,0.226868,3.81293,0.0744026,
2,1,0,0,0,7133.46,0.0822001,0.0819357,0.456532,6,0.00531696,11,3.74063e-05,-3.34053,0.313853,0.187986,3.36546,0.0819357,
2,1,0,1,0,7134.96,0.0896911,0.0893713,0.486999,6,0.00605167,11,4.35238e-05,-3.31247,0.299213,0.197184,3.74667,0.0893713,
2,1,0,0,0,7136.46,0.097182,0.0968503,0.515135,6,0.00682865,11,4.9891e-05,-3.28808,0.207128,0.284848,5.72859,0.0968503,
2,1,0,1,0,7137.96,0.104673,0.104427,0.562069,6,0.00765972,11,5.86952e-05,-3.25021,0.174797,0.337535,7.37738,0.104427,
2,1,0,0,0,7139.46,0.112164,0.111843,0.625653,6,0.00857206,11,6.99751e-05,-3.20367,0.158857,0.371404,9.04631,0.111843,
2,1,0,1,0,7140.95,0.119655,0.11935,0.704401,6,0.00959471,11,8.40702e-05,-3.15218,0.16106,0.366323,10.0973,0.11935,
2,1,0,0,0,7142.45,0.127146,0.12684,0.775397,6,0.0107352,11,9.83512e-05,-3.11048,0.192201,0.306971,9.33593,0.1268397,
2,1,0,1,0,7143.95,0.134637,0.134334,0.837959,6,0.0119798,11,0.000112566,-3.07678,0.364726,0.161765,5.30636,0.134334,
2,1,0,1,0,7145.45,0.142127,0.141857,0.852254,6,0.013283,11,0.000120898,-3.06943,-0.769014,-0.0767216,-2.53595,0.1418568,
2,1,0,1,0,7146.95,0.149618,0.149352,0.777997,6,0.0145433,11,0.000116195,-3.10902,-0.109377,-0.539419,-16.2797,0.149352,
2,1,0,1,0,7148.45,0.157109,0.156808,0.629057,6,0.015628,11,9.86411e-05,-3.20131,-0.067196,-0.878029,-21.5348,0.156808,
2,1,0,1,0,7149.94,0.1646,0.164335,0.493107,6,0.0164908,11,8.10349e-05,-3.30706,-0.075864,-0.777708,-15.0509,0.164335,
2,1,0,1,0,7151.44,0.172091,0.171801,0.408577,6,0.0171895,11,7.01938e-05,-3.38873,-0.119783,-0.492557,-7.91288,0.171801,
2,1,0,1,0,7152.94,0.179582,0.179286,0.364189,6,0.0177929,11,6.52942e-05,-3.43867,-0.179915,-0.327933,-4.65804,0.179286,
2,1,0,1,0,7154.44,0.187074,0.186738,0.334026,6,0.0183409,11,6.23753e-05,-3.47622,-0.292826,-0.201485,-2.63307,0.186738,
2,1,0,1,0,7155.94,0.194564,0.194233,0.314987,6,0.0188544,11,6.11809e-05,-3.50171,-0.422848,-0.13953,-1.72653,0.194233,
2,1,0,1,0,7157.43,0.202056,0.201759,0.303902,6,0.0193449,11,6.13148e-05,-3.51727,-0.487703,-0.120975,-1.42852,0.201759,
2,1,0,1,0,7158.93,0.209547,0.209315,0.293677,6,0.0198195,11,6.1471e-05,-3.53213,-0.607633,-0.097098,-1.11495,0.209315,
2,1,0,1,0,7160.43,0.217038,0.216757,0.286623,6,0.0202816,11,6.21276e-05,-3.54269,-0.84896,-0.0694968,-0.778618,0.216757,
2,1,0,1,0,7161.93,0.224529,0.224268,0.282162,6,0.0207348,11,6.328e-05,-3.5495,-0.857062,-0.0688398,-0.756774,0.224268,
2,1,0,1,0,7163.43,0.232019,0.231718,0.27653,6,0.0211805,11,6.40769e-05,-3.55826,-0.800326,-0.07372,-0.798768,0.231718,
2,1,0,0,0,7164.93,0.23951,0.239205,0.274456,6,0.0216204,11,6.56511e-05,-3.56153,-1.05102,-0.0561361,-0.598472,0.2392046,
2,1,0,1,0,7166.42,0.247001,0.246721,0.270146,6,0.0220551,11,6.66507e-05,-3.5684,-1.72352,-0.0342323,-0.36065,0.246721,
2,1,0,0,0,7167.92,0.254492,0.254185,0.267551,6,0.0224854,11,6.80075e-05,-3.57259,-6.90102,-0.00854946,-0.0893791,0.254185,
2,1,0,1,0,7169.42,0.261983,0.261686,0.264952,6,0.0229117,11,6.93344e-05,-3.57683,-13.0676,-0.00451498,-0.046787,0.261686,
2,1,0,0,0,7170.92,0.269474,0.269202,0.262812,6,0.0233345,11,7.07497e-05,-3.58035,-4.37276,-0.0134926,-0.138291,0.269202,
2,1,0,1,0,7172.42,0.276965,0.276673,0.259472,6,0.0237543,11,7.17888e-05,-3.58591,-1.36625,-0.043184,-0.439447,0.276673,
2,1,0,0,0,7173.91,0.284456,0.284189,0.258839,6,0.0241711,11,7.35594e-05,-3.58697,-20.6141,-0.00286211,-0.0287957,0.284189,
2,1,0,1,0,7175.41,0.291947,0.29165,0.255921,6,0.024585,11,7.46394e-05,-3.59189,-6.12602,-0.00963106,-0.0969559,0.29165,
2,1,0,1,0,7176.91,0.299437,0.299176,0.254501,6,0.0249962,11,7.61405e-05,-3.59431,-0.00166126,-35.5153,-132.914,0.299176,
2,0,0,1,0,7178.28,0.293744,0.293437,-0.0304256,6,0.0250003,11,-8.92798e-06,-4.51676,-0.0122443,-4.81856,5.24426,0.293437,
2,0,0,1,0,7179.78,0.286253,0.285972,-0.0585316,6,0.0249044,11,-1.67384e-05,-4.23261,-0.0440935,-1.33806,3.03349,0.285972,
2,0,0,0,0,7181.28,0.278763,0.278419,-0.0776713,6,0.0247743,11,-2.16252e-05,-4.10974,-0.0839169,-0.703077,2.0991,0.278419,
2,0,0,1,0,7182.77,0.271272,0.270948,-0.0929977,6,0.0246188,11,-2.51975e-05,-4.03153,-0.120486,-0.489682,1.77741,0.2709479,
2,0,0,0,0,7184.27,0.263781,0.26346,-0.105707,6,0.0244423,11,-2.78496e-05,-3.9759,-0.151894,-0.388428,1.59963,0.26346,
2,0,0,1,0,7185.77,0.25629,0.255983,-0.117765,6,0.0242473,11,-3.01458e-05,-3.92898,-0.190192,-0.310213,1.41325,0.255983,
2,0,0,0,0,7187.27,0.248799,0.248461,-0.12812,6,0.0240354,11,-3.18328e-05,-3.89238,-0.196093,-0.300878,1.51407,0.248461,
2,0,0,1,0,7188.77,0.241308,0.241041,-0.138119,6,0.0238078,11,-3.32923e-05,-3.85975,-0.215104,-0.274286,1.49091,0.241041,
2,0,0,0,0,7190.27,0.233817,0.233506,-0.149252,6,0.0235646,11,-3.48512e-05,-3.82608,-0.249659,-0.236322,1.37403,0.233506,
2,0,0,1,0,7191.76,0.226326,0.226044,-0.159847,6,0.0233059,11,-3.61324e-05,-3.7963,-0.320854,-0.183884,1.14634,0.226044,
2,0,0,0,0,7193.26,0.218835,0.218563,-0.170638,6,0.0230314,11,-3.72952e-05,-3.76792,-0.286782,-0.205731,1.36884,0.218563,
2,0,0,1,0,7194.76,0.211344,0.211048,-0.18298,6,0.0227403,11,-3.86174e-05,-3.7376,-0.269551,-0.218882,1.55223,0.2110476,
2,0,0,1,0,7196.26,0.203854,0.203572,-0.193761,6,0.0224301,11,-3.94443e-05,-3.71273,-0.210715,-0.279999,2.13485,0.203572,
2,0,0,1,0,7197.76,0.196363,0.196036,-0.210083,6,0.0220993,11,-4.11838e-05,-3.67761,-0.193618,-0.304723,2.49683,0.196036,
2,0,0,1,0,7199.25,0.188871,0.188548,-0.229847,6,0.0217419,11,-4.33372e-05,-3.63856,-0.14094,-0.418617,3.75091,0.188548,
2,0,0,1,0,7200.75,0.181381,0.181092,-0.257485,6,0.0213508,11,-4.66286e-05,-3.58925,-0.137872,-0.427932,4.29533,0.181092,
2,0,0,1,0,7202.25,0.173889,0.1736,-0.293947,6,0.0209127,11,-5.10291e-05,-3.53173,-0.116592,-0.506036,5.79656,0.1736,
2,0,0,1,0,7203.75,0.166398,0.166122,-0.349952,6,0.0204045,11,-5.81349e-05,-3.45599,-0.0860165,-0.685915,9.4764,0.166122,
2,0,0,1,0,7205.25,0.158907,0.158583,-0.443178,6,0.0197852,11,-7.02805e-05,-3.35342,-0.0641608,-0.919565,16.0128,0.158583,
2,0,0,1,0,7206.75,0.151416,0.151129,-0.585954,6,0.0189901,11,-8.85548e-05,-3.23214,-0.0635698,-0.928114,21.2336,0.1511292,
2,0,0,1,0,7208.24,0.143925,0.143645,-0.739374,6,0.0179681,11,-0.000106207,-3.13114,-0.0834992,-0.706594,20.2915,0.143645,
2,0,0,1,0,7209.74,0.136434,0.136107,-0.845499,6,0.0167453,11,-0.000115079,-3.07289,-0.212927,-0.277091,9.07394,0.136107,
2,0,0,1,0,7211.24,0.128943,0.128658,-0.868056,6,0.0154269,11,-0.000111682,-3.06145,0.739282,0.0798071,-2.69088,0.128658,
2,0,0,0,0,7212.74,0.121453,0.121128,-0.829834,6,0.0141227,11,-0.000100516,-3.08101,0.245757,0.240075,-7.77561,0.121128,
2,0,0,1,0,7214.24,0.113962,0.113655,-0.761117,6,0.0128985,11,-8.65044e-05,-3.11855,0.182108,0.323984,-9.65655,0.113655,
2,0,0,0,0,7215.73,0.106471,0.106193,-0.693851,6,0.01178,11,-7.36818e-05,-3.15873,0.191681,0.307803,-8.36421,0.106193,
2,0,0,1,0,7217.23,0.0989799,0.0986933,-0.638867,6,0.010757,11,-6.30519e-05,-3.19459,0.27227,0.216697,-5.38519,0.0986933,
2,0,0,0,0,7218.73,0.0914889,0.091192,-0.604762,6,0.00980309,11,-5.51494e-05,-3.21842,0.352041,0.167594,-3.93127,0.091192,
2,0,0,1,0,7220.23,0.083998,0.0836981,-0.574567,6,0.00889617,11,-4.80902e-05,-3.24066,0.305206,0.193312,-4.33385,0.0836981,
2,0,0,0,0,7221.73,0.076507,0.0761809,-0.551129,6,0.00802645,11,-4.19855e-05,-3.25875,0.364965,0.161659,-3.46973,0.07618089,
2,0,0,1,0,7223.23,0.0690161,0.0686997,-0.521741,6,0.007195,11,-3.58434e-05,-3.28255,0.347084,0.169988,-3.47442,0.0686997,
2,0,0,0,0,7224.72,0.0615251,0.0612249,-0.492535,6,0.00640594,11,-3.01554e-05,-3.30756,0.246808,0.239053,-4.60681,0.0612249,
2,0,0,1,0,7226.22,0.0540342,0.0536844,-0.463427,6,0.00566371,11,-2.48788e-05,-3.33402,0.280636,0.210237,-3.78562,0.0536844,
2,0,0,1,0,7227.72,0.0465436,0.0462112,-0.43527,6,0.00496487,11,-2.01143e-05,-3.36124,0.356042,0.165711,-2.82649,0.0462112,
2,0,0,1,0,7229.22,0.0390526,0.0387711,-0.417815,6,0.00430012,11,-1.61991e-05,-3.37902,0.405188,0.145612,-2.36625,0.0387711,
2,0,0,1,0,7230.72,0.0315615,0.0312368,-0.405729,6,0.00365777,11,-1.26737e-05,-3.39176,0.848237,0.0695561,-1.10305,0.03123679,
2,0,0,1,0,7232.21,0.0240706,0.0237769,-0.401992,6,0.00302636,11,-9.55811e-06,-3.39578,3.68845,0.0159959,-0.25184,0.0237769,
2,0,0,1,0,7233.71,0.0165795,0.0163042,-0.404193,6,0.00239616,11,-6.59003e-06,-3.39341,-1.77274,-0.0332818,0.524608,0.0163042,
2,0,0,1,0,7235.21,0.00908846,0.00880908,-0.410833,6,0.00175947,11,-3.61906e-06,-3.38633,-0.650142,-0.0907494,1.45375,0.00880908,
2,0,0,1,0,7236.71,0.00159739,0.00126099,-0.421851,6,0.00110872,11,-5.31948e-07,-3.37484, , , ,0.00126099,
2,0,0,0,0,7236.99,0.000199195,-0.000147811,-0.420645,6,0.000985514,11,6.21761e-08,-3.37608, , , ,-0.000147811,