File: Figure_codes/Fig_3-5/rawdata_trumpetplot_data/before 10th/20221101_1-115_002_TrumpetPlot_ParaChange_08_CV_C01_4.csv
mode,ox/red,error,control changes,counter inc.,time/s,control/V,Ewe/V,<I>/mA,cycle number,(Q-Qo)/C,I Range,P/W,log(|I|),Tafel slope mV/dec,alpha_eff,dI/d(E-IR),E-IR/V,
2,0,0,0,0,6095.7,2.44065e-05,-0.0002108,-2.40584,5,0.0000000E+000,11,5.07151e-07,-2.61873, , , ,-0.0002108,
2,1,0,1,0,6095.88,0.00729063,0.00701188,1.59938,5,0.000161275,11,1.12147e-05,-2.79605,0.0936288,0.630148,38.7028,0.00701188,
2,1,0,1,0,6096.07,0.014778,0.0144898,1.76134,5,0.000478539,11,2.55215e-05,-2.75416,0.250204,0.235807,16.1731,0.0144898,
2,1,0,1,0,6096.26,0.0222743,0.021977,1.85644,5,0.000818968,11,4.07991e-05,-2.73132,0.345997,0.170522,12.3773,0.021977,
2,1,0,1,0,6096.45,0.0297626,0.0295059,1.94843,5,0.00117564,11,5.74902e-05,-2.71032,0.40618,0.145256,10.9923,0.0295059,
2,1,0,1,0,6096.63,0.0372544,0.0369904,2.04112,5,0.00154945,11,7.5502e-05,-2.69013,0.343358,0.171832,13.7063,0.0369904,
2,1,0,1,0,6096.82,0.0447472,0.0444472,2.16872,5,0.00194432,11,9.63936e-05,-2.6638,0.264303,0.223229,18.9453,0.0444472,
2,1,0,1,0,6097.01,0.0522345,0.0519661,2.33889,5,0.0023663,11,0.000121543,-2.63099,0.198987,0.296502,27.0044,0.0519661,
2,1,0,1,0,6097.2,0.0597309,0.0594331,2.5421,5,0.00282405,11,0.000151085,-2.59481,0.186043,0.31713,31.5288,0.0594331,
2,1,0,1,0,6097.38,0.0672182,0.0669172,2.78483,5,0.00332306,11,0.000186353,-2.5552,0.200252,0.294629,31.9416,0.0669172,
2,1,0,1,0,6097.57,0.0747074,0.0743918,3.02243,5,0.0038667,11,0.000224844,-2.51964,0.228607,0.258085,30.3536,0.0743918,
2,1,0,1,0,6097.76,0.0822019,0.0819206,3.23236,5,0.00445439,11,0.000264797,-2.49048,0.272689,0.216364,27.3771,0.0819206,
2,1,0,1,0,6097.94,0.0896911,0.0893822,3.44414,5,0.0050812,11,0.000307845,-2.46292,0.29323,0.201207,27.0161,0.0893822,
2,1,0,1,0,6098.13,0.097182,0.0968552,3.6451,5,0.00574551,11,0.000353047,-2.43829,0.277037,0.212968,30.3017,0.0968552,
2,1,0,1,0,6098.32,0.104675,0.104362,3.89333,5,0.00645094,11,0.000406316,-2.40968,0.219631,0.268633,40.8435,0.104362,
2,1,0,1,0,6098.51,0.112162,0.111913,4.25351,5,0.00721129,11,0.000476025,-2.37125,0.17433,0.338439,56.0472,0.111913,
2,1,0,1,0,6098.69,0.119655,0.119392,4.73454,5,0.00805138,11,0.000565267,-2.32472,0.160208,0.368272,68.1221,0.119392,
2,1,0,1,0,6098.88,0.127146,0.126853,5.2811,5,0.00899085,11,0.000669922,-2.27728,0.16444,0.358793,74.0138,0.1268528,
2,1,0,1,0,6099.07,0.134635,0.134302,5.80662,5,0.0100316,11,0.000779841,-2.23608,0.220699,0.267332,60.5255,0.134302,
2,1,0,1,0,6099.26,0.14213,0.141801,6.16813,5,0.0111584,11,0.000874647,-2.20985,0.433134,0.136217,32.7548,0.1418009,
2,1,0,1,0,6099.44,0.149619,0.149337,6.24084,5,0.0123265,11,0.000931988,-2.20476,-0.61044,-0.0966517,-23.434,0.149337,
2,1,0,1,0,6099.63,0.157106,0.15679,5.7312,5,0.0134582,11,0.000898596,-2.24175,-0.11385,-0.518224,-115.256,0.15679,
2,1,0,1,0,6099.82,0.164602,0.164344,4.64072,5,0.0144356,11,0.000762673,-2.33341,-0.0674039,-0.87532,-158.404,0.164344,
2,1,0,1,0,6100,0.172091,0.171796,3.6071,5,0.0152025,11,0.000619684,-2.44284,-0.0761781,-0.774501,-109.398,0.171796,
2,1,0,1,0,6100.19,0.179582,0.179281,2.96018,5,0.0158136,11,0.000530706,-2.52868,-0.100463,-0.587281,-68.2139,0.179281,
2,1,0,1,0,6100.38,0.187074,0.186775,2.56089,5,0.0163289,11,0.000478309,-2.59161,-0.140228,-0.420743,-42.0849,0.186775,
2,1,0,1,0,6100.57,0.194563,0.194295,2.30644,5,0.0167829,11,0.000448131,-2.63706,-0.192087,-0.307152,-27.6004,0.194295,
2,1,0,1,0,6100.75,0.202059,0.201767,2.13216,5,0.0171983,11,0.000430199,-2.67118,-0.264994,-0.222647,-18.5611,0.201767,
2,1,0,1,0,6100.94,0.209546,0.209257,2.03216,5,0.0175883,11,0.000425244,-2.69204,-0.31797,-0.185552,-14.6986,0.209257,
2,1,0,1,0,6101.13,0.217035,0.216741,1.94642,5,0.017961,11,0.000421869,-2.71076,-0.510231,-0.115634,-8.81707,0.216741,
2,1,0,1,0,6101.32,0.22453,0.224275,1.89344,5,0.0183221,11,0.000424652,-2.72275,-0.678937,-0.0869006,-6.43861,0.224275,
2,1,0,1,0,6101.5,0.232019,0.231779,1.85674,5,0.0186735,11,0.000430352,-2.73125,-0.9727,-0.0606559,-4.37771,0.231779,
2,1,0,1,0,6101.69,0.23951,0.23923,1.81674,5,0.0190181,11,0.000434617,-2.74071,-0.909898,-0.0648424,-4.60206,0.23923,
2,1,0,1,0,6101.88,0.247003,0.246677,1.78838,5,0.0193566,11,0.000441152,-2.74754,-0.826891,-0.0713516,-4.97409,0.246677,
2,1,0,1,0,6102.06,0.25449,0.254266,1.76352,5,0.0196896,11,0.000448401,-2.75362,-1.02863,-0.0573581,-3.93854,0.254266,
2,1,0,1,0,6102.25,0.261983,0.261679,1.73401,5,0.0200181,11,0.000453754,-2.76095,-1.38704,-0.0425368,-2.89124,0.261679,
2,1,0,1,0,6102.44,0.269474,0.269161,1.7181,5,0.0203423,11,0.000462445,-2.76495,-3.40021,-0.0173519,-1.1607,0.269161,
2,1,0,1,0,6102.63,0.276963,0.276687,1.69551,5,0.0206624,11,0.000469127,-2.7707,-1.47129,-0.0401008,-2.65249,0.2766872,
2,1,0,1,0,6102.81,0.284458,0.284185,1.67211,5,0.0209789,11,0.00047519,-2.77673,-2.03423,-0.0290036,-1.89874,0.284185,
2,1,0,1,0,6103,0.291947,0.291638,1.65678,5,0.0212915,11,0.000483181,-2.78073,-0.949165,-0.0621599,-4.00652,0.291638,
2,1,0,1,0,6103.19,0.299434,0.299152,1.63207,5,0.0216005,11,0.000488236,-2.78726,-0.00804418,-7.33449,-348.886,0.299152,
2,0,0,1,0,6103.35,0.294196,0.293881,-0.559421,5,0.0215889,11,-0.000164403,-3.25226,-0.0371309,-1.58897,34.0086,0.293881,
2,0,0,1,0,6103.53,0.286701,0.286392,-0.735158,5,0.0214648,11,-0.000210543,-3.13362,-0.0916275,-0.643911,18.4273,0.286392,
2,0,0,1,0,6103.72,0.279212,0.278911,-0.845907,5,0.021315,11,-0.000235932,-3.07268,-0.174491,-0.338126,11.2479,0.278911,
2,0,0,1,0,6103.91,0.271725,0.271408,-0.934396,5,0.0211473,11,-0.000253602,-3.02947,-0.160483,-0.367639,13.3248,0.271408,
2,0,0,1,0,6104.1,0.264228,0.263906,-1.00266,5,0.020965,11,-0.000264608,-2.99885,-0.250398,-0.235625,9.20242,0.263906,
2,0,0,1,0,6104.28,0.256741,0.256408,-1.0613,5,0.0207704,11,-0.000272125,-2.97416,-0.37177,-0.1587,6.60663,0.256408,
2,0,0,1,0,6104.47,0.249248,0.248953,-1.12901,5,0.0205647,11,-0.000281072,-2.9473,-0.388466,-0.151879,6.63487,0.248953,
2,0,0,1,0,6104.66,0.241756,0.241455,-1.1703,5,0.0203485,11,-0.000282576,-2.9317,-0.416903,-0.14152,6.51505,0.241455,
2,0,0,1,0,6104.85,0.234268,0.233986,-1.22862,5,0.0201224,11,-0.000287481,-2.91058,-0.361059,-0.163408,7.87989,0.233986,
2,0,0,1,0,6105.03,0.226772,0.226479,-1.29328,5,0.0198855,11,-0.0002929,-2.88831,-0.308775,-0.191078,9.56258,0.226479,
2,0,0,1,0,6105.22,0.219284,0.219013,-1.34881,5,0.0196379,11,-0.000295407,-2.87005,-0.385418,-0.153081,8.0723,0.219013,
2,0,0,1,0,6105.41,0.211796,0.211502,-1.41562,5,0.0193787,11,-0.000299408,-2.84905,-0.459765,-0.128327,7.06433,0.211502,
2,0,0,1,0,6105.59,0.204301,0.20396,-1.49736,5,0.0191055,11,-0.000305401,-2.82467,-0.461643,-0.127804,7.45458,0.20396,
2,0,0,1,0,6105.78,0.196812,0.196489,-1.57874,5,0.0188168,11,-0.000310206,-2.80169,-0.251763,-0.234347,14.5624,0.196489,
2,0,0,1,0,6105.97,0.189321,0.189005,-1.71231,5,0.0185075,11,-0.000323636,-2.76642,-0.20416,-0.288989,19.294,0.189005,
2,0,0,1,0,6106.16,0.181828,0.181585,-1.88015,5,0.0181713,11,-0.000341408,-2.72581,-0.151323,-0.389894,28.639,0.181585,
2,0,0,1,0,6106.34,0.174341,0.174027,-2.11831,5,0.0177972,11,-0.000368642,-2.67401,-0.123461,-0.477884,39.6658,0.174027,
2,0,0,1,0,6106.53,0.166848,0.166532,-2.49316,5,0.0173674,11,-0.000415191,-2.60325,-0.096441,-0.611773,59.2713,0.166532,
2,0,0,1,0,6106.72,0.159357,0.159057,-3.0394,5,0.0168528,11,-0.000483436,-2.51721,-0.0781726,-0.754741,89.8399,0.159057,
2,0,0,1,0,6106.91,0.151868,0.151549,-3.83523,5,0.016211,11,-0.000581227,-2.41621,-0.074856,-0.78818,118.375,0.1515494,
2,0,0,1,0,6107.09,0.144373,0.144087,-4.79042,5,0.0154024,11,-0.000690237,-2.31963,-0.0864497,-0.682478,127.312,0.144087,
2,0,0,1,0,6107.28,0.136884,0.136614,-5.63548,5,0.0144214,11,-0.000769886,-2.24907,-0.132651,-0.444776,97.7059,0.136614,
2,0,0,1,0,6107.47,0.129393,0.129075,-6.18632,5,0.0133074,11,-0.000798497,-2.20857,-0.300438,-0.19638,47.239,0.129075,
2,0,0,1,0,6107.65,0.1219,0.121613,-6.3084,5,0.0121306,11,-0.000767183,-2.20008,1.03792,0.0568442,-13.9422,0.1216128,
2,0,0,1,0,6107.84,0.114413,0.11414,-6.02936,5,0.0109698,11,-0.000688193,-2.21973,0.22776,0.259045,-60.9026,0.1141403,
2,0,0,1,0,6108.03,0.10692,0.106587,-5.48052,5,0.00988861,11,-0.000584152,-2.26118,0.152853,0.385992,-82.4971,0.106587,
2,0,0,1,0,6108.22,0.0994284,0.099144,-4.90301,5,0.00891669,11,-0.000486104,-2.30954,0.172006,0.343012,-65.7664,0.099144,
2,0,0,1,0,6108.4,0.0919401,0.0916728,-4.4832,5,0.00804013,11,-0.000410987,-2.34841,0.243109,0.242689,-42.5207,0.09167283,
2,0,0,1,0,6108.59,0.0844447,0.0841655,-4.21602,5,0.00722615,11,-0.000354843,-2.3751,0.3362,0.175491,-28.8346,0.0841655,
2,0,0,1,0,6108.78,0.0769565,0.0766199,-4.01091,5,0.00645645,11,-0.000307315,-2.39676,0.346082,0.17048,-26.6903,0.0766199,
2,0,0,1,0,6108.97,0.0694682,0.0691808,-3.81731,5,0.00572276,11,-0.000264085,-2.41824,0.317963,0.185556,-27.6242,0.0691808,
2,0,0,1,0,6109.15,0.0619728,0.0617018,-3.59945,5,0.00502636,11,-0.000222093,-2.44376,0.251062,0.235002,-32.987,0.0617018,
2,0,0,1,0,6109.34,0.0544836,0.0541843,-3.34593,5,0.00437492,11,-0.000181297,-2.47548,0.245902,0.239933,-31.3922,0.0541843,
2,0,0,1,0,6109.53,0.0469927,0.0466737,-3.11568,5,0.00376959,11,-0.00014542,-2.50645,0.25272,0.23346,-28.302,0.0466737,
2,0,0,1,0,6109.71,0.0394999,0.0391679,-2.92147,5,0.00320523,11,-0.000114428,-2.5344,0.316078,0.186663,-21.2757,0.03916787,
2,0,0,1,0,6109.9,0.0320125,0.0317139,-2.79379,5,0.00267071,11,-8.86021e-05,-2.55381,0.464018,0.12715,-13.8762,0.0317139,
2,0,0,1,0,6110.09,0.0245198,0.0242081,-2.72425,5,0.00215361,11,-6.59489e-05,-2.56475,0.9144,0.0645232,-6.86189,0.0242081,
2,0,0,1,0,6110.28,0.0170289,0.0167222,-2.69234,5,0.00164506,11,-4.50219e-05,-2.56987,20.7737,0.00284013,-0.300551,0.0167222,
2,0,0,1,0,6110.46,0.0095397,0.00918595,-2.71389,5,0.00113772,11,-2.49297e-05,-2.56641,-0.971582,-0.0607257,6.4231,0.00918595,
2,0,0,1,0,6110.65,0.00204518,0.00170458,-2.80769,5,0.000625329,11,-4.78593e-06,-2.55165,-0.701712,-0.0840801,9.01823,0.00170458,
2,0,0,1,0,6110.7,0.000177222,-0.000198584,-2.76606,5,0.000495135,11,5.49294e-07,-2.55814, , , ,-0.000198584,