File: Figure_codes/Fig_3-5/rawdata_trumpetplot_data/before 10th/20221101_1-115_002_TrumpetPlot_ParaChange_05_CV_C01_3.csv
mode,ox/red,error,control changes,counter inc.,time/s,control/V,Ewe/V,<I>/mA,cycle number,(Q-Qo)/C,I Range,P/W,log(|I|),Tafel slope mV/dec,alpha_eff,dI/d(E-IR),E-IR/V,
2,0,0,1,0,4653.77,2.44065e-05,-0.000287149,-0.0147852,4,0.0000000E+000,11,4.24555e-09,-4.83017, , , ,-0.0002871489,
2,1,0,1,0,4655.22,0.00729041,0.00700395,0.209858,4,0.000294354,11,1.46984e-06,-3.67807,0.13163,0.448224,3.6479,0.00700395,
2,1,0,1,0,4656.72,0.0147815,0.0144703,0.2307,4,0.000653912,11,3.33831e-06,-3.63695,0.300499,0.19634,1.77053,0.0144703,
2,1,0,1,0,4658.22,0.0222725,0.0220028,0.244843,4,0.00103805,11,5.38723e-06,-3.61111,0.274494,0.214941,2.04759,0.02200282,
2,1,0,1,0,4659.72,0.0297635,0.0294625,0.257041,4,0.00144085,11,7.57305e-06,-3.59,0.68378,0.0862851,0.866738,0.0294625,
2,1,0,1,0,4661.22,0.0372545,0.0369958,0.268539,4,0.00186216,11,9.93482e-06,-3.57099,0.259982,0.226939,2.4024,0.0369958,
2,1,0,1,0,4662.72,0.0447456,0.0444727,0.288511,4,0.00230612,11,1.28309e-05,-3.53984,0.276655,0.213262,2.39269,0.0444727,
2,1,0,1,0,4664.21,0.0522367,0.051901,0.310253,4,0.00278001,11,1.61024e-05,-3.50828,0.17504,0.337065,4.06676,0.051901,
2,1,0,1,0,4665.71,0.0597277,0.0594366,0.339599,4,0.00329333,11,2.01846e-05,-3.46903,0.178449,0.330627,4.37763,0.0594366,
2,1,0,1,0,4667.21,0.0672187,0.0669134,0.374646,4,0.00385453,11,2.50689e-05,-3.42638,0.178933,0.329733,4.7959,0.0669134,
2,1,0,1,0,4668.71,0.0747092,0.0744195,0.40718,4,0.0044683,11,3.03022e-05,-3.39021,0.221498,0.266368,4.24865,0.0744195,
2,1,0,0,0,4670.21,0.0822001,0.0819506,0.438315,4,0.00513322,11,3.59202e-05,-3.35821,0.260424,0.226554,3.89901,0.0819506,
2,1,0,1,0,4671.7,0.0896911,0.0893745,0.471804,4,0.00584427,11,4.21672e-05,-3.32624,0.252416,0.233741,4.29644,0.0893745,
2,1,0,0,0,4673.2,0.097182,0.0968949,0.500567,4,0.00660006,11,4.85024e-05,-3.30054,0.19192,0.30742,5.99485,0.09689486,
2,1,0,1,0,4674.7,0.104673,0.104347,0.545533,4,0.00740776,11,5.6925e-05,-3.26318,0.193698,0.304598,6.44227,0.104347,
2,1,0,0,0,4676.2,0.112164,0.111897,0.604134,4,0.00829126,11,6.76011e-05,-3.21887,0.144442,0.408468,9.61902,0.1118975,
2,1,0,1,0,4677.7,0.119655,0.119366,0.693392,4,0.00928857,11,8.27674e-05,-3.15902,0.136766,0.431394,11.6882,0.119366,
2,1,0,0,0,4679.2,0.127146,0.126877,0.786792,4,0.010428,11,9.98256e-05,-3.10414,0.146287,0.403316,12.4295,0.1268768,
2,1,0,1,0,4680.69,0.134637,0.134324,0.871886,4,0.0117063,11,0.000117115,-3.05954,0.236958,0.248989,8.48442,0.134324,
2,1,0,1,0,4682.19,0.142127,0.141811,0.906691,4,0.0130752,11,0.000128579,-3.04254,43.885,0.00134442,0.047421,0.141811,
2,1,0,1,0,4683.69,0.149618,0.149337,0.852028,4,0.0144315,11,0.000127239,-3.06955,-0.142564,-0.41385,-13.6824,0.149337,
2,1,0,1,0,4685.19,0.157109,0.156801,0.70836,4,0.0156348,11,0.000111072,-3.14975,-0.0698338,-0.844863,-23.2757,0.156801,
2,1,0,1,0,4686.69,0.1646,0.164305,0.555416,4,0.016603,11,9.12575e-05,-3.25538,-0.0717662,-0.822114,-17.7948,0.164305,
2,1,0,1,0,4688.18,0.172091,0.171822,0.446278,4,0.0173738,11,7.66804e-05,-3.35039,-0.0960862,-0.614032,-10.7796,0.171822,
2,1,0,1,0,4689.68,0.179582,0.179211,0.388579,4,0.018024,11,6.96378e-05,-3.41052,-0.151112,-0.390438,-5.93468,0.179211,
2,1,0,1,0,4691.18,0.187074,0.186799,0.353452,4,0.0186039,11,6.60247e-05,-3.45167,-0.22193,-0.26585,-3.64632,0.186799,
2,1,0,1,0,4692.68,0.194564,0.194296,0.32798,4,0.0191403,11,6.37251e-05,-3.48415,-0.307293,-0.191999,-2.46642,0.194296,
2,1,0,1,0,4694.18,0.202056,0.201758,0.312829,4,0.0196472,11,6.31156e-05,-3.50469,-0.3374,-0.174866,-2.12382,0.201758,
2,1,0,1,0,4695.68,0.209547,0.209224,0.300679,4,0.020134,11,6.29093e-05,-3.5219,-0.451217,-0.130757,-1.5334,0.209224,
2,1,0,1,0,4697.17,0.217038,0.216776,0.290935,4,0.0206052,11,6.30679e-05,-3.5362,-0.711495,-0.082924,-0.945591,0.216776,
2,1,0,1,0,4698.67,0.224529,0.224275,0.285886,4,0.021065,11,6.4117e-05,-3.54381,-0.837386,-0.0704574,-0.783286,0.224275,
2,1,0,1,0,4700.17,0.232019,0.231721,0.279775,4,0.0215158,11,6.48297e-05,-3.55319,-0.936835,-0.062978,-0.688664,0.231721,
2,1,0,0,0,4701.67,0.23951,0.239241,0.275079,4,0.0219594,11,6.58101e-05,-3.56054,-0.707761,-0.0833615,-0.895404,0.239241,
2,1,0,1,0,4703.17,0.247001,0.246731,0.2704,4,0.0223971,11,6.6716e-05,-3.56799,-0.753646,-0.078286,-0.83066,0.246731,
2,1,0,0,0,4704.67,0.254492,0.254218,0.267729,4,0.0228297,11,6.80614e-05,-3.57231,-1.20221,-0.0490765,-0.514719,0.254218,
2,1,0,1,0,4706.16,0.261983,0.261713,0.265889,4,0.0232579,11,6.95866e-05,-3.5753,-1.116,-0.0528675,-0.548195,0.261713,
2,1,0,0,0,4707.66,0.269474,0.269216,0.263828,4,0.0236824,11,7.10269e-05,-3.57868,-16.5273,-0.00356985,-0.0367447,0.269216,
2,1,0,1,0,4709.16,0.276965,0.276688,0.261106,4,0.0241035,11,7.22448e-05,-3.58318,-1.44399,-0.0408591,-0.416944,0.276688,
2,1,0,0,0,4710.66,0.284456,0.2842,0.258876,4,0.0245214,11,7.35725e-05,-3.58691,-2.2256,-0.0265097,-0.26746,0.2842,
2,1,0,1,0,4712.16,0.291947,0.291669,0.256831,4,0.0249363,11,7.49098e-05,-3.59035,-1.43205,-0.0411998,-0.41407,0.291669,
2,1,0,1,0,4713.65,0.299437,0.299162,0.254937,4,0.0253484,11,7.62673e-05,-3.59357,-0.00174777,-33.7574,-129.546,0.299162,
2,0,0,1,0,4715.02,0.293744,0.293443,-0.0307822,4,0.0253528,11,-9.03282e-06,-4.5117,-0.0122675,-4.80946,5.20793,0.293443,
2,0,0,1,0,4716.52,0.286253,0.28596,-0.0582993,4,0.025256,11,-1.66712e-05,-4.23434,-0.0482244,-1.22345,2.76153,0.28596,
2,0,0,0,0,4718.02,0.278763,0.278484,-0.0787034,4,0.0251246,11,-2.19176e-05,-4.10401,-0.0831752,-0.709346,2.13803,0.2784842,
2,0,0,1,0,4719.52,0.271272,0.270977,-0.0934745,4,0.0249677,11,-2.53294e-05,-4.02931,-0.110247,-0.53516,1.95663,0.270977,
2,0,0,0,0,4721.02,0.263781,0.263511,-0.105786,4,0.0247893,11,-2.78759e-05,-3.97557,-0.15869,-0.371794,1.55945,0.263511,
2,0,0,1,0,4722.51,0.25629,0.255983,-0.118904,4,0.0245922,11,-3.04375e-05,-3.9248,-0.182321,-0.323605,1.48328,0.255983,
2,0,0,0,0,4724.01,0.248799,0.248553,-0.129432,4,0.0243778,11,-3.21706e-05,-3.88796,-0.181664,-0.324775,1.6427,0.248553,
2,0,0,1,0,4725.51,0.241308,0.241032,-0.139927,4,0.0241472,11,-3.37269e-05,-3.8541,-0.221774,-0.266037,1.45239,0.241032,
2,0,0,0,0,4727.01,0.233817,0.233528,-0.151073,4,0.0239006,11,-3.52799e-05,-3.82081,-0.212608,-0.277506,1.64033,0.233528,
2,0,0,1,0,4728.51,0.226326,0.226017,-0.16203,4,0.0236378,11,-3.66215e-05,-3.79041,-0.265636,-0.222109,1.41158,0.2260174,
2,0,0,0,0,4730.01,0.218835,0.21854,-0.174913,4,0.0233582,11,-3.82256e-05,-3.75718,-0.301397,-0.195755,1.32966,0.21854,
2,0,0,1,0,4731.5,0.211344,0.211076,-0.185299,4,0.0230606,11,-3.91123e-05,-3.73213,-0.225742,-0.261361,1.90821,0.211076,
2,0,0,1,0,4733,0.203854,0.203557,-0.199552,4,0.0227422,11,-4.06203e-05,-3.69994,-0.224371,-0.262958,2.07527,0.203557,
2,0,0,1,0,4734.5,0.196363,0.196044,-0.219645,4,0.0224004,11,-4.30602e-05,-3.65828,-0.19085,-0.309143,2.63311,0.196044,
2,0,0,1,0,4736,0.188871,0.188591,-0.240972,4,0.022028,11,-4.54451e-05,-3.61803,-0.124048,-0.475622,4.479,0.188591,
2,0,0,1,0,4737.5,0.181381,0.181081,-0.274307,4,0.0216157,11,-4.96718e-05,-3.56176,-0.128982,-0.457429,4.88066,0.181081,
2,0,0,1,0,4738.99,0.173889,0.173625,-0.319082,4,0.0211474,11,-5.54005e-05,-3.4961,-0.101542,-0.581041,7.22014,0.173625,
2,0,0,1,0,4740.49,0.166398,0.1661,-0.388007,4,0.0205941,11,-6.44481e-05,-3.41116,-0.0813391,-0.725359,11.0681,0.1661002,
2,0,0,1,0,4741.99,0.158907,0.158605,-0.495986,4,0.0199064,11,-7.8666e-05,-3.30453,-0.0648387,-0.909951,17.7956,0.158605,
2,0,0,1,0,4743.49,0.151416,0.151147,-0.657819,4,0.0190147,11,-9.94273e-05,-3.18189,-0.0679552,-0.868219,22.2757,0.151147,
2,0,0,1,0,4744.99,0.143925,0.143664,-0.81255,4,0.0178814,11,-0.000116734,-3.09015,-0.0974452,-0.605469,19.0833,0.143664,
2,0,0,1,0,4746.49,0.136434,0.13616,-0.904488,4,0.0165583,11,-0.000123155,-3.0436,-0.309422,-0.190678,6.68489,0.13616,
2,0,0,1,0,4747.98,0.128943,0.128643,-0.90488,4,0.0151654,11,-0.000116406,-3.04341,0.365374,0.161479,-5.69001,0.128643,
2,0,0,0,0,4749.48,0.121453,0.121141,-0.846353,4,0.0138202,11,-0.000102528,-3.07245,0.173611,0.339841,-11.1807,0.121141,
2,0,0,1,0,4750.98,0.113962,0.113682,-0.751502,4,0.0125924,11,-8.54324e-05,-3.12407,0.142152,0.41505,-12.249,0.113682,
2,0,0,0,0,4752.48,0.106471,0.106179,-0.679122,4,0.0114933,11,-7.21083e-05,-3.16805,0.19133,0.308367,-8.19349,0.106179,
2,0,0,1,0,4753.98,0.0989799,0.0986806,-0.623815,4,0.0104936,11,-6.15584e-05,-3.20494,0.279252,0.211278,-5.14467,0.0986806,
2,0,0,0,0,4755.47,0.0914889,0.0911602,-0.592439,4,0.00955922,11,-5.40068e-05,-3.22736,0.336781,0.175188,-4.02752,0.0911602,
2,0,0,1,0,4756.97,0.083998,0.0837236,-0.561541,4,0.00867058,11,-4.70142e-05,-3.25062,0.263593,0.22383,-4.89185,0.08372356,
2,0,0,0,0,4758.47,0.076507,0.0762106,-0.534359,4,0.00782237,11,-4.07238e-05,-3.27217,0.295476,0.199678,-4.15738,0.0762106,
2,0,0,1,0,4759.97,0.0690161,0.0687389,-0.501173,4,0.00701829,11,-3.44501e-05,-3.30001,0.250168,0.235841,-4.63916,0.0687389,
2,0,0,0,0,4761.47,0.0615251,0.0612217,-0.469603,4,0.00626201,11,-2.87499e-05,-3.32827,0.246267,0.239577,-4.40167,0.0612217,
2,0,0,1,0,4762.97,0.0540342,0.0537395,-0.440781,4,0.00555298,11,-2.36873e-05,-3.35578,0.279897,0.210792,-3.62858,0.0537395,
2,0,0,1,0,4764.46,0.0465436,0.0462249,-0.416936,4,0.0048823,11,-1.92728e-05,-3.37993,0.482616,0.12225,-2.00535,0.0462249,
2,0,0,1,0,4765.96,0.0390526,0.0387955,-0.405953,4,0.00423795,11,-1.57491e-05,-3.39152,0.614205,0.0960592,-1.52008,0.0387955,
2,0,0,1,0,4767.46,0.0315615,0.0312559,-0.400672,4,0.00360802,11,-1.25234e-05,-3.39721,3.96686,0.0148732,-0.232319,0.0312559,
2,0,0,1,0,4768.96,0.0240706,0.0237852,-0.398963,4,0.00298293,11,-9.48942e-06,-3.39907,-3.44442,-0.0171292,0.268083,0.0237852,
2,0,0,1,0,4770.46,0.0165795,0.0162914,-0.404643,4,0.0023544,11,-6.59219e-06,-3.39293,-1.12194,-0.0525873,0.826635,0.0162914,
2,0,0,1,0,4771.95,0.00908846,0.00874976,-0.410809,4,0.0017165,11,-3.59448e-06,-3.38636,-0.794693,-0.0742425,1.19377,0.00874976,
2,0,0,1,0,4773.45,0.00159739,0.00123739,-0.424614,4,0.00106262,11,-5.25414e-07,-3.37201, , , ,0.00123739,
2,0,0,0,0,4773.73,0.000199195,-0.000161173,-0.424412,4,0.000938811,11,6.84035e-08,-3.37221, , , ,-0.0001611726,