File: Figure_codes/Fig_3-5/rawdata_trumpetplot_data/before 10th/20221101_1-115_002_TrumpetPlot_ParaChange_04_CV_C01_2.csv
mode,ox/red,error,control changes,counter inc.,time/s,control/V,Ewe/V,<I>/mA,cycle number,(Q-Qo)/C,I Range,P/W,log(|I|),Tafel slope mV/dec,alpha_eff,dI/d(E-IR),E-IR/V,
2,0,0,1,0,2822.06,2.44065e-05,-0.000325324,-0.391047,3,0.0000000E+000,11,1.27217e-07,-3.40777, , , ,-0.000325324,
2,0,0,1,0,2829.32,0.00729061,0.00697982,-0.0937498,3,-0.000834807,11,-6.54357e-07,-4.02803,-0.0339593,-1.73737,6.45822,0.00697982,
2,0,0,1,0,2836.82,0.0147815,0.0145108,-0.0624415,3,-0.00125724,11,-9.06074e-07,-4.20453,-0.0458649,-1.28639,3.12466,0.0145108,
2,0,0,1,0,2844.31,0.0222725,0.0219909,-0.0440302,3,-0.00150446,11,-9.68264e-07,-4.35625,-0.0509369,-1.1583,2.01635,0.0219909,
2,0,0,1,0,2851.8,0.0297635,0.0294976,-0.0322986,3,-0.00164373,11,-9.52731e-07,-4.49082,-0.0508856,-1.15946,1.46139,0.0294976,
2,0,0,1,0,2859.29,0.0372544,0.0368896,-0.0228311,3,-0.00170164,11,-8.4223e-07,-4.64147,-0.0339023,-1.74029,1.50529,0.03688959,
2,0,0,1,0,2866.78,0.0447454,0.044444,-0.0133857,3,-0.00169049,11,-5.94913e-07,-4.87336,-0.026,-2.26923,1.19786,0.044444,
2,0,0,1,0,2874.27,0.0522363,0.051924,-0.00491497,3,-0.00161252,11,-2.55205e-07,-5.30848,-0.00799385,-7.38068,1.26317,0.051924,
2,0,0,1,0,2881.76,0.0597273,0.059452,0.00468146,3,-0.00146504,11,2.78322e-07,-5.32962,0.00683226,8.63551,1.3904,0.059452,
2,1,0,1,0,2889.25,0.0672183,0.0669226,0.0148348,3,-0.00124169,11,9.92782e-07,-4.82872,0.0261021,2.26036,1.29786,0.0669226,
2,1,0,1,0,2896.74,0.0747092,0.0744015,0.0264388,3,-0.000938624,11,1.96709e-06,-4.57776,0.0466527,1.26466,1.3083,0.0744015,
2,1,0,1,0,2904.23,0.0822001,0.0819124,0.0360897,3,-0.000554993,11,2.9562e-06,-4.44262,0.0625614,0.943073,1.33948,0.0819124,
2,1,0,1,0,2911.72,0.0896911,0.0893787,0.0454646,3,-9.70208e-05,11,4.06356e-06,-4.34233,0.0739044,0.798329,1.45018,0.0893787,
2,1,0,1,0,2919.22,0.0971821,0.0968992,0.0558344,3,0.000434273,11,5.41031e-06,-4.2531,0.0873949,0.675097,1.46241,0.0968992,
2,1,0,1,0,2926.71,0.104673,0.104397,0.0675197,3,0.00104246,11,7.04887e-06,-4.17057,0.0876719,0.672963,1.763,0.104397,
2,1,0,1,0,2934.2,0.112164,0.111861,0.0832643,3,0.00175345,11,9.31406e-06,-4.07954,0.0750152,0.786507,2.52939,0.111861,
2,1,0,1,0,2941.69,0.119655,0.119363,0.105929,3,0.0026107,11,1.2644e-05,-3.97498,0.0746233,0.790638,3.27099,0.119363,
2,1,0,1,0,2949.18,0.127146,0.126833,0.131666,3,0.0036606,11,1.66997e-05,-3.88052,0.0820316,0.719235,3.72335,0.126833,
2,1,0,1,0,2956.67,0.134637,0.134365,0.155637,3,0.00490589,11,2.09122e-05,-3.80789,0.144334,0.408775,2.48994,0.134365,
2,1,0,1,0,2964.16,0.142128,0.141809,0.164465,3,0.00627651,11,2.33227e-05,-3.78393,6.54553,0.00901379,0.0576104,0.141809,
2,1,0,1,0,2971.65,0.149619,0.149322,0.151048,3,0.00763096,11,2.25549e-05,-3.82088,-0.100428,-0.587486,-3.45876,0.149322,
2,1,0,1,0,2979.14,0.15711,0.156798,0.119028,3,0.00880444,11,1.86633e-05,-3.92435,-0.056031,-1.05299,-4.88468,0.156798,
2,1,0,1,0,2986.63,0.164601,0.164341,0.088474,3,0.00972776,11,1.45399e-05,-4.05318,-0.0612438,-0.963363,-3.31061,0.164341,
2,1,0,1,0,2994.13,0.172091,0.171805,0.0688305,3,0.0104616,11,1.18254e-05,-4.16222,-0.086763,-0.680014,-1.83613,0.171805,
2,1,0,1,0,3001.62,0.179582,0.179292,0.0582105,3,0.0110853,11,1.04367e-05,-4.235,-0.13702,-0.430593,-0.983284,0.179292,
2,1,0,1,0,3009.11,0.187073,0.186811,0.0524735,3,0.0116472,11,9.80264e-06,-4.28006,-0.262326,-0.224911,-0.457998,0.186811,
2,1,0,1,0,3016.6,0.194564,0.194261,0.0487995,3,0.012172,11,9.47986e-06,-4.31158,-0.476891,-0.123718,-0.235207,0.194261,
2,1,0,1,0,3024.09,0.202055,0.201783,0.0473833,3,0.0126754,11,9.56114e-06,-4.32437,-0.566754,-0.104102,-0.191958,0.201783,
2,1,0,1,0,3031.58,0.209546,0.209247,0.045952,3,0.0131662,11,9.61532e-06,-4.3377,-0.760762,-0.0775538,-0.140232,0.209247,
2,1,0,1,0,3039.07,0.217037,0.216714,0.045586,3,0.0136497,11,9.87914e-06,-4.34117,-3.80383,-0.0155107,-0.0276005,0.216714,
2,1,0,1,0,3046.56,0.224528,0.224256,0.0454042,3,0.0141307,11,1.01822e-05,-4.3429,2.43677,0.0242124,0.0429991,0.224256,
2,1,0,1,0,3054.05,0.232019,0.231731,0.0459316,3,0.0146117,11,1.06438e-05,-4.33789,0.73042,0.0807755,0.144532,0.231731,
2,1,0,1,0,3061.54,0.23951,0.239208,0.0459174,3,0.0150942,11,1.09838e-05,-4.33802,8.29281,0.0071146,0.012894,0.2392077,
2,1,0,1,0,3069.03,0.247001,0.246707,0.0472011,3,0.01558,11,1.16448e-05,-4.32605,0.612675,0.0962991,0.176352,0.246707,
2,1,0,1,0,3076.53,0.254492,0.254195,0.0476072,3,0.0160692,11,1.21015e-05,-4.32233,-1.22663,-0.0480992,-0.0884978,0.254195,
2,1,0,1,0,3084.02,0.261983,0.261711,0.0481139,3,0.0165623,11,1.25919e-05,-4.31773,0.992947,0.0594191,0.11096,0.2617107,
2,1,0,1,0,3091.51,0.269474,0.269211,0.0488098,3,0.0170597,11,1.31401e-05,-4.31149,0.990915,0.0595409,0.113373,0.269211,
2,1,0,1,0,3099,0.276965,0.276654,0.049604,3,0.0175619,11,1.37231e-05,-4.30448,0.567455,0.103973,0.200611,0.276654,
2,1,0,1,0,3106.49,0.284456,0.284178,0.0502763,3,0.0180687,11,1.42874e-05,-4.29864,4.05697,0.0145429,0.0284071,0.284178,
2,1,0,1,0,3113.98,0.291947,0.291701,0.0512117,3,0.01858,11,1.49385e-05,-4.29063,-4.36014,-0.0135317,-0.0270535,0.291701,
2,1,0,1,0,3121.47,0.299438,0.299137,0.0518481,3,0.0190958,11,1.55097e-05,-4.28527,-0.00635172,-9.28882,-13.6552,0.299137,
2,1,0,1,0,3128.31,0.293745,0.293442,0.011315,3,0.0191465,11,3.3203e-06,-4.94635,0.0187571,3.14548,1.46469,0.293442,
2,1,0,1,0,3135.8,0.286254,0.285975,0.00413005,3,0.0190729,11,1.18109e-06,-5.38404,0.0121278,4.86485,0.744303,0.285975,
2,1,0,1,0,3143.3,0.278763,0.278446,-0.00203344,3,0.018947,11,-5.66203e-07,-5.69177,-0.00498461,-11.8364,0.67345,0.278446,
2,0,0,1,0,3150.79,0.271272,0.27096,-0.0065882,3,0.0187815,11,-1.78513e-06,-5.18123,-0.0202029,-2.92038,0.73449,0.2709595,
2,0,0,1,0,3158.28,0.263781,0.263499,-0.010572,3,0.0185826,11,-2.78571e-06,-4.97584,-0.0412374,-1.43074,0.589638,0.2634995,
2,0,0,1,0,3165.77,0.25629,0.255957,-0.0138413,3,0.0183538,11,-3.54276e-06,-4.85882,-0.0964713,-0.611581,0.339184,0.2559568,
2,0,0,1,0,3173.26,0.248799,0.248541,-0.0173092,3,0.0180975,11,-4.30206e-06,-4.76172,-0.0955072,-0.617754,0.431887,0.248541,
2,0,0,1,0,3180.75,0.241308,0.241055,-0.0208614,3,0.0178149,11,-5.02875e-06,-4.68066,-0.118549,-0.497686,0.402631,0.241055,
2,0,0,1,0,3188.24,0.233817,0.233492,-0.023937,3,0.0175064,11,-5.58911e-06,-4.62093,-0.129693,-0.454919,0.440115,0.233492,
2,0,0,1,0,3195.73,0.226326,0.226064,-0.0274229,3,0.0171721,11,-6.19933e-06,-4.56189,-0.13586,-0.43427,0.468191,0.226064,
2,0,0,1,0,3203.22,0.218835,0.218555,-0.0313736,3,0.0168108,11,-6.85686e-06,-4.50344,-0.212579,-0.277544,0.339084,0.218555,
2,0,0,1,0,3210.71,0.211344,0.21106,-0.0351015,3,0.0164216,11,-7.40855e-06,-4.45467,-0.125063,-0.471763,0.644022,0.21106,
2,0,0,1,0,3218.21,0.203853,0.203531,-0.0383976,3,0.0160009,11,-7.81512e-06,-4.4157,-0.162721,-0.362585,0.553053,0.203531,
2,0,0,1,0,3225.7,0.196362,0.196058,-0.0440479,3,0.0155455,11,-8.63594e-06,-4.35607,-0.152079,-0.387956,0.66694,0.196058,
2,0,0,1,0,3233.19,0.188871,0.188566,-0.0500777,3,0.015047,11,-9.44294e-06,-4.30036,-0.101255,-0.58269,1.1367,0.188566,
2,0,0,1,0,3240.68,0.18138,0.181099,-0.0573895,3,0.0144948,11,-1.03932e-05,-4.24117,-0.115322,-0.511609,1.15082,0.181099,
2,0,0,1,0,3248.17,0.173889,0.173599,-0.0690808,3,0.0138696,11,-1.19924e-05,-4.16064,-0.0960783,-0.614083,1.65461,0.173599,
2,0,0,1,0,3255.66,0.166398,0.166075,-0.0859378,3,0.0131375,11,-1.42721e-05,-4.06582,-0.0728458,-0.809931,2.73944,0.166075,
2,0,0,1,0,3263.15,0.158907,0.158602,-0.112021,3,0.0122397,11,-1.77668e-05,-3.9507,-0.059885,-0.985221,4.36605,0.158602,
2,0,0,1,0,3270.64,0.151417,0.151092,-0.150324,3,0.0110952,11,-2.27128e-05,-3.82297,-0.0706714,-0.83485,4.91118,0.151092,
2,0,0,1,0,3278.13,0.143926,0.143668,-0.18489,3,0.00967253,11,-2.65628e-05,-3.73309,-0.10093,-0.584562,4.18056,0.143668,
2,0,0,1,0,3285.62,0.136435,0.136131,-0.201091,3,0.00805518,11,-2.73747e-05,-3.69661,-0.521848,-0.11306,0.882763,0.136131,
2,0,0,1,0,3293.11,0.128944,0.128608,-0.198068,3,0.00638866,11,-2.54733e-05,-3.70318,0.226936,0.259985,-2.0012,0.128608,
2,0,0,1,0,3300.61,0.121453,0.12116,-0.18222,3,0.0047993,11,-2.20779e-05,-3.7394,0.168267,0.350633,-2.49399,0.12116,
2,0,0,1,0,3308.1,0.113962,0.113692,-0.162557,3,0.00334591,11,-1.84814e-05,-3.78899,0.167418,0.352412,-2.25622,0.113692,
2,0,0,1,0,3315.59,0.106471,0.106187,-0.149325,3,0.00201855,11,-1.58564e-05,-3.82587,0.249491,0.236481,-1.38444,0.106187,
2,0,0,1,0,3323.08,0.0989798,0.0987462,-0.139979,3,0.000779647,11,-1.38224e-05,-3.85394,0.347568,0.169751,-0.925708,0.0987462,
2,0,0,1,0,3330.57,0.0914889,0.0911962,-0.134303,3,-0.000399225,11,-1.22479e-05,-3.87191,0.452618,0.130353,-0.680484,0.0911962,
2,0,0,1,0,3338.06,0.083998,0.0836737,-0.126936,3,-0.00152922,11,-1.06212e-05,-3.89641,0.264275,0.223252,-1.1038,0.08367373,
2,0,0,1,0,3345.55,0.076507,0.0761597,-0.121275,3,-0.00261059,11,-9.23629e-06,-3.91623,0.328908,0.179381,-0.845282,0.0761597,
2,0,0,1,0,3353.04,0.069016,0.0687411,-0.11448,3,-0.00364077,11,-7.86949e-06,-3.94127,0.45116,0.130774,-0.582209,0.0687411,
2,0,0,1,0,3360.53,0.0615251,0.0612302,-0.107959,3,-0.00462329,11,-6.61036e-06,-3.96674,0.336296,0.175441,-0.737073,0.0612302,
2,0,0,1,0,3368.02,0.0540342,0.0537427,-0.103507,3,-0.0055642,11,-5.56277e-06,-3.98503,0.503894,0.117088,-0.472242,0.0537427,
2,0,0,1,0,3375.52,0.0465432,0.0462467,-0.100875,3,-0.00647676,11,-4.66513e-06,-3.99622,0.815697,0.0723308,-0.284344,0.0462467,
2,0,0,1,0,3383.01,0.0390522,0.0387421,-0.0989766,3,-0.00737344,11,-3.83457e-06,-4.00447,1.21669,0.0484924,-0.1879,0.03874214,
2,0,0,1,0,3390.5,0.0315613,0.0312313,-0.0993811,3,-0.00826566,11,-3.10381e-06,-4.0027,-3.82114,-0.0154404,0.0599114,0.03123134,
2,0,0,1,0,3397.99,0.0240703,0.0238053,-0.100483,3,-0.00916296,11,-2.39202e-06,-3.99791,-1.23796,-0.0476591,0.187428,0.0238053,
2,0,0,1,0,3405.48,0.0165794,0.016285,-0.102881,3,-0.0100741,11,-1.67542e-06,-3.98766,-0.697255,-0.0846175,0.340109,0.016285,
2,0,0,1,0,3412.97,0.00908843,0.00879311,-0.106665,3,-0.0110064,11,-9.37919e-07,-3.97198,-0.708084,-0.0833235,0.346215,0.00879311,
2,0,0,1,0,3420.46,0.00159744,0.00123763,-0.111077,3,-0.0119695,11,-1.37471e-07,-3.95438, , , ,0.00123763,
2,0,0,1,0,3421.86,0.000199235,-0.000187815,-0.111491,3,-0.012153,11,2.09398e-08,-3.95276, , , ,-0.000187815,