File: Figure_codes/Fig_3-5/rawdata_trumpetplot_data/before 10th/20221101_1-115_002_TrumpetPlot_ParaChange_15_CV_C01_5.csv
mode,ox/red,error,control changes,counter inc.,time/s,control/V,Ewe/V,<I>/mA,cycle number,(Q-Qo)/C,I Range,P/W,log(|I|),Tafel slope mV/dec,alpha_eff,dI/d(E-IR),E-IR/V,
2,1,0,0,0,7375.87,2.44065e-05,-0.00091703,35.5521,6,0.0000000E+000,10,-3.26024e-05,-1.44913, , , ,-0.0009170305,
2,1,0,1,0,7375.88,0.0121015,0.0117336,34.4166,6,0.000512049,10,0.000403831,-1.46323,0.509659,0.115764,155.906,0.0117336,
2,1,0,1,0,7375.9,0.0249027,0.0245985,36.4567,6,0.00108014,10,0.000896778,-1.43822,0.616976,0.0956278,135.767,0.02459847,
2,1,0,1,0,7375.92,0.0377094,0.0373499,37.9335,6,0.00167602,10,0.00141681,-1.42098,0.885613,0.0666205,98.4938,0.0373499,
2,1,0,1,0,7375.93,0.0505051,0.050202,39.1094,6,0.00229247,10,0.00196337,-1.40772,0.948201,0.0622231,94.9997,0.050202,
2,1,0,1,0,7375.95,0.0633063,0.0629693,40.4433,6,0.0029285,10,0.00254668,-1.39315,0.771778,0.0764468,120.834,0.0629693,
2,1,0,1,0,7375.96,0.0761019,0.0757302,42.2626,6,0.00358968,10,0.00320056,-1.37404,0.57069,0.103384,170.927,0.0757302,
2,1,0,1,0,7375.98,0.0889087,0.0885548,44.8201,6,0.00428576,10,0.00396903,-1.34853,0.465801,0.126664,221.789,0.0885548,
2,1,0,1,0,7376,0.101702,0.101223,47.8996,6,0.00502708,10,0.00484856,-1.31967,0.408263,0.144515,270.749,0.101223,
2,1,0,1,0,7376.01,0.114506,0.114144,51.6572,6,0.0058237,10,0.00589639,-1.28687,0.397731,0.148341,299.052,0.1141445,
2,1,0,1,0,7376.03,0.127301,0.126957,55.6129,6,0.0066819,10,0.00706047,-1.25482,0.393944,0.149768,325.293,0.126957,
2,1,0,1,0,7376.04,0.140105,0.139741,59.9759,6,0.00760665,10,0.00838107,-1.22202,0.382381,0.154296,361.511,0.139741,
2,1,0,1,0,7376.06,0.152904,0.152562,64.8958,6,0.00860547,10,0.00990063,-1.18778,0.368782,0.159986,405.524,0.152562,
2,1,0,1,0,7376.08,0.165705,0.165364,70.4027,6,0.00968794,10,0.0116421,-1.15241,0.366578,0.160948,442.042,0.165364,
2,1,0,1,0,7376.09,0.178506,0.178142,76.0391,6,0.0108601,10,0.0135458,-1.11896,0.410113,0.143863,426.331,0.178142,
2,1,0,1,0,7376.11,0.191302,0.190942,81.1349,6,0.0121194,10,0.0154921,-1.09079,0.536854,0.109899,346.977,0.190942,
2,1,0,1,0,7376.12,0.204108,0.203752,84.3987,6,0.0134479,10,0.0171964,-1.07366,1.64199,0.035932,117.637,0.203752,
2,1,0,1,0,7376.14,0.216904,0.216594,83.4652,6,0.0147982,10,0.018078,-1.07849,-0.616206,-0.0957472,-308.802,0.216594,
2,1,0,1,0,7376.16,0.229705,0.229474,76.2391,6,0.0160837,10,0.0174949,-1.11782,-0.217183,-0.27166,-799.652,0.229474,
2,1,0,1,0,7376.17,0.242501,0.242247,63.7743,6,0.0172069,10,0.0154491,-1.19535,-0.139009,-0.424433,-1050.86,0.2422469,
2,1,0,1,0,7376.19,0.255308,0.255064,50.5149,6,0.018118,10,0.0128845,-1.29658,-0.123632,-0.477221,-944.307,0.255064,
2,1,0,1,0,7376.2,0.268101,0.267847,40.3299,6,0.0188385,10,0.0108022,-1.39437,-0.147682,-0.399507,-634.985,0.267847,
2,1,0,1,0,7376.22,0.280905,0.280621,34.124,6,0.0194291,10,0.0095759,-1.46694,-0.219466,-0.268835,-361.201,0.2806209,
2,1,0,1,0,7376.24,0.2937,0.293431,30.7205,6,0.0199448,10,0.00901434,-1.51257,-0.358983,-0.164353,-198.455,0.293431,
2,1,0,1,0,7376.25,0.298983,0.298897,26.4625,6,0.0202184,10,0.00790955,-1.57737,0.0150944,3.90873,2822.29,0.298897,
2,1,0,1,0,7376.26,0.286187,0.286015,0.694303,6,0.0204006,10,0.000198581,-3.15845,0.0478819,1.2322,1259.13,0.286015,
2,0,0,1,0,7376.28,0.273386,0.273104,-9.88775,6,0.0203145,10,-0.00270038,-2.0049,-0.0363083,-1.62497,554.904,0.273104,
2,0,0,1,0,7376.29,0.260585,0.260398,-14.8129,6,0.0201118,10,-0.00385726,-1.82936,-0.121087,-0.487251,275.292,0.260398,
2,0,0,1,0,7376.31,0.247783,0.247494,-17.4705,6,0.0198513,10,-0.00432385,-1.75769,-0.244613,-0.241197,163.217,0.247494,
2,0,0,1,0,7376.33,0.234982,0.234732,-19.2089,6,0.019557,10,-0.00450894,-1.7165,-0.375534,-0.15711,117.396,0.234732,
2,0,0,1,0,7376.34,0.222187,0.221916,-20.5808,6,0.0192383,10,-0.0045672,-1.68654,-0.455268,-0.129594,104.012,0.221916,
2,0,0,1,0,7376.36,0.20938,0.209077,-21.8941,6,0.0188983,10,-0.00457757,-1.65967,-0.475072,-0.124192,106.206,0.209077,
2,0,0,1,0,7376.37,0.196587,0.196318,-23.3359,6,0.0185364,10,-0.00458125,-1.63198,-0.436097,-0.135291,123.449,0.196318,
2,0,0,1,0,7376.39,0.183783,0.183474,-25.1206,6,0.0181491,10,-0.00460897,-1.59997,-0.36423,-0.161985,159.208,0.183474,
2,0,0,1,0,7376.41,0.170987,0.17071,-27.5258,6,0.0177288,10,-0.00469892,-1.56026,-0.285776,-0.206455,222.543,0.17071,
2,0,0,1,0,7376.42,0.158183,0.157922,-30.9461,6,0.0172624,10,-0.00488708,-1.50939,-0.222945,-0.264639,320.916,0.1579223,
2,0,0,1,0,7376.44,0.145385,0.145157,-35.7774,6,0.0167302,10,-0.00519334,-1.44639,-0.186645,-0.316108,443.093,0.145157,
2,0,0,1,0,7376.45,0.132584,0.132339,-42.2915,6,0.0161071,10,-0.00559681,-1.37375,-0.171077,-0.344874,570.25,0.132339,
2,0,0,1,0,7376.47,0.119782,0.119578,-50.1745,6,0.0153676,10,-0.00599976,-1.29952,-0.18088,-0.326184,637.402,0.119578,
2,0,0,1,0,7376.49,0.106987,0.106814,-58.4008,6,0.0144985,10,-0.00623801,-1.23358,-0.209407,-0.281748,640.266,0.106814,
2,0,0,1,0,7376.5,0.0941801,0.0939703,-66.1807,6,0.0134998,10,-0.00621902,-1.17927,-0.268312,-0.219893,566.18,0.0939703,
2,0,0,1,0,7376.52,0.0813844,0.0811828,-72.8642,6,0.012385,10,-0.00591532,-1.13749,-0.367801,-0.160413,454.26,0.0811828,
2,0,0,1,0,7376.53,0.0685832,0.0682999,-77.6417,6,0.0111774,10,-0.00530293,-1.1099,-0.632872,-0.0932258,281.32,0.0682999,
2,0,0,1,0,7376.55,0.0557876,0.0555093,-79.9336,6,0.00991276,10,-0.00443706,-1.09727,-2.59533,-0.0227331,70.6103,0.0555093,
2,0,0,1,0,7376.57,0.0429808,0.0426625,-79.5008,6,0.0086338,10,-0.0033917,-1.09963,1.45353,0.0405908,-125.515,0.0426625,
2,0,0,1,0,7376.58,0.030188,0.0299005,-77.033,6,0.00737997,10,-0.00230333,-1.11332,0.7522,0.0784366,-235.437,0.0299005,
2,0,0,1,0,7376.6,0.017384,0.0170696,-73.6706,6,0.0061739,10,-0.00125753,-1.13271,0.604209,0.0976484,-280.489,0.0170696,
2,0,0,1,0,7376.61,0.00458834,0.00425245,-69.7448,6,0.00502573,10,-0.000296586,-1.15649,0.479579,0.123025,-334.428,0.00425245,
2,0,0,1,0,7376.63,-0.00821564,-0.00859862,-64.9484,6,0.00394657,10,0.000558467,-1.18743,0.358808,0.164434,-416.043,-0.00859862,
2,0,0,1,0,7376.65,-0.0210196,-0.0213924,-59.4399,6,0.00295187,10,0.00127156,-1.22592,0.325415,0.181307,-420.786,-0.0213924,
2,0,0,1,0,7376.66,-0.0338153,-0.0341481,-54.6108,6,0.00204199,10,0.00186485,-1.26272,0.405075,0.145652,-311.512,-0.0341481,
2,0,0,1,0,7376.68,-0.0466193,-0.0469673,-51.5034,6,0.00119568,10,0.00241897,-1.28816,0.676265,0.0872439,-176.037,-0.0469673,
2,0,0,1,0,7376.69,-0.0594121,-0.0597717,-49.9862,6,0.000385487,10,0.00298776,-1.30115,1.66679,0.0353973,-69.2646,-0.0597717,
2,0,0,1,0,7376.71,-0.0722189,-0.0725433,-49.6435,6,-0.0004104,10,0.0036013,-1.30414,-30.1801,-0.00195493,3.79354,-0.0725433,
2,0,0,1,0,7376.73,-0.0850146,-0.0853138,-50.0384,6,-0.00120706,10,0.00426896,-1.3007,-2.0826,-0.0283299,55.3918,-0.0853138,
2,0,0,1,0,7376.74,-0.0978158,-0.0981309,-50.981,6,-0.00201479,10,0.00500281,-1.29259,-1.29042,-0.0457216,91.0682,-0.0981309,
2,0,0,1,0,7376.76,-0.110611,-0.110962,-52.3201,6,-0.00284108,10,0.00580553,-1.28133,-1.00279,-0.058836,120.297,-0.110962,
2,0,0,1,0,7376.77,-0.123418,-0.123751,-54.0627,6,-0.00369216,10,0.00669034,-1.2671,-0.836838,-0.0705035,148.878,-0.123751,
2,0,0,1,0,7376.79,-0.136214,-0.13656,-56.1091,6,-0.00457347,10,0.00766226,-1.25097,-0.770214,-0.0766021,167.798,-0.13656,
2,0,0,1,0,7376.81,-0.149015,-0.149308,-58.3868,6,-0.00548945,10,0.00871764,-1.23369,-0.731762,-0.0806273,183.709,-0.149308,
2,0,0,1,0,7376.82,-0.161816,-0.162112,-60.7867,6,-0.00644301,10,0.00985422,-1.21619,-0.727507,-0.0810988,192.399,-0.162112,
2,0,0,1,0,7376.84,-0.174615,-0.174922,-63.264,6,-0.00743578,10,0.0110663,-1.19884,-0.738581,-0.0798829,197.278,-0.174922,
2,0,0,1,0,7376.85,-0.187419,-0.187714,-65.8436,6,-0.00846893,10,0.0123598,-1.18149,-0.736268,-0.0801339,205.957,-0.187714,
2,0,0,1,0,7376.87,-0.199647,-0.199964,-68.4173,6,-0.0094963,10,0.013681,-1.16483,0.387717,0.152173,-392.674,-0.199964,
2,0,0,1,1,7376.88,-0.192535,-0.19301,-48.7354,6,-0.010087,10,0.0094064,-1.31216,-0.0496341,-1.1887,2273.89,-0.19301,
2,0,0,1,1,7376.89,-0.179739,-0.180158,-24.9839,6,-0.0106636,10,0.00450105,-1.60234,-0.0355811,-1.65819,1576.54,-0.180158,
2,0,0,1,1,7376.91,-0.166932,-0.167342,-7.45765,6,-0.0109152,10,0.00124797,-2.1274,-0.00714483,-8.25771,1207.42,-0.167342,
2,1,0,1,1,7376.93,-0.154139,-0.154603,6.10036,6,-0.0109203,10,-0.000943133,-2.21464,0.00770197,7.66037,943.086,-0.154603,
2,1,0,1,1,7376.94,-0.141335,-0.14185,16.9412,6,-0.0107318,10,-0.00240312,-1.77106,0.0489704,1.20481,762.276,-0.14185,
2,1,0,1,1,7376.96,-0.12854,-0.128948,25.7303,6,-0.0103869,10,-0.00331788,-1.58955,0.0958541,0.615519,607.587,-0.128948,
2,1,0,1,1,7376.97,-0.115736,-0.116131,32.6604,6,-0.00991692,10,-0.0037929,-1.48598,0.155088,0.380428,480.626,-0.116131,
2,1,0,1,1,7376.99,-0.102932,-0.103311,38.1059,6,-0.00934857,10,-0.00393676,-1.41901,0.2332,0.253002,374.215,-0.103311,
2,1,0,1,1,7377.01,-0.0901362,-0.0904726,42.3134,6,-0.00870324,10,-0.0038282,-1.37352,0.336194,0.175494,288.857,-0.0904726,
2,1,0,1,1,7377.02,-0.0773322,-0.0776831,45.5499,6,-0.00799872,10,-0.00353846,-1.34151,0.477836,0.123473,218.939,-0.0776831,
2,1,0,1,1,7377.04,-0.0645393,-0.0649221,47.9656,6,-0.0072494,10,-0.00311403,-1.31907,0.683289,0.0863471,161.325,-0.0649221,
2,1,0,1,1,7377.05,-0.0517325,-0.05207,49.7259,6,-0.00646692,10,-0.00258923,-1.30342,0.995839,0.0592466,114.795,-0.05207,
2,1,0,1,1,7377.07,-0.0389369,-0.0393536,50.9187,6,-0.00566099,10,-0.00200383,-1.29312,1.58893,0.037132,73.6991,-0.0393536,
2,1,0,1,1,7377.09,-0.0261357,-0.0264675,51.6148,6,-0.00483991,10,-0.00136612,-1.28723,3.20913,0.0183851,37.0002,-0.0264675,
2,1,0,1,1,7377.1,-0.01334,-0.0137045,51.8458,6,-0.00401143,10,-0.00071052,-1.28529,81.0552,0.000727899,1.4719,-0.01370448,
2,1,0,1,1,7377.12,-0.000774629,-0.00116676,51.6844,6,-0.00319804,10,-6.03031e-05,-1.28664, , , ,-0.00116676,
2,1,0,0,1,7377.12,-0.000125413,-0.000516197,51.6831,6,-0.0031567,10,-2.66787e-05,-1.28665, , , ,-0.000516197,