File: Figure_codes/Fig_3-5/rawdata_trumpetplot_data/before 10th/20221101_1-115_002_TrumpetPlot_ParaChange_15_CV_C01_4.csv
mode,ox/red,error,control changes,counter inc.,time/s,control/V,Ewe/V,<I>/mA,cycle number,(Q-Qo)/C,I Range,P/W,log(|I|),Tafel slope mV/dec,alpha_eff,dI/d(E-IR),E-IR/V,
2,1,0,0,0,6144.24,2.44065e-05,-0.000726157,34.0123,5,0.0000000E+000,10,-2.46983e-05,-1.46836, , , ,-0.000726157,
2,1,0,1,0,6144.26,0.0121015,0.0117612,33.5658,5,0.000496426,10,0.000394773,-1.4741,0.454709,0.129753,170.152,0.0117612,
2,1,0,1,0,6144.27,0.0249027,0.0245603,35.6591,5,0.00105148,10,0.000875799,-1.44783,0.589225,0.100132,139.059,0.0245603,
2,1,0,1,0,6144.29,0.0377094,0.0373923,37.1418,5,0.00163483,10,0.00138881,-1.43014,0.892076,0.0661379,95.736,0.0373923,
2,1,0,1,0,6144.3,0.0505051,0.0502158,38.2598,5,0.00223833,10,0.00192125,-1.41726,1.00778,0.0585445,87.4242,0.05021577,
2,1,0,1,0,6144.32,0.0633063,0.0629534,39.4895,5,0.00285995,10,0.002486,-1.40352,0.828378,0.0712235,109.86,0.0629534,
2,1,0,1,0,6144.34,0.0761019,0.0756793,41.1348,5,0.00350438,10,0.00311305,-1.38579,0.609514,0.0967985,155.714,0.07567931,
2,1,0,1,0,6144.35,0.0889087,0.0885452,43.5055,5,0.00418078,10,0.00385221,-1.36146,0.470839,0.125308,213.081,0.0885452,
2,1,0,1,0,6144.37,0.101702,0.101317,46.4755,5,0.00490047,10,0.00470875,-1.33278,0.421493,0.139979,254.303,0.101317,
2,1,0,1,0,6144.38,0.114506,0.114151,50.1085,5,0.00567243,10,0.00571993,-1.30009,0.385091,0.153211,299.532,0.114151,
2,1,0,1,0,6144.4,0.127301,0.126972,54.0468,5,0.00650571,10,0.00686245,-1.26723,0.388313,0.151939,320.641,0.126972,
2,1,0,1,0,6144.42,0.140105,0.139767,58.3715,5,0.00740495,10,0.00815841,-1.2338,0.375568,0.157095,358.117,0.1397671,
2,1,0,1,0,6144.43,0.152904,0.152546,63.2493,5,0.0083775,10,0.00964843,-1.19894,0.357728,0.16493,407.427,0.152546,
2,1,0,1,0,6144.45,0.165705,0.165357,68.7799,5,0.00943368,10,0.0113732,-1.16254,0.350863,0.168157,451.431,0.165357,
2,1,0,1,0,6144.46,0.178506,0.178152,74.6474,5,0.0105817,10,0.0132986,-1.12699,0.381181,0.154782,450.434,0.178152,
2,1,0,1,0,6144.48,0.191302,0.190915,80.1489,5,0.0118218,10,0.0153016,-1.0961,0.475752,0.124014,386.901,0.190915,
2,1,0,1,0,6144.5,0.204108,0.203739,84.1562,5,0.0131398,10,0.0171459,-1.07491,0.985466,0.0598702,195.552,0.2037393,
2,1,0,1,0,6144.51,0.216904,0.216635,84.4903,5,0.0144957,10,0.0183036,-1.07319,-0.992009,-0.0594753,-194.297,0.2166349,
2,1,0,1,0,6144.53,0.229705,0.229487,78.714,5,0.0158099,10,0.0180638,-1.10395,-0.253959,-0.232321,-705.859,0.229487,
2,1,0,1,0,6144.54,0.242501,0.242252,66.9799,5,0.0169802,10,0.016226,-1.17406,-0.147456,-0.400119,-1038.9,0.242252,
2,1,0,1,0,6144.56,0.255308,0.255065,53.4837,5,0.0179413,10,0.0136418,-1.27178,-0.125934,-0.4685,-979.983,0.255065,
2,1,0,1,0,6144.58,0.268101,0.267833,42.7138,5,0.0187043,10,0.0114402,-1.36943,-0.146777,-0.401971,-676.238,0.267833,
2,1,0,1,0,6144.59,0.280905,0.280619,36.0356,5,0.019329,10,0.0101123,-1.44327,-0.21446,-0.27511,-390.457,0.280619,
2,1,0,1,0,6144.61,0.2937,0.293435,32.3092,5,0.0198728,10,0.00948065,-1.49067,-0.340183,-0.173436,-220.395,0.293435,
2,1,0,1,0,6144.62,0.298983,0.298921,27.962,5,0.0201604,10,0.00835844,-1.55343,0.0164133,3.59464,2822.52,0.298921,
2,1,0,1,0,6144.63,0.286187,0.285991,2.1841,5,0.0203665,10,0.000624633,-2.66073,0.0280714,2.10178,1253.91,0.285991,
2,0,0,1,0,6144.65,0.273386,0.273097,-8.42586,5,0.0203043,10,-0.00230108,-2.07439,-0.0294079,-2.00626,561.319,0.273097,
2,0,0,1,0,6144.67,0.260585,0.260328,-13.4489,5,0.0201244,10,-0.00350111,-1.87131,-0.104641,-0.563834,288.419,0.260328,
2,0,0,1,0,6144.68,0.247783,0.247525,-16.2797,5,0.0198844,10,-0.00402963,-1.78835,-0.210658,-0.280075,176.532,0.247525,
2,0,0,1,0,6144.7,0.234982,0.234708,-18.1911,5,0.0196076,10,-0.00426961,-1.74014,-0.317864,-0.185614,131.424,0.234708,
2,0,0,1,0,6144.71,0.222187,0.221916,-19.7564,5,0.0193035,10,-0.00438426,-1.70429,-0.387843,-0.152123,117.169,0.221916,
2,0,0,1,0,6144.73,0.20938,0.209091,-21.2569,5,0.0189753,10,-0.00444464,-1.6725,-0.404495,-0.145861,121,0.209091,
2,0,0,1,0,6144.75,0.196587,0.196308,-22.8798,5,0.0186223,10,-0.00449149,-1.64055,-0.381269,-0.154746,138.369,0.196308,
2,0,0,1,0,6144.76,0.183783,0.183554,-24.8419,5,0.0182409,10,-0.00455984,-1.60482,-0.32466,-0.181729,176.778,0.183554,
2,0,0,1,0,6144.78,0.170987,0.170682,-27.4662,5,0.017823,10,-0.00468798,-1.5612,-0.263634,-0.223795,240.958,0.170682,
2,0,0,1,0,6144.79,0.158183,0.15788,-31.1612,5,0.0173551,10,-0.00491973,-1.50639,-0.212162,-0.278089,339.471,0.1578799,
2,0,0,1,0,6144.81,0.145385,0.1451,-36.2541,5,0.0168174,10,-0.00526046,-1.44064,-0.181749,-0.324624,460.654,0.1451,
2,0,0,1,0,6144.83,0.132584,0.132332,-42.9875,5,0.0161851,10,-0.0056886,-1.36666,-0.16953,-0.34802,584.278,0.132332,
2,0,0,1,0,6144.84,0.119783,0.119529,-50.9472,5,0.0154338,10,-0.00608968,-1.29288,-0.183081,-0.322261,639.142,0.119529,
2,0,0,1,0,6144.86,0.106987,0.106814,-59.1602,5,0.0145523,10,-0.00631913,-1.22797,-0.212952,-0.277057,637.764,0.106814,
2,0,0,1,0,6144.87,0.0941801,0.094019,-66.9122,5,0.0135414,10,-0.00629102,-1.17449,-0.272953,-0.216155,562.782,0.09401904,
2,0,0,1,0,6144.89,0.0813844,0.0811733,-73.5275,5,0.0124154,10,-0.00596847,-1.13355,-0.378875,-0.155724,444.96,0.0811733,
2,0,0,1,0,6144.91,0.0685832,0.0683158,-78.1316,5,0.0111985,10,-0.00533762,-1.10717,-0.678779,-0.0869207,263.921,0.0683158,
2,0,0,1,0,6144.92,0.0557876,0.0555337,-80.1091,5,0.00992831,10,-0.00444875,-1.09632,-4.73767,-0.0124534,38.7592,0.0555337,
2,0,0,1,0,6144.94,0.0429808,0.0427123,-79.2174,5,0.00865014,10,-0.00338356,-1.10118,1.12936,0.052242,-160.987,0.0427123,
2,0,0,1,0,6144.95,0.030188,0.0298963,-76.3303,5,0.00740437,10,-0.00228199,-1.1173,0.670539,0.0879889,-261.824,0.0298963,
2,0,0,1,0,6144.97,0.017384,0.0171088,-72.753,5,0.00621144,10,-0.00124472,-1.13815,0.568289,0.103821,-294.477,0.0171088,
2,0,0,1,0,6144.99,0.00458834,0.00430229,-68.6249,5,0.00507956,10,-0.000295244,-1.16352,0.447714,0.131781,-352.352,0.00430229,
2,0,0,1,0,6145,-0.00821564,-0.00857317,-63.5541,5,0.00402066,10,0.00054486,-1.19686,0.336052,0.175568,-434.791,-0.008573168,
2,0,0,1,0,6145.02,-0.0210196,-0.0213543,-57.9585,5,0.0030494,10,0.00123766,-1.23688,0.328464,0.179624,-407.12,-0.0213543,
2,0,0,1,0,6145.03,-0.0338153,-0.0341597,-53.4972,5,0.00216038,10,0.00182745,-1.27167,0.444207,0.132821,-278.401,-0.0341597,
2,0,0,1,0,6145.05,-0.0466193,-0.0469557,-50.8529,5,0.00132812,10,0.00238783,-1.29368,0.801612,0.0736017,-146.518,-0.0469557,
2,0,0,1,0,6145.07,-0.0594121,-0.0597367,-49.643,5,0.000525868,10,0.00296551,-1.30414,2.41892,0.024391,-47.379,-0.0597367,
2,0,0,1,0,6145.08,-0.0722189,-0.072539,-49.4672,5,-0.000266196,10,0.00358831,-1.30568,-7.37621,-0.00799868,15.4735,-0.072539,
2,0,0,1,0,6145.1,-0.0850146,-0.0853148,-49.9674,5,-0.00106128,10,0.00426296,-1.30131,-1.95782,-0.0301355,58.8557,-0.0853148,
2,0,0,1,0,6145.11,-0.0978158,-0.0981479,-50.9569,5,-0.00186843,10,0.00500131,-1.2928,-1.28354,-0.0459665,91.4949,-0.0981479,
2,0,0,1,0,6145.13,-0.110611,-0.110976,-52.3035,5,-0.00269424,10,0.00580441,-1.28147,-1.01976,-0.0578566,118.189,-0.1109756,
2,0,0,1,0,6145.15,-0.123418,-0.123722,-54.0099,5,-0.00354448,10,0.00668219,-1.26753,-0.845709,-0.069764,147.126,-0.1237217,
2,0,0,1,0,6145.16,-0.136214,-0.136539,-56.0054,5,-0.0044245,10,0.00764691,-1.25177,-0.774631,-0.0761653,166.59,-0.136539,
2,0,0,1,0,6145.18,-0.149015,-0.149311,-58.2563,5,-0.00533885,10,0.00869833,-1.23466,-0.732235,-0.0805752,183.283,-0.149311,
2,0,0,1,0,6145.19,-0.161816,-0.162158,-60.6682,5,-0.00629051,10,0.00983785,-1.21704,-0.730989,-0.0807126,191.121,-0.162158,
2,0,0,1,0,6145.21,-0.174615,-0.174903,-63.1659,5,-0.00728135,10,0.0110479,-1.19952,-0.734295,-0.0803492,198.056,-0.1749033,
2,0,0,1,0,6145.23,-0.187419,-0.187732,-65.7574,5,-0.00831279,10,0.0123448,-1.18206,-0.729205,-0.08091,207.641,-0.187732,
2,0,0,1,0,6145.24,-0.199647,-0.199969,-68.3524,5,-0.00933892,10,0.0136684,-1.16525,0.398631,0.148007,-381.644,-0.199969,
2,0,0,1,1,6145.25,-0.192535,-0.19299,-48.8463,5,-0.00992999,10,0.00942683,-1.31117,-0.0499536,-1.1811,2262.01,-0.1929896,
2,0,0,1,1,6145.27,-0.179739,-0.180137,-25.1077,5,-0.0105084,10,0.00452284,-1.60019,-0.0356724,-1.65394,1579.53,-0.180137,
2,0,0,1,1,6145.28,-0.166932,-0.167338,-7.55835,5,-0.0107617,10,0.0012648,-2.12157,-0.0079165,-7.45279,1200.54,-0.167338,
2,1,0,1,1,6145.3,-0.154139,-0.154606,5.98793,5,-0.0107687,10,-0.000925769,-2.22272,0.00861196,6.85094,940.357,-0.154606,
2,1,0,1,1,6145.31,-0.141335,-0.141803,16.763,5,-0.0105827,10,-0.00237704,-1.77565,0.0486651,1.21237,758.071,-0.1418027,
2,1,0,1,1,6145.33,-0.12854,-0.128983,25.4418,5,-0.0102414,10,-0.00328157,-1.59445,0.0963192,0.612547,598.115,-0.128983,
2,1,0,1,1,6145.35,-0.115736,-0.116122,32.2394,5,-0.00977693,10,-0.0037437,-1.49161,0.157026,0.375733,468.747,-0.116122,
2,1,0,1,1,6145.36,-0.102932,-0.103293,37.547,5,-0.00921638,10,-0.00387834,-1.42542,0.237262,0.24867,362.239,-0.103293,
2,1,0,1,1,6145.38,-0.0901362,-0.0905257,41.6023,5,-0.00858145,10,-0.00376607,-1.38088,0.343925,0.171549,277.459,-0.0905257,
2,1,0,1,1,6145.39,-0.0773322,-0.077699,44.6798,5,-0.00788978,10,-0.00347158,-1.34989,0.495144,0.119157,207.213,-0.077699,
2,1,0,1,1,6145.41,-0.0645393,-0.0649253,46.9301,5,-0.0071557,10,-0.00304695,-1.32855,0.712249,0.0828362,151.498,-0.0649253,
2,1,0,1,1,6145.43,-0.0517325,-0.0521071,48.5838,5,-0.00639051,10,-0.00253156,-1.31351,1.04276,0.0565804,107.145,-0.0521071,
2,1,0,1,1,6145.44,-0.0389369,-0.0392985,49.7128,5,-0.00560339,10,-0.00195364,-1.30353,1.68859,0.0349404,67.6899,-0.03929846,
2,1,0,1,1,6145.46,-0.0261357,-0.0264919,50.3569,5,-0.00480225,10,-0.00133405,-1.29794,3.31383,0.0178042,34.9504,-0.0264919,
2,1,0,1,1,6145.47,-0.01334,-0.0137193,50.5768,5,-0.00399416,10,-0.000693879,-1.29605,43.9111,0.00134362,2.65025,-0.0137193,
2,1,0,1,1,6145.49,-0.000774629,-0.00111904,50.4338,5,-0.00320062,10,-5.64373e-05,-1.29728, , , ,-0.00111904,
2,1,0,0,1,6145.49,-0.000125413,-0.000592546,50.4359,5,-0.00316027,10,-2.98856e-05,-1.29726, , , ,-0.000592546,