File: Figure_codes/Fig_3-5/rawdata_trumpetplot_data/before 10th/20221101_1-115_002_TrumpetPlot_ParaChange_13_CV_C01.mpt
EC-Lab ASCII FILE
Nb header lines : 68

Cyclic Voltammetry

Run on channel : 1 (SN 65296)
User :
CE vs. WE compliance from -10 V to 10 V
Electrode connection : standard
Potential control : Ewe
Ewe ctrl range : min = -1.00 V, max = 1.00 V
Safety Limits :
	Do not start on E overload
Acquisition started on : 11/08/2022 17:30:03.488
Loaded Setting File :  NONE
Saved on :
	File : 20221101_1-115_002_TrumpetPlot_ParaChange_13_CV_C01.mpr
	Directory : C:\Users\NakamuraT\Documents\EC-Lab\Data\Yatsuzuka\20221108_1-115_001_TrumpetPlot\
	Host : 192.109.209.100
Device : SP-50e (SN .003219)
Address : 192.109.209.128
EC-Lab for windows v11.43 (software)
Internet server v11.40 (firmware)
Command interpretor v11.40 (firmware)
Electrode material : Au/Pd
Initial state :
Electrolyte : NaCl (0.2M)
Comments : Fe(CN)63-/Fe(CN)64- 5.10-3 M
Reference electrode : SCE Saturated Calomel Electrode (0.241 V)
Electrode surface area : 0.001 cm2
Characteristic mass : 0.001 g
Equivalent Weight : 0.000 g/eq.
Density : 0.000 g/cm3
Volume (V) : 0.001 cm3
Cycle Definition : Charge/Discharge alternance
Ei (V)              0.000
vs.                 Ref
dE/dt               400.000
dE/dt unit          mV/s
E1 (V)              0.300
vs.                 Ref
Step percent        50
N                   10
E range min (V)     -1.000
E range max (V)     1.000
I Range             100 mA
I Range min         Unset
I Range max         Unset
I Range init        Unset
Bandwidth           5
E2 (V)              -0.100
vs.                 Ref
nc cycles           0
Reverse Scan        1
Ef (V)              0.000
vs.                 Ref

Number of loops : 8
Loop 0 from point number 0 to 1008
Loop 1 from point number 1009 to 2017
Loop 2 from point number 2018 to 3026
Loop 3 from point number 3027 to 4035
Loop 4 from point number 4036 to 5044
Loop 5 from point number 5045 to 6053
Loop 6 from point number 6054 to 7062
Loop 7 from point number 7063 to 8071

mode	ox/red	error	control changes	counter inc.	time/s	control/V	Ewe/V	<I>/mA	cycle number	(Q-Qo)/C	I Range	P/W
2	1	0	1	0	1214.19	2.44065e-05	-0.000687983	11.7849	1	0.0000000E+000	10	-8.10778e-06
2	1	0	1	0	1214.31	0.0468678	0.0465733	20.7187	1	0.00221837	10	0.000964936
2	1	0	1	0	1214.43	0.0940608	0.0937317	24.5796	1	0.0048055	10	0.00230389
2	1	0	1	0	1214.55	0.141265	0.140964	37.6483	1	0.00836886	10	0.00530707
2	1	0	1	0	1214.66	0.188466	0.188153	56.7164	1	0.0141093	10	0.0106714
2	1	0	1	0	1214.78	0.235659	0.235386	18.2743	1	0.0187272	10	0.00430151
2	1	0	1	0	1214.9	0.282863	0.282547	14.7199	1	0.0205516	10	0.00415906
2	0	0	1	0	1215.01	0.272307	0.272014	-8.78929	1	0.0209114	10	-0.0023908
2	0	0	1	0	1215.13	0.225102	0.224802	-11.7305	1	0.0197	10	-0.00263704
2	0	0	1	0	1215.25	0.177904	0.177616	-17.7919	1	0.0180316	10	-0.00316013
2	0	0	1	0	1215.37	0.130705	0.130457	-39.2383	1	0.0148641	10	-0.0051189
2	0	0	1	0	1215.48	0.0835041	0.083222	-52.203	1	0.0090012	10	-0.00434444
2	0	0	1	0	1215.6	0.0363	0.0359883	-27.8497	1	0.00438122	10	-0.00100226
2	0	0	1	0	1215.72	-0.010893	-0.0112624	-22.8279	1	0.00158003	10	0.000257096
2	0	0	1	0	1215.84	-0.0580943	-0.0584335	-26.0782	1	-0.00129118	10	0.00152384
2	0	0	1	1	1215.95	-0.0970583	-0.0974978	-20.2654	1	-0.00441357	10	0.00197583
2	1	0	1	1	1216.07	-0.0498542	-0.0502323	22.3632	1	-0.00317511	10	-0.00112336
2	1	0	1	1	1216.19	-0.00265292	-0.00303784	22.6081	1	-0.000450348	10	-6.86798e-05
2	1	0	1	0	2445.93	0.0420625	0.0417474	20.97	2	0.00198398	10	0.000875441
2	1	0	1	0	2446.04	0.0892666	0.088927	25.2224	2	0.0046216	10	0.00224296
2	1	0	1	0	2446.16	0.13646	0.136108	37.5886	2	0.00824946	10	0.00511609
2	1	0	1	0	2446.28	0.183664	0.183352	56.3133	2	0.0139103	10	0.0103252
2	1	0	1	0	2446.4	0.230865	0.230624	18.2852	2	0.0186029	10	0.00421701
2	1	0	1	0	2446.52	0.278069	0.277793	14.7598	2	0.0204113	10	0.00410015
2	0	0	1	0	2446.63	0.277104	0.276808	-8.55088	2	0.0210299	10	-0.00236695
2	0	0	1	0	2446.75	0.229908	0.229612	-11.3608	2	0.0198479	10	-0.00260859
2	0	0	1	0	2446.86	0.182704	0.18242	-16.4293	2	0.0182659	10	-0.00299704
2	0	0	1	0	2446.98	0.1355	0.135288	-36.0606	2	0.0153883	10	-0.00487856
2	0	0	1	0	2447.1	0.0883066	0.0880352	-53.4083	2	0.00973169	10	-0.00470181
2	0	0	1	0	2447.22	0.0411053	0.040793	-31.2689	2	0.0047182	10	-0.00127555
2	0	0	1	0	2447.34	-0.00609875	-0.00644387	-22.723	2	0.00175604	10	0.000146424
2	0	0	1	0	2447.45	-0.0532918	-0.0536214	-25.6875	2	-0.00107763	10	0.0013774
2	0	0	0	0	2447.57	-0.0999548	-0.100305	-30.2021	2	-0.00431993	10	0.00302942
2	1	0	1	1	2447.68	-0.0546596	-0.0550052	22.1857	2	-0.00345505	10	-0.00122033
2	1	0	1	1	2447.8	-0.00745545	-0.0078171	22.9195	2	-0.000703949	10	-0.000179164
2	1	0	1	0	3677.54	0.0372655	0.0369448	20.0839	3	0.00165991	10	0.000741997
2	1	0	1	0	3677.66	0.0844613	0.084135	24.0806	3	0.00420178	10	0.00202602
2	1	0	1	0	3677.78	0.131665	0.131336	34.4666	3	0.00761466	10	0.0045267
2	1	0	1	0	3677.9	0.178869	0.17853	51.5934	3	0.0126883	10	0.00921098
2	1	0	1	0	3678.01	0.226062	0.225843	24.3453	3	0.0178168	10	0.00549823
2	1	0	1	0	3678.13	0.273264	0.272963	15.3851	3	0.0198876	10	0.00419955
2	0	0	1	0	3678.24	0.281903	0.281657	-6.39901	3	0.0208805	10	-0.00180232
2	0	0	1	0	3678.36	0.234702	0.23444	-10.4729	3	0.0198298	10	-0.00245526
2	0	0	1	0	3678.48	0.187509	0.187215	-14.4484	3	0.0183939	10	-0.00270497
2	0	0	1	0	3678.6	0.140305	0.140024	-29.1812	3	0.0160101	10	-0.00408607
2	0	0	1	0	3678.72	0.0931008	0.0928494	-49.726	3	0.011171	10	-0.00461703
2	0	0	1	0	3678.83	0.0459051	0.0456104	-36.6015	3	0.00587408	10	-0.00166941
2	0	0	1	0	3678.95	-0.00129345	-0.00161054	-23.7884	3	0.00245106	10	3.83122e-05
2	0	0	1	0	3679.07	-0.0484976	-0.0488103	-24.7964	3	-0.000356347	10	0.00121032
2	0	0	1	0	3679.19	-0.0956989	-0.0960196	-28.6567	3	-0.00349083	10	0.00275161
2	1	0	1	1	3679.3	-0.0594538	-0.0598682	18.2291	3	-0.003468	10	-0.00109134
2	1	0	1	1	3679.42	-0.0122552	-0.012625	22.0281	3	-0.000962186	10	-0.000278104
2	1	0	1	0	4909.16	0.0324658	0.0321751	19.6766	4	0.00140504	10	0.000633095
2	1	0	1	0	4909.28	0.0796671	0.079308	23.8087	4	0.00391617	10	0.00188822
2	1	0	1	0	4909.39	0.12686	0.126584	33.4537	4	0.00726159	10	0.00423471
2	1	0	1	0	4909.51	0.174064	0.17373	48.9595	4	0.0121033	10	0.00850572
2	1	0	1	0	4909.63	0.221268	0.221012	26.9822	4	0.0172453	10	0.0059634
2	1	0	1	0	4909.75	0.268461	0.268173	16.1532	4	0.0194806	10	0.00433185
2	0	0	1	0	4909.86	0.286709	0.286464	-3.99827	4	0.0207924	10	-0.00114536
2	0	0	1	0	4909.98	0.239505	0.239237	-9.86577	4	0.0198529	10	-0.00236026
2	0	0	1	0	4910.1	0.192303	0.192021	-13.3694	4	0.0185031	10	-0.0025672
2	0	0	1	0	4910.21	0.145105	0.144861	-25.1601	4	0.016395	10	-0.00364473
2	0	0	1	0	4910.33	0.0979061	0.0976181	-46.6979	4	0.0120561	10	-0.00455856
2	0	0	1	0	4910.45	0.0507021	0.0504289	-38.9766	4	0.00670892	10	-0.00196555
2	0	0	1	0	4910.57	0.00350076	0.00318144	-25.3199	4	0.0029642	10	-8.05537e-05
2	0	0	1	0	4910.69	-0.0436922	-0.0440194	-24.608	4	0.000109055	10	0.00108323
2	0	0	1	0	4910.8	-0.0908963	-0.091217	-28.0643	4	-0.00298051	10	0.00255995
2	1	0	1	1	4910.92	-0.0642591	-0.0646454	15.7719	4	-0.00356577	10	-0.00101958
2	1	0	1	1	4911.03	-0.017055	-0.0174053	21.6732	4	-0.00118769	10	-0.000377228
2	1	0	1	0	6140.77	0.0276605	0.0272993	19.1421	5	0.00116711	10	0.000522566
2	1	0	1	0	6140.89	0.0748645	0.0745659	23.4128	5	0.00364001	10	0.00174579
2	1	0	1	0	6141.01	0.122066	0.121744	32.4529	5	0.00690932	10	0.00395096
2	1	0	1	0	6141.13	0.169259	0.168981	46.6575	5	0.011534	10	0.00788425
2	1	0	1	0	6141.25	0.216463	0.216184	30.9207	5	0.0167867	10	0.00668457
2	1	0	1	0	6141.36	0.263667	0.26339	16.7104	5	0.0192387	10	0.00440137
2	1	0	1	0	6141.48	0.291503	0.29126	-0.258897	5	0.0207996	10	-7.54062e-05
2	0	0	1	0	6141.59	0.244304	0.243985	-9.52991	5	0.0199734	10	-0.00232515
2	0	0	1	0	6141.71	0.197106	0.196846	-12.6568	5	0.0186755	10	-0.00249144
2	0	0	1	0	6141.83	0.149904	0.149655	-21.9186	5	0.0167671	10	-0.00328024
2	0	0	1	0	6141.95	0.1027	0.102483	-43.3286	5	0.0128931	10	-0.00444045
2	0	0	1	0	6142.07	0.0555074	0.0551848	-41.0456	5	0.00758076	10	-0.0022651
2	0	0	1	0	6142.18	0.00830329	0.00797872	-27.8111	5	0.00350203	10	-0.000221897
2	0	0	1	0	6142.3	-0.038898	-0.0392465	-24.4523	5	0.000550575	10	0.000959668
2	0	0	1	0	6142.42	-0.086091	-0.0864282	-27.436	5	-0.00248918	10	0.00237124
2	1	0	1	1	6142.53	-0.0690533	-0.0694596	12.3291	5	-0.00364925	10	-0.000856372
2	1	0	1	1	6142.65	-0.0218603	-0.0222142	21.2452	5	-0.00145315	10	-0.000471947
2	1	0	1	0	7372.39	0.0228663	0.0225689	18.7993	6	0.000936655	10	0.000424279
2	1	0	1	0	7372.51	0.0700592	0.0697251	23.3339	6	0.00340096	10	0.00162696
2	1	0	1	0	7372.63	0.117263	0.116934	32.2156	6	0.00665449	10	0.00376711
2	1	0	1	0	7372.74	0.164465	0.164164	45.7759	6	0.011207	10	0.00751475
2	1	0	1	0	7372.86	0.211669	0.211374	32.3802	6	0.0165	10	0.00684433
2	1	0	1	0	7372.98	0.258862	0.258575	16.1645	6	0.0189501	10	0.00417973
2	1	0	1	0	7373.09	0.296305	0.296069	5.52221	6	0.0206192	10	0.00163495
2	0	0	1	0	7373.21	0.249104	0.248785	-9.48599	6	0.0198804	10	-0.00235998
2	0	0	1	0	7373.33	0.2019	0.201602	-12.2754	6	0.0186029	10	-0.00247475
2	0	0	1	0	7373.45	0.154707	0.154434	-19.7322	6	0.0168212	10	-0.00304731
2	0	0	1	0	7373.57	0.107506	0.107279	-40.9101	6	0.0132839	10	-0.00438881
2	0	0	1	0	7373.68	0.0603016	0.0599715	-42.9022	6	0.00798513	10	-0.00257291
2	0	0	1	0	7373.8	0.0131086	0.0127643	-29.7466	6	0.00368096	10	-0.000379695
2	0	0	1	0	7373.92	-0.0340955	-0.0344079	-24.114	6	0.000668521	10	0.000829711
2	0	0	1	0	7374.04	-0.0812968	-0.0816405	-26.9639	6	-0.00231813	10	0.00220135
2	1	0	1	1	7374.15	-0.0738558	-0.0742929	9.88069	6	-0.00392372	10	-0.000734065
2	1	0	1	1	7374.27	-0.0266545	-0.0269956	21.6785	6	-0.00178624	10	-0.000585224
2	1	0	1	0	8604.01	0.0180637	0.0177217	17.4497	7	0.000696773	10	0.000309239
2	1	0	1	0	8604.13	0.065265	0.0649119	22.3306	7	0.00304622	10	0.00144952
2	1	0	1	0	8604.24	0.112469	0.112112	30.5703	7	0.00614614	10	0.00342729
2	1	0	1	0	8604.36	0.159662	0.159382	42.6705	7	0.0104134	10	0.00680093
2	1	0	1	0	8604.48	0.206863	0.206582	35.1714	7	0.0155989	10	0.00726579
2	1	0	1	0	8604.6	0.254067	0.253753	16.9409	7	0.0182675	10	0.00429882
2	1	0	0	0	8604.71	0.300012	0.299708	14.8524	7	0.0200746	10	0.0044514
2	0	0	1	0	8604.83	0.253907	0.2536	-8.59678	7	0.0196267	10	-0.00218014
2	0	0	1	0	8604.95	0.206705	0.206408	-11.4102	7	0.0184437	10	-0.00235515
2	0	0	1	0	8605.06	0.159501	0.159188	-17.1653	7	0.0168338	10	-0.00273252
2	0	0	1	0	8605.18	0.112308	0.112089	-36.1795	7	0.0137874	10	-0.00405534
2	0	0	1	0	8605.3	0.0651069	0.0647762	-42.7287	7	0.00882665	10	-0.0027678
2	0	0	1	0	8605.42	0.0179028	0.0176051	-31.9596	7	0.00440216	10	-0.000562651
2	0	0	1	0	8605.54	-0.0293013	-0.0296625	-24.2092	7	0.00123515	10	0.000718106
2	0	0	1	0	8605.65	-0.0764943	-0.0767966	-26.0884	7	-0.00169414	10	0.0020035
2	1	0	1	1	8605.77	-0.0786556	-0.0790722	4.82194	7	-0.0037239	10	-0.000381281
2	1	0	1	1	8605.88	-0.031457	-0.03183	20.1561	7	-0.00193135	10	-0.00064157
2	1	0	1	0	9835.62	0.0132695	0.0129117	16.8669	8	0.000500682	10	0.000217781
2	1	0	1	0	9835.74	0.0604625	0.0601062	22.5022	8	0.00285591	10	0.00135252
2	1	0	1	0	9835.86	0.107664	0.107343	30.5687	8	0.00596339	10	0.00328134
2	1	0	1	0	9835.98	0.154868	0.154537	42.2102	8	0.0102003	10	0.00652306
2	1	0	1	0	9836.1	0.202061	0.201754	37.6587	8	0.0154466	10	0.0075978
2	1	0	1	0	9836.21	0.249262	0.248907	16.95	8	0.0182613	10	0.00421898
2	1	0	1	0	9836.33	0.296466	0.296168	14.7535	8	0.0201065	10	0.00436951
2	0	0	1	0	9836.44	0.258701	0.258408	-8.82925	8	0.0198356	10	-0.00228154
2	0	0	1	0	9836.56	0.211505	0.2112	-11.4639	8	0.0186329	10	-0.00242118
2	0	0	1	0	9836.68	0.164306	0.164032	-16.185	8	0.0170587	10	-0.00265486
2	0	0	1	0	9836.8	0.117102	0.116844	-33.9504	8	0.0142488	10	-0.00396691
2	0	0	1	0	9836.92	0.0699011	0.0695809	-44.1257	8	0.00936481	10	-0.0030703
2	0	0	1	0	9837.03	0.0227081	0.0223854	-34.1844	8	0.00471727	10	-0.000765232
2	0	0	1	0	9837.15	-0.024496	-0.0248748	-24.6184	8	0.00136047	10	0.000612379
2	0	0	1	0	9837.27	-0.0717001	-0.0720512	-25.9321	8	-0.00156992	10	0.00186844
2	1	0	1	1	9837.38	-0.0834553	-0.0838525	0.670063	8	-0.00395885	10	-5.61865e-05
2	1	0	1	1	9837.5	-0.0362512	-0.0366188	20.551	8	-0.00230287	10	-0.000752555
2	1	0	1	1	9837.59	2.44065e-05	-0.000344411	21.5562	8	-0.000360918	10	-7.4242e-06