File: Figure_codes/Fig_3-5/rawdata_trumpetplot_data/before 10th/20221101_1-115_002_TrumpetPlot_ParaChange_12_CV_C01_5.csv
mode,ox/red,error,control changes,counter inc.,time/s,control/V,Ewe/V,<I>/mA,cycle number,(Q-Qo)/C,I Range,P/W,log(|I|),Tafel slope mV/dec,alpha_eff,dI/d(E-IR),E-IR/V,
2,1,0,0,0,7368.23,2.44065e-05,-0.000344411,7.74988,6,0.0000000E+000,10,-2.66914e-06,-2.11071, , , ,-0.000344411,
2,1,0,1,0,7368.28,0.00977853,0.00951332,9.45255,6,0.000413317,10,8.99251e-05,-2.02445,0.160606,0.367359,134.849,0.00951332,
2,1,0,1,0,7368.33,0.0197755,0.0194483,10.1956,6,0.00090822,10,0.000198288,-1.99159,0.602226,0.0979699,38.9838,0.0194483,
2,1,0,1,0,7368.38,0.0297726,0.029457,10.5128,6,0.00142662,10,0.000309676,-1.97828,0.952044,0.061972,25.4256,0.029457,
2,1,0,1,0,7368.43,0.0397514,0.0394129,10.8526,6,0.00195925,10,0.000427732,-1.96447,0.538982,0.109466,46.386,0.0394129,
2,1,0,1,0,7368.48,0.0497393,0.0494882,11.3868,6,0.00251305,10,0.000563513,-1.9436,0.407462,0.144799,64.2907,0.0494882,
2,1,0,1,0,7368.53,0.0597364,0.0593937,12.1582,6,0.00310016,10,0.00072212,-1.91513,0.302616,0.194967,92.4102,0.0593937,
2,1,0,1,0,7368.58,0.0697152,0.069403,13.1276,6,0.00373064,10,0.000911097,-1.88181,0.296387,0.199064,102.06,0.06940303,
2,1,0,1,0,7368.63,0.0796941,0.0793772,14.2991,6,0.00441445,10,0.00113502,-1.84469,0.280741,0.210158,117.177,0.0793772,
2,1,0,1,0,7368.68,0.0896911,0.0893807,15.4343,6,0.00515834,10,0.00137953,-1.81151,0.312541,0.188775,113.914,0.0893807,
2,1,0,1,0,7368.73,0.099679,0.0993829,16.605,6,0.00595803,10,0.00165025,-1.77976,0.341751,0.172641,111.672,0.0993829,
2,1,0,1,0,7368.78,0.109658,0.109346,17.7303,6,0.00681379,10,0.00193874,-1.75128,0.324937,0.181574,125.745,0.109346,
2,1,0,1,0,7368.83,0.119655,0.119336,19.1728,6,0.00773475,10,0.002288,-1.71731,0.277852,0.212344,158.844,0.119336,
2,1,0,1,0,7368.88,0.129652,0.129339,21.0464,6,0.00873838,10,0.00272213,-1.67682,0.222625,0.265019,217.896,0.129339,
2,1,0,1,0,7368.93,0.139631,0.139329,23.2464,6,0.00984394,10,0.0032389,-1.63365,0.244693,0.241119,218.609,0.139329,
2,1,0,1,0,7368.98,0.149619,0.149329,25.3484,6,0.0110575,10,0.00378524,-1.59605,0.302104,0.195297,193.115,0.1493288,
2,1,0,1,0,7369.03,0.159616,0.159318,26.9129,6,0.0123678,10,0.00428771,-1.57004,0.61375,0.0961304,100.832,0.1593184,
2,1,0,1,0,7369.08,0.169595,0.16928,26.9268,6,0.0137209,10,0.00455816,-1.56982,-0.446584,-0.132114,-138.493,0.1692798,
2,1,0,1,0,7369.13,0.179573,0.179292,23.5662,6,0.014997,10,0.00422521,-1.62771,-0.102127,-0.577714,-529.418,0.179292,
2,1,0,1,0,7369.18,0.18957,0.189266,17.4118,6,0.0160245,10,0.00329545,-1.75916,-0.0660156,-0.893728,-607.598,0.189266,
2,1,0,1,0,7369.23,0.199558,0.199311,12.629,6,0.0167609,10,0.00251711,-1.89863,-0.0907774,-0.649942,-320.827,0.199311,
2,1,0,1,0,7369.28,0.209537,0.209252,10.4804,6,0.0173285,10,0.00219305,-1.97962,-0.17856,-0.330421,-135.468,0.209252,
2,1,0,1,0,7369.33,0.219534,0.219221,9.56875,6,0.0178267,10,0.00209767,-2.01914,-0.355675,-0.165882,-61.9183,0.219221,
2,1,0,1,0,7369.38,0.229531,0.229248,9.02538,6,0.0182911,10,0.00206905,-2.04453,-0.462576,-0.127547,-45.0493,0.229248,
2,1,0,1,0,7369.43,0.23951,0.239244,8.68083,6,0.0187326,10,0.00207684,-2.06144,-0.638285,-0.0924352,-31.291,0.239244,
2,1,0,1,0,7369.48,0.249498,0.249168,8.38997,6,0.0191582,10,0.00209052,-2.07624,-0.804445,-0.0733425,-24.0514,0.249168,
2,1,0,1,0,7369.53,0.259495,0.259198,8.18505,6,0.0195722,10,0.00212155,-2.08698,-0.818175,-0.0721117,-22.9847,0.259198,
2,1,0,1,0,7369.58,0.269474,0.269192,7.98221,6,0.0199754,10,0.00214875,-2.09788,-1.08803,-0.0542263,-16.9324,0.2691924,
2,1,0,1,0,7369.63,0.279453,0.279169,7.83746,6,0.0203703,10,0.00218797,-2.10582,-1.15388,-0.0511318,-15.6182,0.279169,
2,1,0,1,0,7369.68,0.28945,0.289152,7.68126,6,0.0207583,10,0.00222105,-2.11457,-1.67111,-0.035306,-10.6043,0.289152,
2,1,0,1,0,7369.73,0.299438,0.299124,7.5777,6,0.0211391,10,0.00226667,-2.12046,-0.0458345,-1.28724,-359.423,0.299124,
2,0,0,1,0,7369.77,0.291747,0.291489,-2.24818,6,0.0211954,10,-0.00065532,-2.64817,-0.0142207,-4.14887,328.507,0.291489,
2,0,0,1,0,7369.82,0.28175,0.281443,-3.64506,6,0.0210386,10,-0.00102587,-2.4383,-0.124861,-0.472525,66.9301,0.281443,
2,0,0,1,0,7369.87,0.27178,0.271497,-4.15761,6,0.0208436,10,-0.00112878,-2.38116,-0.193247,-0.30531,49.4328,0.271497,
2,0,0,1,0,7369.92,0.261783,0.261462,-4.55422,6,0.0206255,10,-0.00119076,-2.34159,-0.306272,-0.192639,34.1444,0.261462,
2,0,0,1,0,7369.97,0.251786,0.251464,-4.88328,6,0.0203895,10,-0.00122797,-2.31129,-0.346382,-0.170332,32.4403,0.251464,
2,0,0,1,0,7370.02,0.241807,0.241507,-5.19335,6,0.0201376,10,-0.00125423,-2.28455,-0.384575,-0.153416,31.1676,0.241507,
2,0,0,1,0,7370.07,0.231824,0.231531,-5.51373,6,0.0198706,10,-0.0012766,-2.25855,-0.376284,-0.156797,33.6536,0.231531,
2,0,0,1,0,7370.12,0.221822,0.221592,-5.80641,6,0.0195877,10,-0.00128665,-2.23609,-0.408458,-0.144446,32.7712,0.221592,
2,0,0,1,0,7370.17,0.211844,0.211529,-6.15867,6,0.0192892,10,-0.00130274,-2.21051,-0.425093,-0.138793,33.3456,0.211529,
2,0,0,1,0,7370.22,0.201865,0.201593,-6.54869,6,0.0189722,10,-0.00132017,-2.18385,-0.374482,-0.157551,40.3419,0.201593,
2,0,0,1,0,7370.27,0.191868,0.191562,-7.0598,6,0.0186323,10,-0.00135239,-2.15121,-0.284697,-0.207238,57.1933,0.191562,
2,0,0,1,0,7370.32,0.18188,0.181575,-7.76702,6,0.0182635,10,-0.0014103,-2.10975,-0.195887,-0.301193,91.2046,0.181575,
2,0,0,1,0,7370.37,0.171901,0.171563,-8.77999,6,0.0178524,10,-0.00150632,-2.05651,-0.164527,-0.358603,122.863,0.1715629,
2,0,0,1,0,7370.42,0.161904,0.161564,-10.3228,6,0.0173776,10,-0.00166779,-1.9862,-0.125701,-0.469368,189.204,0.161564,
2,0,0,1,0,7370.47,0.151907,0.151645,-12.6508,6,0.0168066,10,-0.00191844,-1.89788,-0.105252,-0.56056,277.336,0.151645,
2,0,0,1,0,7370.52,0.141928,0.141632,-15.8748,6,0.0160971,10,-0.00224838,-1.79929,-0.102012,-0.578363,358.365,0.141632,
2,0,0,1,0,7370.57,0.13194,0.131701,-19.5032,6,0.0152146,10,-0.00256858,-1.7099,-0.125611,-0.469705,357.173,0.131701,
2,0,0,1,0,7370.62,0.121943,0.121659,-22.825,6,0.0141531,10,-0.00277687,-1.64159,-0.183793,-0.321013,285.53,0.121659,
2,0,0,1,0,7370.67,0.111964,0.111671,-25.213,6,0.0129495,10,-0.00281557,-1.59837,-0.336327,-0.175425,172.472,0.111671,
2,0,0,1,0,7370.72,0.101985,0.101692,-26.2248,6,0.0116597,10,-0.00266685,-1.58129,-3.58772,-0.016445,16.801,0.101692,
2,0,0,1,0,7370.77,0.0919883,0.0916625,-25.5759,6,0.0103578,10,-0.00234435,-1.59217,0.422625,0.139604,-139.274,0.0916625,
2,0,0,1,0,7370.82,0.0820004,0.0817302,-23.5351,6,0.00912849,10,-0.00192353,-1.62828,0.222945,0.264639,-242.732,0.0817302,
2,0,0,1,0,7370.87,0.0720215,0.0717328,-21.1709,6,0.00801524,10,-0.00151864,-1.67426,0.230963,0.255452,-211.34,0.0717328,
2,0,0,1,0,7370.92,0.0620245,0.0617432,-19.4028,6,0.00700321,10,-0.00119799,-1.71214,0.291684,0.202274,-153.166,0.0617432,
2,0,0,1,0,7370.97,0.0520275,0.0517258,-18.0038,6,0.00606884,10,-0.00093126,-1.74464,0.297718,0.198174,-139.204,0.0517258,
2,0,0,1,0,7371.02,0.0420486,0.0417304,-16.5565,6,0.00520575,10,-0.00069091,-1.78103,0.250702,0.235339,-152.11,0.0417304,
2,0,0,1,0,7371.07,0.0320607,0.0317466,-14.9439,6,0.00441936,10,-0.000474419,-1.82554,0.212176,0.278071,-162.246,0.0317466,
2,0,0,1,0,7371.12,0.0220637,0.0217795,-13.5267,6,0.00370982,10,-0.000294605,-1.86881,0.268147,0.220028,-116.116,0.0217795,
2,0,0,1,0,7371.17,0.0120848,0.0117641,-12.6572,6,0.00305916,10,-0.000148901,-1.89766,0.461987,0.127709,-63.17,0.0117641,
2,0,0,1,0,7371.22,0.00210598,0.00174131,-12.3475,6,0.0024387,10,-2.15008e-05,-1.90842,4.07408,0.0144818,-6.95348,0.00174131,
2,0,0,1,0,7371.27,-0.00789103,-0.00825698,-12.2187,6,0.00182542,10,0.000100889,-1.91298,-5.72702,-0.010302,4.92841,-0.00825698,
2,0,0,1,0,7371.32,-0.017879,-0.018238,-12.4005,6,0.0012117,10,0.000226161,-1.90656,-1.30059,-0.0453642,21.9045,-0.018238,
2,0,0,1,0,7371.37,-0.0278578,-0.0281841,-12.6307,6,0.000587801,10,0.000355985,-1.89857,-1.17049,-0.0504064,24.8938,-0.0281841,
2,0,0,1,0,7371.42,-0.0378549,-0.038179,-12.9925,6,-5.25287e-05,10,0.000496042,-1.88631,-0.898337,-0.0656769,33.2607,-0.038179,
2,0,0,1,0,7371.47,-0.0478519,-0.0482128,-13.3601,6,-0.000711409,10,0.000644127,-1.87419,-0.658309,-0.0896236,46.8336,-0.0482128,
2,0,0,1,0,7371.52,-0.0578126,-0.0581964,-13.8278,6,-0.00138871,10,0.000804729,-1.85925,-0.672228,-0.0877679,47.3404,-0.0581964,
2,0,0,1,0,7371.57,-0.0678187,-0.068127,-14.3409,6,-0.00209284,10,0.000977,-1.84342,-0.552745,-0.10674,59.7934,-0.068127,
2,0,0,1,0,7371.62,-0.0778157,-0.0781565,-14.9775,6,-0.00282551,10,0.00117059,-1.82456,-0.532647,-0.110768,64.6967,-0.0781565,
2,0,0,1,0,7371.67,-0.0877945,-0.0881374,-15.7182,6,-0.00359079,10,0.00138536,-1.8036,-0.436231,-0.13525,83.0419,-0.0881374,
2,0,0,1,0,7371.72,-0.0977734,-0.0981045,-16.5898,6,-0.00439701,10,0.00162753,-1.78016,-0.403345,-0.146277,94.742,-0.0981045,
2,0,0,1,1,7371.76,-0.0936874,-0.0940695,-3.77375,6,-0.00487695,10,0.000354995,-2.42323,-0.00556685,-10.5985,1382.49,-0.0940695,
2,1,0,1,1,7371.81,-0.0837086,-0.0840979,4.8765,6,-0.00481438,10,-0.000410103,-2.31189,0.0204861,2.88,530.32,-0.0840979,
2,1,0,1,1,7371.86,-0.0737025,-0.0740857,8.53572,6,-0.00446643,10,-0.000632375,-2.06876,0.0803852,0.733966,243.067,-0.07408569,
2,1,0,1,1,7371.91,-0.0637236,-0.0640404,10.1484,6,-0.00399472,10,-0.00064991,-1.9936,0.222495,0.265175,104.838,-0.0640404,
2,1,0,1,1,7371.96,-0.0537447,-0.0541039,10.8726,6,-0.00346768,10,-0.000588248,-1.96367,0.560455,0.105272,44.6134,-0.0541039,
2,1,0,1,1,7372.01,-0.0437477,-0.0441082,11.1744,6,-0.00291515,10,-0.000492884,-1.95177,1.73435,0.0340186,14.8299,-0.0441082,
2,1,0,1,1,7372.06,-0.0337507,-0.0341168,11.2487,6,-0.00235372,10,-0.000383772,-1.9489,13.5988,0.00433862,1.90645,-0.0341168,
2,1,0,1,1,7372.11,-0.0237809,-0.0241168,11.219,6,-0.0017939,10,-0.000270567,-1.95005,-4.38519,-0.0134544,-5.88369,-0.0241168,
2,1,0,1,1,7372.16,-0.0137839,-0.0141489,11.0956,6,-0.00123586,10,-0.00015699,-1.95485,-1.47782,-0.0399236,-17.3051,-0.0141489,
2,1,0,1,1,7372.21,-0.0037869,-0.00411156,10.9606,6,-0.000684389,10,-4.50651e-05,-1.96017,-1.45717,-0.0404895,-17.3049,-0.00411156,
2,1,0,1,1,7372.23,-2.55332e-05,-0.000248974,10.8874,6,-0.000480124,10,-2.71069e-06,-1.96307, , , ,-0.000248974,