File: Figure_codes/Fig_3-5/rawdata_trumpetplot_data/before 10th/20221101_1-115_002_TrumpetPlot_ParaChange_12_CV_C01_0.csv
mode,ox/red,error,control changes,counter inc.,time/s,control/V,Ewe/V,<I>/mA,cycle number,(Q-Qo)/C,I Range,P/W,log(|I|),Tafel slope mV/dec,alpha_eff,dI/d(E-IR),E-IR/V,
2,1,0,1,0,1210.09,2.44065e-05,-0.000287149,6.98028,1,0.0000000E+000,10,-2.00438e-06,-2.15613, , , ,-0.0002871489,
2,1,0,1,0,1210.14,0.00977853,0.00951419,10.1233,1,0.000434984,10,9.63153e-05,-1.99468,0.18428,0.320165,125.851,0.00951419,
2,1,0,1,0,1210.19,0.0197755,0.0194674,10.6135,1,0.000958088,10,0.000206616,-1.97414,6.05902,0.00973755,4.0309,0.0194674,
2,1,0,1,0,1210.24,0.0297726,0.0294396,10.5965,1,0.00148896,10,0.000311956,-1.97484,-2.72293,-0.0216679,-8.96199,0.0294396,
2,1,0,1,0,1210.29,0.0397514,0.0394002,10.5703,1,0.00201684,10,0.000416471,-1.97591,2.18814,0.0269635,11.1346,0.0394002,
2,1,0,1,0,1210.34,0.0497393,0.0494336,10.6936,1,0.00254667,10,0.000528624,-1.97088,1.23968,0.0475931,19.8368,0.0494336,
2,1,0,1,0,1210.39,0.0597364,0.0594232,10.9704,1,0.00308671,10,0.000651897,-1.95978,0.585164,0.100826,43.1039,0.0594232,
2,1,0,1,0,1210.44,0.0697152,0.0694078,11.502,1,0.00364625,10,0.000798328,-1.93923,0.428252,0.137769,61.9361,0.0694078,
2,1,0,1,0,1210.49,0.0796941,0.0793512,12.3111,1,0.00423925,10,0.000976903,-1.9097,0.314261,0.187742,90.1295,0.0793512,
2,1,0,1,0,1210.54,0.0896911,0.0893703,13.373,1,0.00488053,10,0.00119515,-1.87377,0.261225,0.225859,118.071,0.0893703,
2,1,0,1,0,1210.59,0.099679,0.0994099,14.6458,1,0.00557925,10,0.00145593,-1.83429,0.250132,0.235876,134.675,0.0994099,
2,1,0,1,0,1210.64,0.109658,0.10935,16.0428,1,0.00634408,10,0.00175427,-1.79472,0.238877,0.246989,154.748,0.10935,
2,1,0,1,0,1210.69,0.119655,0.119339,17.7906,1,0.0071882,10,0.00212311,-1.74981,0.209684,0.281376,195.469,0.119339,
2,1,0,1,0,1210.74,0.129652,0.129324,20.1722,1,0.00813434,10,0.00260874,-1.69525,0.161606,0.365085,287.582,0.129324,
2,1,0,1,0,1210.79,0.139631,0.139326,23.3541,1,0.00921795,10,0.00325384,-1.63164,0.152394,0.387154,352.989,0.139326,
2,1,0,1,0,1210.84,0.149619,0.149316,26.9922,1,0.010474,10,0.00403035,-1.56876,0.173991,0.339098,356.795,0.149316,
2,1,0,1,0,1210.89,0.159616,0.159348,30.222,1,0.0119084,10,0.00481581,-1.51968,0.261173,0.225904,266.423,0.159348,
2,1,0,1,0,1210.94,0.169595,0.16932,32.008,1,0.0134709,10,0.00541961,-1.49474,1.87586,0.0314523,39.1902,0.16932,
2,1,0,1,0,1210.99,0.179573,0.179279,30.1431,1,0.015042,10,0.005404,-1.52081,-0.150628,-0.391692,-458.912,0.179279,
2,1,0,1,0,1211.04,0.18957,0.189315,22.9865,1,0.0163885,10,0.00435169,-1.63853,-0.0598142,-0.986388,-881.885,0.189315,
2,1,0,1,0,1211.09,0.199558,0.199294,14.769,1,0.0173182,10,0.00294336,-1.83065,-0.0533965,-1.10494,-638.884,0.199294,
2,1,0,1,0,1211.14,0.209537,0.209294,10.6857,1,0.0179343,10,0.00223646,-1.9712,-0.111037,-0.531354,-222.351,0.2092942,
2,1,0,1,0,1211.19,0.219534,0.219233,9.46239,1,0.0184315,10,0.00207446,-2.024,-0.351169,-0.16801,-62.1756,0.219233,
2,1,0,1,0,1211.24,0.229531,0.229252,8.9857,1,0.0188923,10,0.00205999,-2.04645,-0.510834,-0.115497,-40.5299,0.229252,
2,1,0,1,0,1211.29,0.23951,0.239244,8.65605,1,0.0193323,10,0.0020709,-2.06268,-0.729682,-0.0808571,-27.3392,0.239244,
2,1,0,1,0,1211.34,0.249498,0.249192,8.39363,1,0.0197576,10,0.00209162,-2.07605,-0.820717,-0.0718884,-23.536,0.2491919,
2,1,0,1,0,1211.39,0.259495,0.259207,8.17807,1,0.0201715,10,0.00211981,-2.08735,-0.772551,-0.0763703,-24.3913,0.259207,
2,1,0,1,0,1211.44,0.269474,0.269181,7.98772,1,0.0205749,10,0.00215015,-2.09758,-1.05617,-0.0558623,-17.4444,0.269181,
2,1,0,1,0,1211.49,0.279453,0.279177,7.83304,1,0.02097,10,0.00218681,-2.10607,-1.0811,-0.054574,-16.6979,0.279177,
2,1,0,1,0,1211.54,0.28945,0.289179,7.69852,1,0.0213584,10,0.00222625,-2.11359,-1.72622,-0.0341787,-10.269,0.289179,
2,1,0,1,0,1211.59,0.299438,0.299148,7.57315,1,0.0217394,10,0.0022655,-2.12072,-0.0407375,-1.4483,-402.143,0.299148,
2,0,0,1,0,1211.63,0.291747,0.291508,-2.99142,1,0.0217628,10,-0.000872023,-2.52412,-0.0254325,-2.31987,257.258,0.291508,
2,0,0,1,0,1211.68,0.28175,0.28143,-3.96229,1,0.0215819,10,-0.00111511,-2.40205,-0.189624,-0.311142,47.8476,0.28143,
2,0,0,1,0,1211.73,0.27178,0.271462,-4.37661,1,0.021374,10,-0.00118808,-2.35886,-0.227999,-0.258773,44.299,0.271462,
2,0,0,1,0,1211.78,0.261783,0.261496,-4.77605,1,0.0211451,10,-0.00124892,-2.32093,-0.334264,-0.176507,32.7522,0.261496,
2,0,0,1,0,1211.83,0.251786,0.251493,-5.11202,1,0.0208978,10,-0.00128564,-2.29141,-0.31345,-0.188228,37.6083,0.251493,
2,0,0,1,0,1211.88,0.241807,0.241528,-5.46435,1,0.0206336,10,-0.00131979,-2.26246,-0.359432,-0.164148,35.0318,0.241528,
2,0,0,1,0,1211.93,0.231824,0.231587,-5.8213,1,0.020352,10,-0.00134814,-2.23498,-0.316334,-0.186511,42.4759,0.231587,
2,0,0,1,0,1211.98,0.221822,0.221547,-6.22898,1,0.0200508,10,-0.00138001,-2.20558,-0.310967,-0.189731,46.0422,0.221547,
2,0,0,1,0,1212.03,0.211844,0.211588,-6.70069,1,0.0197284,10,-0.00141778,-2.17388,-0.329008,-0.179327,46.9765,0.211588,
2,0,0,1,0,1212.08,0.201865,0.201615,-7.31945,1,0.019379,10,-0.00147571,-2.13552,-0.250309,-0.235709,67.3324,0.201615,
2,0,0,1,0,1212.13,0.191868,0.191603,-8.14349,1,0.0189932,10,-0.00156032,-2.08919,-0.186285,-0.316719,100.912,0.191603,
2,0,0,1,0,1212.18,0.18188,0.181568,-9.34588,1,0.0185587,10,-0.00169691,-2.02938,-0.146635,-0.40236,146.529,0.181568,
2,0,0,1,0,1212.23,0.171901,0.171628,-11.0355,1,0.018053,10,-0.001894,-1.95721,-0.124194,-0.475065,204.733,0.171628,
2,0,0,1,0,1212.28,0.161904,0.161625,-13.5524,1,0.0174422,10,-0.00219042,-1.86798,-0.103424,-0.570466,301.607,0.161625,
2,0,0,1,0,1212.33,0.151907,0.151671,-16.9983,1,0.0166815,10,-0.00257816,-1.76959,-0.102455,-0.575862,382.267,0.151671,
2,0,0,1,0,1212.38,0.141928,0.141652,-21.2646,1,0.0157289,10,-0.00301217,-1.67234,-0.110997,-0.531546,440.52,0.141652,
2,0,0,1,0,1212.43,0.13194,0.131714,-25.5035,1,0.0145601,10,-0.00335917,-1.5934,-0.144493,-0.408324,406.26,0.131714,
2,0,0,1,0,1212.48,0.121943,0.121683,-28.963,1,0.0131922,10,-0.00352432,-1.53816,-0.257203,-0.229391,258.757,0.121683,
2,0,0,1,0,1212.53,0.111964,0.111658,-30.5553,1,0.0116971,10,-0.00341173,-1.51491,-2.20365,-0.0267737,31.885,0.111658,
2,0,0,1,0,1212.58,0.101985,0.101728,-29.2387,1,0.0101912,10,-0.00297439,-1.53404,0.216037,0.273101,-310.711,0.101728,
2,0,0,1,0,1212.63,0.0919883,0.0916799,-24.9283,1,0.0088292,10,-0.00228542,-1.60331,0.116512,0.506387,-492.581,0.0916799,
2,0,0,1,0,1212.68,0.0820004,0.0816984,-20.2653,1,0.00770663,10,-0.00165564,-1.69325,0.116551,0.506215,-400.522,0.0816984,
2,0,0,1,0,1212.73,0.0720215,0.0717735,-17.1282,1,0.00678099,10,-0.00122935,-1.76629,0.163137,0.361659,-242.125,0.0717735,
2,0,0,1,0,1212.78,0.0620245,0.0617605,-15.1372,1,0.00597742,10,-0.000934881,-1.81995,0.202058,0.291996,-172.583,0.0617605,
2,0,0,1,0,1212.83,0.0520275,0.0517093,-13.6224,1,0.00525995,10,-0.000704405,-1.86575,0.228895,0.257761,-137.086,0.0517093,
2,0,0,1,0,1212.88,0.0420486,0.0417741,-12.5202,1,0.00460984,10,-0.000523019,-1.90239,0.364217,0.161991,-79.2699,0.0417741,
2,0,0,1,0,1212.93,0.0320607,0.0317891,-11.942,1,0.0040014,10,-0.000379626,-1.92292,0.746019,0.0790864,-36.8521,0.0317891,
2,0,0,1,0,1212.98,0.0220637,0.0217544,-11.7435,1,0.00341075,10,-0.000255472,-1.9302,4.23059,0.0139461,-6.39396,0.0217544,
2,0,0,1,0,1213.03,0.0120848,0.0118158,-11.779,1,0.00282429,10,-0.000139178,-1.92889,-2.98983,-0.0197335,9.08645,0.0118158,
2,0,0,1,0,1213.08,0.00210598,0.00177081,-12.0481,1,0.00223188,10,-2.1335e-05,-1.91908,-0.746403,-0.0790458,37.0256,0.001770811,
2,0,0,1,0,1213.13,-0.00789103,-0.00823095,-12.2466,1,0.00162452,10,0.000100801,-1.91199,-0.847955,-0.0695792,33.3404,-0.00823095,
2,0,0,1,0,1213.18,-0.017879,-0.0182284,-12.6208,1,0.00100399,10,0.000230058,-1.89891,-0.737473,-0.0800029,39.3505,-0.0182284,
2,0,0,1,0,1213.23,-0.0278578,-0.0282657,-12.9782,1,0.000365413,10,0.000366837,-1.88679,-0.835798,-0.0705912,35.7951,-0.0282657,
2,0,0,1,0,1213.28,-0.0378548,-0.0381816,-13.3975,1,-0.000294098,10,0.000511538,-1.87298,-0.782072,-0.0754406,39.4144,-0.0381816,
2,0,0,1,0,1213.33,-0.0478519,-0.0481521,-13.8221,1,-0.000974946,10,0.000665562,-1.85943,-0.659069,-0.0895202,48.3488,-0.0481521,
2,0,0,1,0,1213.38,-0.0578126,-0.0581538,-14.3167,1,-0.00167561,10,0.000832571,-1.84416,-0.619433,-0.0952484,53.1788,-0.0581538,
2,0,0,1,0,1213.43,-0.0678187,-0.0681686,-14.8591,1,-0.00240479,10,0.00101293,-1.82801,-0.530055,-0.111309,64.5913,-0.0681686,
2,0,0,1,0,1213.48,-0.0778157,-0.0781669,-15.5419,1,-0.00316458,10,0.00121486,-1.8085,-0.510074,-0.115669,70.2006,-0.0781669,
2,0,0,1,0,1213.53,-0.0877945,-0.0881429,-16.3968,1,-0.00396094,10,0.00144526,-1.78524,-0.396491,-0.148806,95.2547,-0.0881429,
2,0,0,1,0,1213.58,-0.0977734,-0.0981158,-17.3914,1,-0.00480375,10,0.00170637,-1.75967,-0.379819,-0.155337,105.489,-0.0981158,
2,0,0,1,1,1213.62,-0.0936874,-0.0940632,-2.14735,1,-0.00527346,10,0.000201987,-2.6681,-0.00419569,-14.062,1575.81,-0.0940632,
2,1,0,1,1,1213.67,-0.0837086,-0.0841317,6.98743,1,-0.00510834,10,-0.000587864,-2.15568,0.0314777,1.87434,501.669,-0.0841317,
2,1,0,1,1,1213.72,-0.0737025,-0.0740458,10.1365,1,-0.00466615,10,-0.000750567,-1.99411,0.129802,0.454539,178.938,-0.0740458,
2,1,0,1,1,1213.77,-0.0637236,-0.0640603,11.2039,1,-0.0041296,10,-0.000717728,-1.95063,0.441566,0.133615,58.3055,-0.0640603,
2,1,0,1,1,1213.82,-0.0537447,-0.0541151,11.5656,1,-0.00355986,10,-0.000625873,-1.93683,1.64209,0.0359297,16.2174,-0.0541151,
2,1,0,1,1,1213.87,-0.0437477,-0.044116,11.67,1,-0.00297802,10,-0.000514836,-1.93293,25.1931,0.00234191,1.0655,-0.04411599,
2,1,0,1,1,1213.92,-0.0337507,-0.0341134,11.6398,1,-0.00239463,10,-0.000397073,-1.93405,-4.04502,-0.0145859,-6.6321,-0.0341134,
2,1,0,1,1,1213.97,-0.0237809,-0.0241446,11.5527,1,-0.00181702,10,-0.000278934,-1.93732,-3.90482,-0.0151095,-6.80281,-0.0241446,
2,1,0,1,1,1214.02,-0.0137839,-0.0141168,11.397,1,-0.00124303,10,-0.000160889,-1.94321,-1.35543,-0.0435286,-19.3881,-0.0141168,
2,1,0,1,1,1214.07,-0.0037869,-0.00413411,11.2303,1,-0.000677144,10,-4.64273e-05,-1.94961,-1.50474,-0.0392094,-17.1731,-0.00413411,
2,1,0,0,1,1214.09,-2.55332e-05,-0.000248974,11.1367,1,-0.000467872,10,-2.77276e-06,-1.95324, , , ,-0.000248974,