File: Figure_codes/Fig_3-5/rawdata_trumpetplot_data/before 10th/20221101_1-115_002_TrumpetPlot_ParaChange_07_CV_C01.mpt
EC-Lab ASCII FILE
Nb header lines : 68

Cyclic Voltammetry

Run on channel : 1 (SN 65296)
User :
CE vs. WE compliance from -10 V to 10 V
Electrode connection : standard
Potential control : Ewe
Ewe ctrl range : min = -1.00 V, max = 1.00 V
Safety Limits :
	Do not start on E overload
Acquisition started on : 11/08/2022 17:30:03.488
Loaded Setting File :  NONE
Saved on :
	File : 20221101_1-115_002_TrumpetPlot_ParaChange_07_CV_C01.mpr
	Directory : C:\Users\NakamuraT\Documents\EC-Lab\Data\Yatsuzuka\20221108_1-115_001_TrumpetPlot\
	Host : 192.109.209.100
Device : SP-50e (SN .003219)
Address : 192.109.209.128
EC-Lab for windows v11.43 (software)
Internet server v11.40 (firmware)
Command interpretor v11.40 (firmware)
Electrode material : Au/Pd
Initial state :
Electrolyte : NaCl (0.2M)
Comments : Fe(CN)63-/Fe(CN)64- 5.10-3 M
Reference electrode : SCE Saturated Calomel Electrode (0.241 V)
Electrode surface area : 0.001 cm2
Characteristic mass : 0.001 g
Equivalent Weight : 0.000 g/eq.
Density : 0.000 g/cm3
Volume (V) : 0.001 cm3
Cycle Definition : Charge/Discharge alternance
Ei (V)              0.000
vs.                 Ref
dE/dt               20.000
dE/dt unit          mV/s
E1 (V)              0.300
vs.                 Ref
Step percent        50
N                   10
E range min (V)     -1.000
E range max (V)     1.000
I Range             10 mA
I Range min         Unset
I Range max         Unset
I Range init        Unset
Bandwidth           5
E2 (V)              0.000
vs.                 Ref
nc cycles           0
Reverse Scan        0
Ef (V)              0.000
vs.                 Eoc

Number of loops : 8
Loop 0 from point number 0 to 1204
Loop 1 from point number 1205 to 2409
Loop 2 from point number 2410 to 3614
Loop 3 from point number 3615 to 4819
Loop 4 from point number 4820 to 6024
Loop 5 from point number 6025 to 7229
Loop 6 from point number 7230 to 8434
Loop 7 from point number 8435 to 9639

mode	ox/red	error	control changes	counter inc.	time/s	control/V	Ewe/V	<I>/mA	cycle number	(Q-Qo)/C	I Range	P/W
2	0	0	1	0	1139.09	2.44065e-05	-0.000248974	-1.13351	1	0.0000000E+000	11	2.82216e-07
2	1	0	1	0	1140.85	0.0352568	0.0349939	0.990958	1	0.00155526	11	3.46775e-05
2	1	0	1	0	1142.62	0.070714	0.0704352	1.25957	1	0.00350791	11	8.87179e-05
2	1	0	1	0	1144.4	0.106171	0.105899	1.88876	1	0.00626843	11	0.000200018
2	1	0	1	0	1146.17	0.141628	0.141361	3.67265	1	0.0110911	11	0.00051917
2	1	0	1	0	1147.94	0.177084	0.1768	1.71734	1	0.0163264	11	0.000303626
2	1	0	1	0	1149.71	0.212543	0.212232	1.0917	1	0.0186561	11	0.000231693
2	1	0	1	0	1151.49	0.248	0.247724	0.961546	1	0.0204687	11	0.000238198
2	1	0	1	0	1153.26	0.283457	0.283241	0.904192	1	0.0221291	11	0.000256104
2	0	0	1	0	1155	0.281759	0.28145	-0.406676	1	0.0225989	11	-0.000114459
2	0	0	1	0	1156.77	0.246302	0.246061	-0.596188	1	0.0216824	11	-0.000146699
2	0	0	1	0	1158.55	0.210845	0.210552	-0.785936	1	0.0204574	11	-0.000165481
2	0	0	1	0	1160.32	0.175386	0.175079	-1.3195	1	0.0186955	11	-0.000231017
2	0	0	1	0	1162.09	0.13993	0.139623	-3.55799	1	0.0145531	11	-0.000496776
2	0	0	1	0	1163.87	0.104475	0.104184	-2.31457	1	0.00888134	11	-0.000241141
2	0	0	1	0	1165.64	0.0690161	0.0686829	-1.62676	1	0.00545685	11	-0.00011173
2	0	0	1	0	1167.41	0.0335589	0.0332534	-1.39299	1	0.00283666	11	-4.63216e-05
2	1	0	1	0	2370.76	0.000798471	0.000445939	0.327379	2	-5.88204e-06	11	1.45991e-07
2	1	0	1	0	2372.53	0.0362561	0.0359469	1.009	2	0.0016266	11	3.62704e-05
2	1	0	1	0	2374.3	0.0717128	0.0714472	1.37013	2	0.00368464	11	9.78916e-05
2	1	0	1	0	2376.07	0.10717	0.106884	2.00538	2	0.00665807	11	0.000214343
2	1	0	1	0	2377.85	0.142627	0.142359	3.62041	2	0.0116362	11	0.000515397
2	1	0	1	0	2379.62	0.178084	0.177833	1.61172	2	0.0165705	11	0.000286618
2	1	0	1	0	2381.39	0.213541	0.213272	1.07447	2	0.0188179	11	0.000229155
2	1	0	1	0	2383.17	0.248999	0.248713	0.95318	2	0.0206124	11	0.000237068
2	1	0	1	0	2384.94	0.284456	0.284211	0.900024	2	0.0222664	11	0.000255797
2	0	0	1	0	2386.68	0.28076	0.280488	-0.415268	2	0.0226645	11	-0.000116478
2	0	0	1	0	2388.45	0.245303	0.244996	-0.600771	2	0.0217371	11	-0.000147187
2	0	0	1	0	2390.22	0.209846	0.209546	-0.774828	2	0.0205116	11	-0.000162362
2	0	0	1	0	2392	0.174389	0.174066	-1.29344	2	0.0187691	11	-0.000225144
2	0	0	1	0	2393.77	0.13893	0.13866	-3.49237	2	0.0146688	11	-0.00048425
2	0	0	1	0	2395.54	0.103474	0.103179	-2.36254	2	0.00905555	11	-0.000243764
2	0	0	1	0	2397.32	0.068019	0.0677045	-1.71466	2	0.00548906	11	-0.00011609
2	0	0	1	0	2399.09	0.0325601	0.0322686	-1.40998	2	0.00279063	11	-4.5498e-05
2	1	0	1	0	3602.43	0.00179726	0.00145517	0.6162	3	1.23724e-05	11	8.96674e-07
2	1	0	1	0	3604.21	0.0372544	0.0369914	1.01724	3	0.00163758	11	3.76291e-05
2	1	0	1	0	3605.98	0.072712	0.0724517	1.44703	3	0.0037688	11	0.00010484
2	1	0	1	0	3607.75	0.108169	0.107869	2.05394	3	0.00686379	11	0.000221557
2	1	0	1	0	3609.53	0.143626	0.143372	3.48479	3	0.011834	11	0.000499622
2	1	0	1	0	3611.3	0.179083	0.178775	1.54199	3	0.0165006	11	0.00027567
2	1	0	1	0	3613.07	0.21454	0.214282	1.06053	3	0.0186874	11	0.000227252
2	1	0	1	0	3614.84	0.249997	0.249749	0.955032	3	0.0204715	11	0.000238518
2	1	0	1	0	3616.62	0.285455	0.285118	0.899462	3	0.022126	11	0.000256453
2	0	0	1	0	3618.36	0.279762	0.27945	-0.409532	3	0.0224793	11	-0.000114444
2	0	0	1	0	3620.13	0.244304	0.244018	-0.591101	3	0.0215636	11	-0.000144239
2	0	0	1	0	3621.9	0.208847	0.208593	-0.766265	3	0.0203558	11	-0.000159837
2	0	0	1	0	3623.68	0.17339	0.173121	-1.24977	3	0.0186593	11	-0.000216361
2	0	0	1	0	3625.45	0.137933	0.137626	-3.32746	3	0.014745	11	-0.000457945
2	0	0	1	0	3627.22	0.102474	0.102159	-2.41568	3	0.00921706	11	-0.000246782
2	0	0	1	0	3628.99	0.0670185	0.0667499	-1.79229	3	0.00553254	11	-0.000119635
2	0	0	1	0	3630.77	0.0315626	0.0312583	-1.42446	3	0.00275681	11	-4.45261e-05
2	1	0	1	0	4834.11	0.00279606	0.00247523	0.731198	4	4.39721e-05	11	1.80988e-06
2	1	0	1	0	4835.89	0.0382532	0.0379552	1.0446	4	0.00169057	11	3.96482e-05
2	1	0	1	0	4837.66	0.0737104	0.0734238	1.51747	4	0.003917	11	0.000111419
2	1	0	1	0	4839.43	0.109168	0.108845	2.13184	4	0.00712558	11	0.000232039
2	1	0	1	0	4841.2	0.144625	0.144367	3.36645	4	0.0121355	11	0.000486006
2	1	0	1	0	4842.98	0.180082	0.179814	1.47907	4	0.0165166	11	0.000265959
2	1	0	1	0	4844.75	0.215539	0.215234	1.04794	4	0.018649	11	0.000225553
2	1	0	1	0	4846.52	0.250996	0.250738	0.951587	4	0.0204186	11	0.0002386
2	1	0	1	0	4848.3	0.286452	0.286147	0.894707	4	0.0220653	11	0.000256018
2	0	0	1	0	4850.04	0.278763	0.278478	-0.419343	4	0.0223512	11	-0.000116778
2	0	0	1	0	4851.81	0.243306	0.242972	-0.594516	4	0.0214268	11	-0.000144451
2	0	0	1	0	4853.58	0.207848	0.207528	-0.759526	4	0.0202198	11	-0.000157623
2	0	0	1	0	4855.35	0.172391	0.172126	-1.22032	4	0.018548	11	-0.000210049
2	0	0	1	0	4857.13	0.136934	0.136616	-3.22866	4	0.0147516	11	-0.000441085
2	0	0	1	0	4858.9	0.101477	0.10119	-2.44413	4	0.00929305	11	-0.00024732
2	0	0	1	0	4860.67	0.0660179	0.0657332	-1.85243	4	0.00553429	11	-0.000121766
2	0	0	1	0	4862.45	0.0305625	0.0302961	-1.42898	4	0.00269768	11	-4.32925e-05
2	1	0	1	0	6065.79	0.00379485	0.00349417	0.743951	5	7.85582e-05	11	2.59949e-06
2	1	0	1	0	6067.56	0.039252	0.0389594	1.0729	5	0.00175621	11	4.17996e-05
2	1	0	1	0	6069.34	0.0747092	0.074391	1.58663	5	0.00407988	11	0.000118031
2	1	0	1	0	6071.11	0.110166	0.109885	2.19873	5	0.00738334	11	0.000241607
2	1	0	1	0	6072.88	0.145624	0.145355	3.27337	5	0.0124295	11	0.000475801
2	1	0	1	0	6074.65	0.181081	0.180771	1.40205	5	0.0165498	11	0.000253451
2	1	0	1	0	6076.43	0.216538	0.216299	1.02491	5	0.0186176	11	0.000221687
2	1	0	1	0	6078.2	0.251995	0.251665	0.942632	5	0.0203685	11	0.000237227
2	1	0	1	0	6079.97	0.287452	0.287179	0.888971	5	0.0220047	11	0.000255294
2	0	0	1	0	6081.71	0.277764	0.277418	-0.431699	5	0.0222186	11	-0.000119761
2	0	0	1	0	6083.49	0.242307	0.241949	-0.596099	5	0.0212821	11	-0.000144225
2	0	0	1	0	6085.26	0.20685	0.206565	-0.768303	5	0.0200721	11	-0.000158704
2	0	0	1	0	6087.03	0.171392	0.17112	-1.19165	5	0.0184172	11	-0.000203916
2	0	0	1	0	6088.81	0.135935	0.135628	-3.14765	5	0.014708	11	-0.000426909
2	0	0	1	0	6090.58	0.100478	0.100141	-2.46749	5	0.00932019	11	-0.000247097
2	0	0	1	0	6092.35	0.0650209	0.0646934	-1.88294	5	0.00551496	11	-0.000121814
2	0	0	1	0	6094.12	0.0295637	0.0292929	-1.44505	5	0.00263175	11	-4.23297e-05
2	1	0	1	0	7297.47	0.00479231	0.00447957	0.775526	6	0.000117566	11	3.47402e-06
2	1	0	1	0	7299.24	0.0402508	0.0399468	1.10106	6	0.00181967	11	4.39837e-05
2	1	0	1	0	7301.01	0.075708	0.0754076	1.63282	6	0.00423135	11	0.000123127
2	1	0	1	0	7302.79	0.111165	0.110839	2.27284	6	0.00761801	11	0.00025192
2	1	0	1	0	7304.56	0.146622	0.146365	3.13523	6	0.0126828	11	0.000458888
2	1	0	1	0	7306.33	0.18208	0.181833	1.3156	6	0.0164687	11	0.000239219
2	1	0	1	0	7308.11	0.217537	0.217314	1.01275	6	0.0184653	11	0.000220084
2	1	0	1	0	7309.88	0.252994	0.252719	0.931622	6	0.0201953	11	0.000235439
2	1	0	1	0	7311.65	0.288451	0.288139	0.886051	6	0.0218212	11	0.000255306
2	0	0	1	0	7313.39	0.276765	0.276438	-0.432071	6	0.0219659	11	-0.000119441
2	0	0	1	0	7315.17	0.241308	0.241042	-0.59592	6	0.0210271	11	-0.000143642
2	0	0	1	0	7316.94	0.205851	0.205565	-0.757659	6	0.0198208	11	-0.000155748
2	0	0	1	0	7318.71	0.170394	0.170097	-1.17201	6	0.0181892	11	-0.000199355
2	0	0	1	0	7320.48	0.134936	0.134599	-3.0793	6	0.0145649	11	-0.000414471
2	0	0	1	0	7322.26	0.0994788	0.0991627	-2.45236	6	0.00927938	11	-0.000243183
2	0	0	1	0	7324.03	0.0640221	0.0637106	-1.89645	6	0.00547222	11	-0.000120824
2	0	0	1	0	7325.8	0.0285649	0.0282693	-1.45287	6	0.00256034	11	-4.10717e-05
2	1	0	1	0	8529.15	0.00579244	0.00547594	0.754622	7	0.000143737	11	4.13227e-06
2	1	0	1	0	8530.92	0.0412483	0.0409587	1.12525	7	0.0018498	11	4.60888e-05
2	1	0	1	0	8532.69	0.0767068	0.0764429	1.66092	7	0.00432109	11	0.000126966
2	1	0	1	0	8534.47	0.112164	0.111861	2.30574	7	0.00774473	11	0.000257922
2	1	0	1	0	8536.24	0.147621	0.147394	2.98174	7	0.0127267	11	0.000439493
2	1	0	1	0	8538.01	0.183078	0.182834	1.27104	7	0.0162557	11	0.000232389
2	1	0	1	0	8539.78	0.218536	0.21825	1.01053	7	0.0182281	11	0.000220549
2	1	0	1	0	8541.56	0.253993	0.253712	0.936006	7	0.01996	11	0.000237476
2	1	0	1	0	8543.33	0.28945	0.289139	0.888923	7	0.0215888	11	0.000257023
2	0	0	1	0	8545.07	0.275766	0.275479	-0.428238	7	0.0216873	11	-0.000117971
2	0	0	1	0	8546.84	0.240311	0.240028	-0.591224	7	0.0207564	11	-0.00014191
2	0	0	1	0	8548.62	0.204852	0.204545	-0.75003	7	0.0195604	11	-0.000153415
2	0	0	1	0	8550.39	0.169395	0.169063	-1.1395	7	0.0179585	11	-0.000192646
2	0	0	1	0	8552.16	0.133938	0.133631	-2.95937	7	0.0144768	11	-0.000395463
2	0	0	1	0	8553.94	0.0984805	0.0981719	-2.45583	7	0.00931701	11	-0.000241093
2	0	0	1	0	8555.71	0.0630229	0.0627034	-1.91915	7	0.00548439	11	-0.000120337
2	0	0	1	0	8557.48	0.0275661	0.0272753	-1.4707	7	0.00252101	11	-4.01138e-05
2	1	0	1	0	9760.83	0.00679123	0.0065103	0.806769	8	0.000191306	11	5.25231e-06
2	1	0	1	0	9762.6	0.0422484	0.0419416	1.17289	8	0.00196	11	4.91927e-05
2	1	0	1	0	9764.37	0.0777042	0.077397	1.70413	8	0.00452432	11	0.000131895
2	1	0	1	0	9766.14	0.113163	0.112868	2.37694	8	0.00803499	11	0.00026828
2	1	0	1	0	9767.92	0.14862	0.148309	2.87229	8	0.0130382	11	0.000425987
2	1	0	1	0	9769.69	0.184077	0.183829	1.21957	8	0.0163443	11	0.000224192
2	1	0	1	0	9771.46	0.219534	0.219252	0.998231	8	0.0182699	11	0.000218864
2	1	0	1	0	9773.24	0.254993	0.254717	0.92633	8	0.0199846	11	0.000235952
2	1	0	1	0	9775.01	0.290449	0.290165	0.882528	8	0.0216037	11	0.000256079
2	0	0	1	0	9776.75	0.274766	0.274462	-0.445515	8	0.0216165	11	-0.000122277
2	0	0	1	0	9778.52	0.23931	0.239002	-0.603509	8	0.0206641	11	-0.00014424
2	0	0	1	0	9780.29	0.203855	0.203505	-0.752672	8	0.0194545	11	-0.000153172
2	0	0	1	0	9782.07	0.168396	0.168113	-1.14462	8	0.017848	11	-0.000192426
2	0	0	1	0	9783.84	0.132939	0.132634	-2.93581	8	0.0143747	11	-0.000389388
2	0	0	1	0	9785.61	0.0974817	0.097179	-2.44987	8	0.00925281	11	-0.000238076
2	0	0	1	0	9787.39	0.0620245	0.0617286	-1.92424	8	0.00542466	11	-0.000118781
2	0	0	1	0	9789.16	0.0265669	0.026243	-1.47855	8	0.00244041	11	-3.88015e-05
2	0	0	0	0	9790.49	-2.44065e-05	-0.000248974	-1.47154	8	0.00050149	11	3.66376e-07