File: Figure_codes/Fig_3-5/rawdata_trumpetplot_data/before 10th/20221101_1-115_002_TrumpetPlot_ParaChange_14_CV_C01.mpt
EC-Lab ASCII FILE
Nb header lines : 68

Cyclic Voltammetry

Run on channel : 1 (SN 65296)
User :
CE vs. WE compliance from -10 V to 10 V
Electrode connection : standard
Potential control : Ewe
Ewe ctrl range : min = -1.00 V, max = 1.00 V
Safety Limits :
	Do not start on E overload
Acquisition started on : 11/08/2022 17:30:03.488
Loaded Setting File :  NONE
Saved on :
	File : 20221101_1-115_002_TrumpetPlot_ParaChange_14_CV_C01.mpr
	Directory : C:\Users\NakamuraT\Documents\EC-Lab\Data\Yatsuzuka\20221108_1-115_001_TrumpetPlot\
	Host : 192.109.209.100
Device : SP-50e (SN .003219)
Address : 192.109.209.128
EC-Lab for windows v11.43 (software)
Internet server v11.40 (firmware)
Command interpretor v11.40 (firmware)
Electrode material : Au/Pd
Initial state :
Electrolyte : NaCl (0.2M)
Comments : Fe(CN)63-/Fe(CN)64- 5.10-3 M
Reference electrode : SCE Saturated Calomel Electrode (0.241 V)
Electrode surface area : 0.001 cm2
Characteristic mass : 0.001 g
Equivalent Weight : 0.000 g/eq.
Density : 0.000 g/cm3
Volume (V) : 0.001 cm3
Cycle Definition : Charge/Discharge alternance
Ei (V)              0.000
vs.                 Ref
dE/dt               600.000
dE/dt unit          mV/s
E1 (V)              0.300
vs.                 Ref
Step percent        50
N                   10
E range min (V)     -1.000
E range max (V)     1.000
I Range             100 mA
I Range min         Unset
I Range max         Unset
I Range init        Unset
Bandwidth           5
E2 (V)              -0.100
vs.                 Ref
nc cycles           0
Reverse Scan        1
Ef (V)              0.000
vs.                 Ref

Number of loops : 8
Loop 0 from point number 0 to 675
Loop 1 from point number 676 to 1351
Loop 2 from point number 1352 to 2027
Loop 3 from point number 2028 to 2703
Loop 4 from point number 2704 to 3379
Loop 5 from point number 3380 to 4055
Loop 6 from point number 4056 to 4731
Loop 7 from point number 4732 to 5407

mode	ox/red	error	control changes	counter inc.	time/s	control/V	Ewe/V	<I>/mA	cycle number	(Q-Qo)/C	I Range	P/W
2	1	0	0	0	1216.29	2.44065e-05	-0.000840681	21.8278	1	0.0000000E+000	10	-1.83502e-05
2	1	0	1	0	1216.37	0.0474865	0.0471692	30.6119	1	0.00223939	10	0.00144394
2	1	0	1	0	1216.45	0.0954841	0.0950996	34.3404	1	0.004777	10	0.00326576
2	1	0	1	0	1216.53	0.143482	0.143179	49.7063	1	0.00806044	10	0.00711692
2	1	0	1	0	1216.61	0.191482	0.191168	75.7341	1	0.0130974	10	0.014478
2	1	0	1	0	1216.69	0.239485	0.239237	42.5953	1	0.0185005	10	0.0101904
2	1	0	1	0	1216.77	0.287488	0.287202	20.3633	1	0.0205742	10	0.00584839
2	0	0	1	0	1216.85	0.268039	0.267738	-13.579	1	0.0207346	10	-0.0036356
2	0	0	1	0	1216.93	0.220047	0.219764	-17.7502	1	0.0194734	10	-0.00390086
2	0	0	1	0	1217.01	0.172047	0.171744	-26.4321	1	0.0177756	10	-0.00453955
2	0	0	1	0	1217.09	0.124044	0.123878	-53.2238	1	0.0147265	10	-0.00659326
2	0	0	1	0	1217.17	0.0760437	0.0757641	-74.4247	1	0.00935035	10	-0.00563872
2	0	0	1	0	1217.25	0.0280406	0.0277352	-47.4524	1	0.00436867	10	-0.0013161
2	0	0	1	0	1217.33	-0.0199515	-0.0202917	-34.0882	1	0.00130105	10	0.000691709
2	0	0	1	0	1217.41	-0.0679546	-0.0683048	-37.7205	1	-0.0015386	10	0.00257649
2	0	0	1	1	1217.48	-0.0883577	-0.0888184	-9.01886	1	-0.0041219	10	0.000801041
2	1	0	1	1	1217.56	-0.0403574	-0.0407512	32.0633	1	-0.00264926	10	-0.00130662
2	1	0	1	0	2447.93	0.00428592	0.00398523	23.9596	2	0.00016395	10	9.54847e-05
2	1	0	1	0	2448.01	0.0522807	0.0519633	31.1357	2	0.00250149	10	0.00161792
2	1	0	1	0	2448.09	0.100284	0.0999626	37.5761	2	0.00517309	10	0.0037562
2	1	0	1	0	2448.17	0.148284	0.147945	54.795	2	0.0087927	10	0.00810665
2	1	0	1	0	2448.25	0.196287	0.195967	77.5561	2	0.0142012	10	0.0151984
2	1	0	1	0	2448.33	0.244285	0.24404	31.738	2	0.0189862	10	0.00774535
2	1	0	1	0	2448.41	0.292282	0.291995	20.0778	2	0.0207723	10	0.0058626
2	0	0	1	0	2448.48	0.263245	0.262997	-14.5016	2	0.0206224	10	-0.00381386
2	0	0	1	0	2448.56	0.215245	0.214975	-18.1922	2	0.0193193	10	-0.00391087
2	0	0	1	0	2448.64	0.167242	0.166948	-27.7189	2	0.0175657	10	-0.00462763
2	0	0	1	0	2448.72	0.119241	0.119065	-56.6847	2	0.0143132	10	-0.00674915
2	0	0	1	0	2448.8	0.0712495	0.070951	-73.2534	2	0.00878643	10	-0.0051974
2	0	0	1	0	2448.88	0.0232463	0.0229358	-46.9588	2	0.00393752	10	-0.00107703
2	0	0	1	0	2448.96	-0.0247568	-0.0251304	-34.3125	2	0.000884575	10	0.000862286
2	0	0	1	0	2449.04	-0.0727571	-0.0730777	-38.3124	2	-0.00199029	10	0.00279979
2	1	0	1	1	2449.12	-0.0835552	-0.0839851	1.09507	2	-0.00428416	10	-9.19698e-05
2	1	0	1	1	2449.2	-0.0355521	-0.0359126	33.8168	2	-0.00242531	10	-0.00121445
2	1	0	1	0	3679.56	0.00908291	0.00874433	25.072	3	0.000360655	10	0.000219238
2	1	0	1	0	3679.64	0.057086	0.0567723	30.2974	3	0.00264473	10	0.00172005
2	1	0	1	0	3679.72	0.105086	0.104792	37.8909	3	0.00530584	10	0.00397065
2	1	0	1	0	3679.8	0.153084	0.152754	53.6567	3	0.00890972	10	0.00819627
2	1	0	1	0	3679.88	0.201081	0.200722	72.6664	3	0.0140746	10	0.0145858
2	1	0	1	0	3679.96	0.249085	0.248775	32.6184	3	0.0185978	10	0.00811464
2	1	0	1	0	3680.04	0.297085	0.296816	21.3262	3	0.0205426	10	0.00632997
2	0	0	1	0	3680.12	0.258443	0.258146	-13.1847	3	0.0203016	10	-0.00340356
2	0	0	1	0	3680.2	0.21044	0.210166	-17.463	3	0.0190733	10	-0.00367013
2	0	0	1	0	3680.28	0.162448	0.162175	-26.5267	3	0.0173889	10	-0.00430195
2	0	0	1	0	3680.36	0.114447	0.114226	-52.773	3	0.0143144	10	-0.00602806
2	0	0	1	0	3680.44	0.0664442	0.0661579	-68.2013	3	0.00921521	10	-0.00451205
2	0	0	1	0	3680.52	0.018441	0.0181289	-49.3248	3	0.00445153	10	-0.000894205
2	0	0	1	0	3680.6	-0.0295593	-0.0299107	-35.5397	3	0.00121929	10	0.00106302
2	0	0	1	0	3680.68	-0.0775514	-0.0779015	-37.8918	3	-0.0016774	10	0.00295183
2	1	0	1	1	3680.75	-0.0787554	-0.0792175	3.81475	3	-0.00366008	10	-0.000302195
2	1	0	1	1	3680.83	-0.0307579	-0.031128	30.538	3	-0.00195065	10	-0.000950587
2	1	0	1	0	4911.2	0.0138882	0.0136254	25.8326	4	0.000558817	10	0.00035198
2	1	0	1	0	4911.28	0.061883	0.061595	30.6404	4	0.00285433	10	0.00188729
2	1	0	1	0	4911.36	0.109881	0.109527	39.6513	4	0.00560834	10	0.00434291
2	1	0	1	0	4911.44	0.157884	0.157542	55.6941	4	0.00936548	10	0.00877414
2	1	0	1	0	4911.52	0.205887	0.205597	68.8866	4	0.0145517	10	0.0141629
2	1	0	1	0	4911.6	0.253887	0.253625	29.3617	4	0.0185255	10	0.00744687
2	1	0	1	0	4911.68	0.300012	0.299689	22.046	4	0.0203846	10	0.00660694
2	0	0	1	0	4911.76	0.253649	0.25333	-12.8432	4	0.020018	10	-0.00325358
2	0	0	1	0	4911.84	0.205645	0.20532	-17.2869	4	0.0188121	10	-0.00354935
2	0	0	1	0	4911.92	0.157645	0.157374	-26.7886	4	0.0171276	10	-0.00421584
2	0	0	1	0	4912	0.109642	0.109427	-52.8176	4	0.0140183	10	-0.00577966
2	0	0	1	0	4912.08	0.0616389	0.0613203	-65.5041	4	0.00902993	10	-0.00401674
2	0	0	1	0	4912.16	0.0136468	0.0133444	-48.8363	4	0.00440882	10	-0.00065169
2	0	0	1	0	4912.24	-0.0343535	-0.0346687	-36.0708	4	0.00115963	10	0.00125053
2	0	0	1	0	4912.32	-0.0823567	-0.0826797	-38.3749	4	-0.00177976	10	0.00317283
2	1	0	1	1	4912.39	-0.0739557	-0.0744202	8.03877	4	-0.00343466	10	-0.000598247
2	1	0	1	1	4912.47	-0.0259553	-0.0263127	30.1614	4	-0.00163072	10	-0.00079363
2	1	0	1	0	6142.84	0.0186824	0.0183527	26.5177	5	0.000773587	10	0.000486671
2	1	0	1	0	6142.92	0.0666828	0.0663329	31.246	5	0.00309274	10	0.00207264
2	1	0	1	0	6143	0.114686	0.114358	41.1984	5	0.00594499	10	0.00471135
2	1	0	1	0	6143.08	0.162689	0.162365	57.133	5	0.00982492	10	0.00927643
2	1	0	1	0	6143.16	0.210681	0.210382	65.2996	5	0.0149879	10	0.0137378
2	1	0	1	0	6143.24	0.258681	0.258391	28.6464	5	0.0186424	10	0.00740195
2	1	0	1	0	6143.31	0.296846	0.296688	13.7256	5	0.020436	10	0.00407224
2	0	0	1	0	6143.39	0.248843	0.248537	-13.0103	5	0.0199365	10	-0.00323355
2	0	0	1	0	6143.47	0.200843	0.200554	-17.532	5	0.0187147	10	-0.00351612
2	0	0	1	0	6143.55	0.152845	0.152596	-27.3939	5	0.0170014	10	-0.0041802
2	0	0	1	0	6143.63	0.104848	0.104652	-52.8634	5	0.0138421	10	-0.00553224
2	0	0	1	0	6143.71	0.0568446	0.0565538	-63.3047	5	0.00895308	10	-0.00358012
2	0	0	1	0	6143.79	0.00884431	0.00853119	-48.9667	5	0.00442052	10	-0.000417744
2	0	0	1	0	6143.87	-0.0391588	-0.0395233	-36.8067	5	0.00112255	10	0.00145472
2	0	0	1	0	6143.95	-0.0871592	-0.0874865	-38.7319	5	-0.00185688	10	0.00338852
2	1	0	1	1	6144.02	-0.0691532	-0.0696219	10.6954	5	-0.00317149	10	-0.000744632
2	1	0	1	1	6144.1	-0.0211611	-0.0215547	29.5159	5	-0.00133822	10	-0.000636206
2	1	0	1	0	7374.47	0.023485	0.0231447	27.5536	6	0.000999742	10	0.000637719
2	1	0	1	0	7374.55	0.0714881	0.0711047	32.7154	6	0.00339935	10	0.00232622
2	1	0	1	0	7374.63	0.11948	0.119172	43.6796	6	0.00642005	10	0.00520538
2	1	0	1	0	7374.71	0.167483	0.167165	60.1733	6	0.0105291	10	0.0100589
2	1	0	1	0	7374.79	0.215484	0.215229	60.1202	6	0.0157261	10	0.0129396
2	1	0	1	0	7374.87	0.263487	0.26324	25.4737	6	0.0188888	10	0.00670569
2	1	0	1	0	7374.95	0.292041	0.291833	3.83107	6	0.0204433	10	0.00111803
2	0	0	1	0	7375.03	0.244041	0.243768	-14.1613	6	0.0196962	10	-0.00345206
2	0	0	1	0	7375.11	0.196049	0.195777	-18.2052	6	0.0184065	10	-0.00356416
2	0	0	1	0	7375.19	0.148046	0.147749	-28.7486	6	0.0166221	10	-0.00424757
2	0	0	1	0	7375.27	0.100042	0.0998576	-54.5819	6	0.0133152	10	-0.00545042
2	0	0	1	0	7375.35	0.0520421	0.05173	-62.6249	6	0.00838314	10	-0.00323959
2	0	0	1	0	7375.43	0.00404455	0.00372225	-48.1597	6	0.00390755	10	-0.000179262
2	0	0	1	0	7375.51	-0.043953	-0.0443449	-36.6416	6	0.000651823	10	0.00162487
2	0	0	1	0	7375.59	-0.0919534	-0.0923114	-39.0815	6	-0.00233691	10	0.00360767
2	1	0	1	1	7375.66	-0.0643589	-0.0648818	14.9363	6	-0.00321975	10	-0.000969092
2	1	0	1	1	7375.74	-0.0163558	-0.0167542	30.9049	6	-0.00118759	10	-0.000517786
2	1	0	1	0	8606.11	0.0282792	0.02796	27.0488	7	0.00118017	10	0.000756283
2	1	0	1	0	8606.19	0.0762823	0.0759349	32.8233	7	0.00355141	10	0.00249244
2	1	0	1	0	8606.27	0.124285	0.123948	43.8151	7	0.00659337	10	0.00543079
2	1	0	1	0	8606.35	0.172286	0.171937	59.5017	7	0.0106958	10	0.0102305
2	1	0	1	0	8606.43	0.220289	0.220029	53.6932	7	0.0156409	10	0.0118141
2	1	0	1	0	8606.51	0.268281	0.267965	25.3256	7	0.0185121	10	0.00678638
2	1	0	1	0	8606.58	0.287247	0.286995	-0.171654	7	0.0199378	10	-4.92639e-05
2	0	0	1	0	8606.66	0.239247	0.238929	-13.5458	7	0.0191795	10	-0.00323649
2	0	0	1	0	8606.74	0.191243	0.190994	-17.7907	7	0.0179306	10	-0.00339793
2	0	0	1	0	8606.82	0.14324	0.142994	-28.6061	7	0.0161708	10	-0.0040905
2	0	0	1	0	8606.9	0.0952427	0.0949978	-52.9827	7	0.0129082	10	-0.00503324
2	0	0	1	0	8606.98	0.0472479	0.0469221	-59.1394	7	0.0082036	10	-0.00277495
2	0	0	1	0	8607.06	-0.000755207	-0.0011376	-46.8093	7	0.00391827	10	5.325e-05
2	0	0	1	0	8607.14	-0.0487556	-0.0491104	-36.6789	7	0.000700706	10	0.00180132
2	0	0	1	0	8607.22	-0.0967587	-0.0971161	-38.8761	7	-0.00228235	10	0.00377549
2	1	0	1	1	8607.3	-0.0595536	-0.0599997	15.7093	7	-0.00280779	10	-0.000942555
2	1	0	1	1	8607.38	-0.0115505	-0.0118816	29.265	7	-0.000848472	10	-0.000347717
2	1	0	1	0	9837.75	0.0330845	0.0327572	28.4422	8	0.00144602	10	0.000931687
2	1	0	1	0	9837.83	0.0810876	0.0807682	35.039	8	0.00395276	10	0.00283004
2	1	0	1	0	9837.91	0.129088	0.128734	46.5055	8	0.00719438	10	0.00598682
2	1	0	1	0	9837.99	0.17708	0.176761	62.1341	8	0.0115347	10	0.0109829
2	1	0	1	0	9838.07	0.225083	0.224821	48.0372	8	0.0163914	10	0.0107998
2	1	0	1	0	9838.15	0.273083	0.27277	24.1629	8	0.0189956	10	0.00659089
2	0	0	1	0	9838.22	0.282444	0.28216	-4.66529	8	0.0201693	10	-0.00131636
2	0	0	1	0	9838.3	0.234441	0.234128	-14.8031	8	0.0192461	10	-0.00346582
2	0	0	1	0	9838.38	0.186444	0.186122	-18.8592	8	0.0179095	10	-0.00351011
2	0	0	1	0	9838.46	0.138446	0.138191	-30.667	8	0.016036	10	-0.00423792
2	0	0	1	0	9838.54	0.0904457	0.0902249	-55.1637	8	0.0125804	10	-0.00497714
2	0	0	1	0	9838.62	0.0424426	0.0421896	-59.2856	8	0.00779332	10	-0.00250123
2	0	0	1	0	9838.7	-0.00555774	-0.00592427	-46.7522	8	0.00350316	10	0.000276973
2	0	0	1	0	9838.78	-0.0535498	-0.053913	-37.1827	8	0.000268221	10	0.00200463
2	0	0	0	0	9838.86	-0.0999548	-0.100324	-39.6377	8	-0.00266461	10	0.0039766
2	1	0	1	1	9838.93	-0.0547594	-0.0552046	19.0769	8	-0.00282908	10	-0.00105313
2	1	0	1	1	9839.01	-0.00675629	-0.00712677	30.778	8	-0.0006912	10	-0.000219348
2	1	0	0	1	9839.03	2.44065e-05	-0.000268062	30.9828	8	-0.00033513	10	-8.30531e-06