File: Figure_codes/Fig_3-5/rawdata_trumpetplot_data/before 10th/20221101_1-115_002_TrumpetPlot_ParaChange_15_CV_C01_3.csv
mode,ox/red,error,control changes,counter inc.,time/s,control/V,Ewe/V,<I>/mA,cycle number,(Q-Qo)/C,I Range,P/W,log(|I|),Tafel slope mV/dec,alpha_eff,dI/d(E-IR),E-IR/V,
2,1,0,0,0,4912.61,2.44065e-05,-0.00091703,32.9227,4,0.0000000E+000,10,-3.01912e-05,-1.4825, , , ,-0.0009170305,
2,1,0,1,0,4912.63,0.0121015,0.0117357,33.9683,4,0.000497283,10,0.000398643,-1.46893,0.383577,0.153815,203.741,0.0117357,
2,1,0,1,0,4912.64,0.0249027,0.0245773,36.2784,4,0.00106095,10,0.000891625,-1.44035,0.587069,0.100499,141.827,0.0245773,
2,1,0,1,0,4912.66,0.0377094,0.0373605,37.7148,4,0.00165388,10,0.00140904,-1.42349,0.978025,0.0603257,88.6197,0.0373605,
2,1,0,1,0,4912.68,0.0505051,0.0501331,38.6838,4,0.00226534,10,0.00193934,-1.41247,1.20504,0.0489609,73.9154,0.0501331,
2,1,0,1,0,4912.69,0.0633063,0.0629958,39.6869,4,0.00289203,10,0.00250011,-1.40135,0.995443,0.0592701,91.934,0.0629958,
2,1,0,1,0,4912.71,0.0761019,0.0757164,41.1233,4,0.00353801,10,0.00311371,-1.38591,0.669298,0.0881521,141.852,0.0757164,
2,1,0,1,0,4912.72,0.0889087,0.0885558,43.364,4,0.00421305,10,0.00384013,-1.36287,0.496223,0.118898,201.475,0.0885558,
2,1,0,1,0,4912.74,0.101702,0.101305,46.2119,4,0.00492932,10,0.0046815,-1.33525,0.417448,0.141335,255.576,0.101305,
2,1,0,1,0,4912.76,0.114506,0.114175,49.9037,4,0.00569789,10,0.00569777,-1.30187,0.378096,0.156045,303.972,0.114175,
2,1,0,1,0,4912.77,0.127301,0.12698,53.9501,4,0.00652881,10,0.00685057,-1.26801,0.373142,0.158117,333.2,0.12698,
2,1,0,1,0,4912.79,0.140105,0.13973,58.4695,4,0.00742811,10,0.00816994,-1.23307,0.35875,0.16446,375.672,0.13973,
2,1,0,1,0,4912.8,0.152904,0.15257,63.6344,4,0.00840453,10,0.00970873,-1.19631,0.339276,0.1739,432.237,0.15257,
2,1,0,1,0,4912.82,0.165705,0.165366,69.5306,4,0.00946956,10,0.011498,-1.15782,0.331501,0.177978,482.98,0.165366,
2,1,0,1,0,4912.84,0.178506,0.178134,75.8485,4,0.010633,10,0.0135112,-1.12005,0.356961,0.165284,488.737,0.178134,
2,1,0,1,0,4912.85,0.191302,0.190996,81.8517,4,0.0118963,10,0.0156334,-1.08697,0.439722,0.134176,427.542,0.190996,
2,1,0,1,0,4912.87,0.204108,0.203755,86.3014,4,0.0132455,10,0.0175844,-1.06398,0.904111,0.0652575,218.525,0.203755,
2,1,0,1,0,4912.88,0.216904,0.216618,86.7191,4,0.0146373,10,0.0187849,-1.06189,-0.926951,-0.0636495,-213.223,0.216618,
2,1,0,1,0,4912.9,0.229705,0.229415,80.384,4,0.0159832,10,0.0184413,-1.09483,-0.237176,-0.24876,-771.197,0.229415,
2,1,0,1,0,4912.92,0.242501,0.242281,67.6508,4,0.0171725,10,0.0163905,-1.16973,-0.137845,-0.428016,-1121.69,0.242281,
2,1,0,1,0,4912.93,0.255308,0.255079,52.9498,4,0.018135,10,0.0135064,-1.27614,-0.114363,-0.515901,-1068.56,0.255079,
2,1,0,1,0,4912.95,0.268101,0.267862,41.2121,4,0.0188812,10,0.0110392,-1.38498,-0.130408,-0.452425,-735.769,0.267862,
2,1,0,1,0,4912.96,0.280905,0.280622,34.2216,4,0.0194783,10,0.00960334,-1.4657,-0.203248,-0.290285,-391.888,0.280622,
2,1,0,1,0,4912.98,0.2937,0.293437,30.6683,4,0.0199939,10,0.00899921,-1.51331,-0.36416,-0.162017,-195.517,0.293437,
2,1,0,1,0,4912.99,0.298983,0.298981,26.4189,4,0.0202673,10,0.00789873,-1.57809,0.0145508,4.05475,2868.71,0.298981,
2,1,0,1,0,4913,0.286187,0.285985,0.0950197,4,0.0204424,10,2.71743e-05,-4.02219,0.0607119,0.971802,1257.67,0.285985,
2,0,0,1,0,4913.02,0.273386,0.273122,-10.1798,4,0.0203488,10,-0.00278031,-1.99226,-0.0399334,-1.47746,525.168,0.273122,
2,0,0,1,0,4913.04,0.260585,0.260331,-14.7607,4,0.0201444,10,-0.00384268,-1.83089,-0.130592,-0.451788,254.763,0.260331,
2,0,0,1,0,4913.05,0.247783,0.247532,-17.2034,4,0.0198867,10,-0.0042584,-1.76439,-0.259316,-0.227522,151.79,0.247532,
2,0,0,1,0,4913.07,0.234982,0.234723,-18.8923,4,0.0195973,10,-0.00443446,-1.72372,-0.368564,-0.160081,117.642,0.234723,
2,0,0,1,0,4913.08,0.222187,0.221952,-20.3073,4,0.0192835,10,-0.00450723,-1.69235,-0.419831,-0.140533,111.319,0.221952,
2,0,0,1,0,4913.1,0.20938,0.209166,-21.7425,4,0.018947,10,-0.00454781,-1.66269,-0.421063,-0.140121,119.069,0.209166,
2,0,0,1,0,4913.12,0.196587,0.196358,-23.4008,4,0.0185858,10,-0.00459494,-1.63077,-0.372232,-0.158503,145.114,0.196358,
2,0,0,1,0,4913.13,0.183783,0.183564,-25.5235,4,0.0181949,10,-0.0046852,-1.59306,-0.308697,-0.191126,190.942,0.183564,
2,0,0,1,0,4913.15,0.170987,0.17074,-28.3823,4,0.0177646,10,-0.00484601,-1.54695,-0.248015,-0.237889,264.576,0.1707405,
2,0,0,1,0,4913.16,0.158183,0.157967,-32.4104,4,0.0172796,10,-0.00511978,-1.48931,-0.201963,-0.292133,371.071,0.157967,
2,0,0,1,0,4913.18,0.145385,0.145109,-37.9428,4,0.0167182,10,-0.00550586,-1.42087,-0.176168,-0.334908,497.631,0.145109,
2,0,0,1,0,4913.2,0.132584,0.132389,-45.1567,4,0.0160547,10,-0.00597825,-1.34528,-0.16778,-0.35165,620.179,0.132389,
2,0,0,1,0,4913.21,0.119783,0.119571,-53.5589,4,0.015265,10,-0.00640407,-1.27117,-0.184202,-0.320301,667.744,0.1195706,
2,0,0,1,0,4913.23,0.106987,0.10684,-62.1436,4,0.0143391,10,-0.00663944,-1.2066,-0.21423,-0.275405,665.612,0.10684,
2,0,0,1,0,4913.24,0.0941801,0.0940487,-70.1455,4,0.0132787,10,-0.0065971,-1.154,-0.277219,-0.212828,581.014,0.0940487,
2,0,0,1,0,4913.26,0.0813844,0.0811754,-76.9001,4,0.012099,10,-0.0062424,-1.11407,-0.397137,-0.148563,444.003,0.0811754,
2,0,0,1,0,4913.28,0.0685832,0.0683551,-81.3289,4,0.010829,10,-0.00555924,-1.08976,-0.804479,-0.0733394,231.657,0.0683551,
2,0,0,1,0,4913.29,0.0557876,0.055504,-82.6915,4,0.0095122,10,-0.00458971,-1.08254,7.7761,0.00758735,-24.3633,0.055504,
2,0,0,1,0,4913.31,0.0429808,0.0427304,-80.8572,4,0.00820027,10,-0.00345506,-1.09228,0.783788,0.0752755,-236.756,0.0427304,
2,0,0,1,0,4913.32,0.030188,0.0299069,-77.0008,4,0.0069362,10,-0.00230285,-1.1135,0.525151,0.112349,-337.199,0.0299069,
2,0,0,1,0,4913.34,0.017384,0.0170855,-72.4134,4,0.00574053,10,-0.00123722,-1.14018,0.438951,0.134411,-379.38,0.0170855,
2,0,0,1,0,4913.36,0.00458834,0.00431289,-67.1806,4,0.0046229,10,-0.000289743,-1.17276,0.356829,0.165345,-432.948,0.00431289,
2,0,0,1,0,4913.37,-0.00821564,-0.00857317,-61.274,4,0.00359461,10,0.000525312,-1.21272,0.29667,0.198874,-475.325,-0.00857317,
2,0,0,1,0,4913.39,-0.0210196,-0.0213723,-55.5307,4,0.00266232,10,0.00118682,-1.25547,0.326716,0.180585,-392.567,-0.0213723,
2,0,0,1,0,4913.4,-0.0338153,-0.0341714,-51.4894,4,0.00180934,10,0.00175946,-1.28828,0.510737,0.115519,-233.17,-0.0341714,
2,0,0,1,0,4913.42,-0.0466193,-0.046944,-49.3906,4,0.00100467,10,0.00231859,-1.30636,1.09345,0.0539577,-104.384,-0.046944,
2,0,0,1,0,4913.44,-0.0594121,-0.0597336,-48.7022,4,0.000221312,10,0.00290915,-1.31245,8.25152,0.0071502,-13.6235,-0.0597336,
2,0,0,1,0,4913.45,-0.0722189,-0.0725316,-48.9483,4,-0.000559028,10,0.0035503,-1.31026,-2.67128,-0.0220868,42.2398,-0.0725316,
2,0,0,1,0,4913.47,-0.0850146,-0.0853021,-49.7361,4,-0.00134791,10,0.00424259,-1.30333,-1.4376,-0.0410405,79.7374,-0.0853021,
2,0,0,1,0,4913.48,-0.0978158,-0.0981701,-50.9417,4,-0.00215311,10,0.00500095,-1.29293,-1.08548,-0.0543539,108.153,-0.0981701,
2,0,0,1,0,4913.5,-0.110611,-0.110884,-52.4581,4,-0.00298029,10,0.00581679,-1.28019,-0.914687,-0.0645029,132.214,-0.110884,
2,0,0,1,0,4913.52,-0.123418,-0.123728,-54.3439,4,-0.00383472,10,0.00672387,-1.26485,-0.79482,-0.0742306,157.521,-0.123728,
2,0,0,1,0,4913.53,-0.136214,-0.136507,-56.5078,4,-0.00472139,10,0.00771371,-1.24789,-0.727053,-0.0811495,179.019,-0.136507,
2,0,0,1,0,4913.55,-0.149015,-0.149339,-58.9125,4,-0.00564481,10,0.00879793,-1.22979,-0.693951,-0.0850204,195.502,-0.149339,
2,0,0,1,0,4913.56,-0.161816,-0.162087,-61.4768,4,-0.00660809,10,0.0099646,-1.21129,-0.685433,-0.086077,206.554,-0.162087,
2,0,0,1,0,4913.58,-0.174615,-0.174887,-64.1562,4,-0.00761351,10,0.0112201,-1.19276,-0.690647,-0.0854271,213.966,-0.1748874,
2,0,0,1,0,4913.6,-0.187419,-0.187671,-66.9947,4,-0.00866296,10,0.0125729,-1.17396,-0.676669,-0.0871918,228.026,-0.1876706,
2,0,0,1,0,4913.61,-0.199647,-0.19996,-69.8916,4,-0.00971027,10,0.0139755,-1.15557,0.424031,0.139141,-366.551,-0.19996,
2,0,0,1,1,4913.62,-0.192535,-0.192996,-49.6404,4,-0.0103136,10,0.00958041,-1.30416,-0.048369,-1.21979,2369.11,-0.192996,
2,0,0,1,1,4913.64,-0.179739,-0.180153,-24.6228,4,-0.0108941,10,0.00443588,-1.60866,-0.0329975,-1.78801,1663.93,-0.1801534,
2,0,0,1,1,4913.65,-0.166932,-0.167348,-6.11657,4,-0.0111315,10,0.0010236,-2.21349,-0.0125931,-4.6851,1271.71,-0.167348,
2,1,0,1,1,4913.67,-0.154139,-0.154628,8.1074,4,-0.0111096,10,-0.00125363,-2.09112,0.012922,4.56584,984.207,-0.154628,
2,1,0,1,1,4913.69,-0.141335,-0.141816,19.3382,4,-0.0108857,10,-0.00274248,-1.71358,0.0546505,1.07959,783.251,-0.141816,
2,1,0,1,1,4913.7,-0.12854,-0.128926,28.2447,4,-0.0105011,10,-0.00364148,-1.54906,0.105559,0.55893,606.142,-0.128926,
2,1,0,1,1,4913.72,-0.115736,-0.11607,35.0618,4,-0.00999162,10,-0.00406961,-1.45517,0.172454,0.342121,464.113,-0.1160698,
2,1,0,1,1,4913.73,-0.102932,-0.103261,40.2321,4,-0.00938686,10,-0.00415442,-1.39543,0.263524,0.223888,349.694,-0.103261,
2,1,0,1,1,4913.75,-0.0901362,-0.0904684,44.0557,4,-0.00871048,10,-0.00398565,-1.356,0.395115,0.149323,255.945,-0.0904684,
2,1,0,1,1,4913.77,-0.0773322,-0.0776746,46.8517,4,-0.0079816,10,-0.00363919,-1.32927,0.590827,0.09986,182.127,-0.07767459,
2,1,0,1,1,4913.78,-0.0645393,-0.0648606,48.8056,4,-0.00721528,10,-0.00316556,-1.31153,0.886581,0.0665478,126.514,-0.0648606,
2,1,0,1,1,4913.8,-0.0517325,-0.0520774,50.1334,4,-0.00642294,10,-0.00261082,-1.29987,1.38047,0.0427392,83.5008,-0.0520774,
2,1,0,1,1,4913.81,-0.0389369,-0.0392571,50.9297,4,-0.00561364,10,-0.00199935,-1.29303,2.52688,0.023349,46.3761,-0.0392571,
2,1,0,1,1,4913.83,-0.0261357,-0.026529,51.3131,4,-0.00479494,10,-0.00136129,-1.28977,9.24424,0.00638235,12.7713,-0.026529,
2,1,0,1,1,4913.85,-0.01334,-0.0136928,51.2746,4,-0.00397362,10,-0.000702093,-1.2901,-7.0151,-0.00841043,-16.821,-0.0136928,
2,1,0,1,1,4913.86,-0.000774628,-0.00116994,50.9191,4,-0.00317094,10,-5.95721e-05,-1.29312, , , ,-0.00116994,
2,1,0,0,1,4913.86,-0.000125413,-0.000516197,50.9104,4,-0.00313021,10,-2.62798e-05,-1.29319, , , ,-0.000516197,