File: Figure_codes/Fig_3-5/rawdata_trumpetplot_data/before 10th/20221101_1-115_002_TrumpetPlot_ParaChange_05_CV_C01_6.csv
mode,ox/red,error,control changes,counter inc.,time/s,control/V,Ewe/V,<I>/mA,cycle number,(Q-Qo)/C,I Range,P/W,log(|I|),Tafel slope mV/dec,alpha_eff,dI/d(E-IR),E-IR/V,
2,0,0,1,0,8348.66,2.44065e-05,-0.000306236,-0.0273888,7,0.0000000E+000,11,8.38744e-09,-4.56243, , , ,-0.000306236,
2,1,0,1,0,8350.11,0.00729041,0.0069628,0.20677,7,0.000284352,11,1.4397e-06,-3.68451,0.106381,0.554609,4.42731,0.0069628,
2,1,0,1,0,8351.61,0.0147815,0.0144641,0.230611,7,0.000639229,11,3.33558e-06,-3.63712,0.21219,0.278052,2.50475,0.0144641,
2,1,0,1,0,8353.11,0.0222725,0.021955,0.247053,7,0.001023,11,5.42405e-06,-3.60721,0.268384,0.219834,2.11544,0.021955,
2,1,0,1,0,8354.6,0.0297635,0.0294678,0.263458,7,0.00143081,11,7.76354e-06,-3.57929,0.272534,0.216487,2.22587,0.0294678,
2,1,0,1,0,8356.1,0.0372545,0.0369416,0.283009,7,0.00186537,11,1.04548e-05,-3.5482,0.243044,0.242755,2.68572,0.0369416,
2,1,0,1,0,8357.6,0.0447456,0.0444303,0.307589,7,0.00233272,11,1.36663e-05,-3.51203,0.190181,0.310232,3.71225,0.0444303,
2,1,0,1,0,8359.1,0.0522367,0.0519171,0.336453,7,0.00284105,11,1.74676e-05,-3.47308,0.148793,0.396524,5.19595,0.0519171,
2,1,0,1,0,8360.6,0.0597277,0.0594174,0.372046,7,0.00339761,11,2.2106e-05,-3.4294,0.177112,0.333123,4.82001,0.0594174,
2,1,0,1,0,8362.1,0.0672187,0.0669442,0.406975,7,0.00400538,11,2.72446e-05,-3.39043,0.20715,0.284818,4.48939,0.0669442,
2,1,0,1,0,8363.59,0.0747092,0.0743687,0.435737,7,0.00466152,11,3.24052e-05,-3.36078,0.27027,0.218301,3.71076,0.0743687,
2,1,0,0,0,8365.09,0.0822001,0.0818689,0.459552,7,0.00536086,11,3.7623e-05,-3.33767,0.288507,0.204501,3.69057,0.0818689,
2,1,0,1,0,8366.59,0.0896911,0.0893957,0.487904,7,0.00609888,11,4.36165e-05,-3.31167,0.274958,0.214578,4.09948,0.0893957,
2,1,0,0,0,8368.09,0.097182,0.0968874,0.518153,7,0.00687861,11,5.02025e-05,-3.28554,0.20144,0.292891,5.92902,0.0968874,
2,1,0,1,0,8369.59,0.104673,0.104405,0.566233,7,0.00771368,11,5.91174e-05,-3.247,0.187258,0.315074,6.93677,0.104405,
2,1,0,0,0,8371.08,0.112164,0.111897,0.626366,7,0.00863081,11,7.00888e-05,-3.20317,0.164493,0.358678,8.76757,0.1118975,
2,1,0,1,0,8372.58,0.119655,0.119368,0.699446,7,0.00965223,11,8.34915e-05,-3.15525,0.187624,0.314459,8.60108,0.119368,
2,1,0,0,0,8374.08,0.127146,0.126804,0.760525,7,0.0107771,11,9.64374e-05,-3.11889,0.223816,0.26361,7.85981,0.126804,
2,1,0,1,0,8375.58,0.134637,0.134343,0.814604,7,0.0119904,11,0.000109436,-3.08905,0.466939,0.126355,4.01806,0.134343,
2,1,0,1,0,8377.08,0.142127,0.141805,0.821226,7,0.0132505,11,0.000116454,-3.08554,-0.565658,-0.104303,-3.32179,0.141805,
2,1,0,1,0,8378.58,0.149618,0.149308,0.740066,7,0.014457,11,0.000110498,-3.13073,-0.0995333,-0.592766,-17.0152,0.1493082,
2,1,0,1,0,8380.07,0.157109,0.156786,0.594534,7,0.0154841,11,9.32148e-05,-3.22582,-0.0672766,-0.876976,-20.3579,0.156786,
2,1,0,1,0,8381.57,0.1646,0.16433,0.474087,7,0.0163038,11,7.79067e-05,-3.32414,-0.0855141,-0.689945,-12.7772,0.16433,
2,1,0,1,0,8383.07,0.172091,0.171818,0.398615,7,0.0169788,11,6.84892e-05,-3.39945,-0.126268,-0.46726,-7.32597,0.171818,
2,1,0,1,0,8384.57,0.179582,0.179306,0.358112,7,0.0175704,11,6.42114e-05,-3.44598,-0.199777,-0.295329,-4.14768,0.179306,
2,1,0,1,0,8386.07,0.187074,0.18676,0.334124,7,0.0181129,11,6.24012e-05,-3.47609,-0.329357,-0.179137,-2.32015,0.18676,
2,1,0,1,0,8387.56,0.194564,0.194278,0.315981,7,0.0186241,11,6.13883e-05,-3.50034,-0.440469,-0.133948,-1.65475,0.1942784,
2,1,0,1,0,8389.06,0.202056,0.201759,0.304194,7,0.0191141,11,6.13737e-05,-3.51685,-0.452038,-0.13052,-1.54428,0.201759,
2,1,0,1,0,8390.56,0.209547,0.209253,0.295197,7,0.0195891,11,6.17709e-05,-3.52989,-0.577188,-0.10222,-1.17854,0.209253,
2,1,0,1,0,8392.06,0.217038,0.216721,0.288336,7,0.0200517,11,6.24884e-05,-3.5401,-0.788943,-0.0747836,-0.842483,0.216721,
2,1,0,1,0,8393.56,0.224529,0.224251,0.283419,7,0.0205057,11,6.35571e-05,-3.54757,-0.864952,-0.0682119,-0.753331,0.224251,
2,1,0,1,0,8395.06,0.232019,0.231695,0.279004,7,0.020952,11,6.46438e-05,-3.55439,-0.834533,-0.0706982,-0.768105,0.231695,
2,1,0,0,0,8396.55,0.23951,0.239205,0.274976,7,0.0213922,11,6.57756e-05,-3.5607,-1.17855,-0.0500614,-0.537,0.2392046,
2,1,0,1,0,8398.05,0.247001,0.246713,0.272553,7,0.0218272,11,6.72425e-05,-3.56455,-0.963367,-0.0612435,-0.649205,0.246713,
2,1,0,0,0,8399.55,0.254492,0.254227,0.268524,7,0.0222578,11,6.82661e-05,-3.57102,-1.6838,-0.0350398,-0.367589,0.254227,
2,1,0,1,0,8401.05,0.261983,0.261679,0.266309,7,0.0226843,11,6.96874e-05,-3.57461,-1.0891,-0.054173,-0.561265,0.261679,
2,1,0,0,0,8402.55,0.269474,0.26916,0.263959,7,0.0231074,11,7.10473e-05,-3.57846,1.86207,0.0316851,0.325824,0.26916,
2,1,0,1,0,8404.04,0.276965,0.276727,0.261622,7,0.0235272,11,7.23978e-05,-3.58233,-1.61861,-0.0364509,-0.373,0.276727,
2,1,0,0,0,8405.54,0.284456,0.284187,0.260624,7,0.0239442,11,7.4066e-05,-3.58399,-1.6084,-0.0366823,-0.371275,0.284187,
2,1,0,1,0,8407.04,0.291947,0.291629,0.256958,7,0.024358,11,7.49365e-05,-3.59014,-1.58147,-0.037307,-0.376925,0.291629,
2,1,0,1,0,8408.54,0.299437,0.299112,0.254513,7,0.0247689,11,7.61279e-05,-3.59429,-0.00181463,-32.5134,-128.343,0.299112,
2,0,0,1,0,8409.91,0.293744,0.293466,-0.0288421,7,0.0247773,11,-8.4642e-06,-4.53997,-0.0105559,-5.58931,5.584,0.293466,
2,0,0,1,0,8411.41,0.286253,0.285947,-0.0577386,7,0.0246842,11,-1.65102e-05,-4.23853,-0.0439414,-1.3427,3.01469,0.2859467,
2,0,0,0,0,8412.9,0.278763,0.278473,-0.0770079,7,0.0245562,11,-2.14446e-05,-4.11346,-0.0865856,-0.681407,2.05109,0.278473,
2,0,0,1,0,8414.4,0.271272,0.27096,-0.0912152,7,0.0244027,11,-2.47156e-05,-4.03993,-0.129338,-0.45617,1.64597,0.27096,
2,0,0,0,0,8415.9,0.263781,0.263484,-0.105017,7,0.024228,11,-2.76702e-05,-3.97874,-0.155059,-0.380501,1.57137,0.263484,
2,0,0,1,0,8417.4,0.25629,0.25601,-0.117312,7,0.0240347,11,-3.00329e-05,-3.93066,-0.201087,-0.293405,1.33817,0.25601,
2,0,0,0,0,8418.9,0.248799,0.248469,-0.127895,7,0.0238248,11,-3.17779e-05,-3.89315,-0.272364,-0.216622,1.08358,0.248469,
2,0,0,1,0,8420.4,0.241308,0.240983,-0.139034,7,0.0235989,11,-3.35049e-05,-3.85688,-0.209395,-0.281765,1.52923,0.240983,
2,0,0,0,0,8421.89,0.233817,0.233523,-0.148555,7,0.0233577,11,-3.46909e-05,-3.82811,-0.218143,-0.270465,1.55917,0.233523,
2,0,0,1,0,8423.39,0.226326,0.226018,-0.15791,7,0.0231014,11,-3.56905e-05,-3.80159,-0.234157,-0.251967,1.55852,0.226018,
2,0,0,0,0,8424.89,0.218835,0.218554,-0.170123,7,0.0228294,11,-3.71811e-05,-3.76924,-0.256071,-0.230405,1.51922,0.218554,
2,0,0,1,0,8426.39,0.211344,0.211035,-0.179564,7,0.0225412,11,-3.78943e-05,-3.74578,-0.24216,-0.24364,1.71927,0.211035,
2,0,0,1,0,8427.89,0.203854,0.203495,-0.193307,7,0.022235,11,-3.93371e-05,-3.71375,-0.300783,-0.196155,1.48543,0.203495,
2,0,0,1,0,8429.38,0.196363,0.196071,-0.208213,7,0.0219089,11,-4.08245e-05,-3.68149,-0.205883,-0.28657,2.31546,0.196071,
2,0,0,1,0,8430.88,0.188871,0.188542,-0.225988,7,0.0215581,11,-4.26081e-05,-3.64592,-0.169034,-0.349042,3.07988,0.188542,
2,0,0,1,0,8432.38,0.181381,0.181114,-0.25033,7,0.0211761,11,-4.53382e-05,-3.60149,-0.139906,-0.421712,4.1215,0.181114,
2,0,0,1,0,8433.88,0.173889,0.173601,-0.284069,7,0.0207514,11,-4.93146e-05,-3.54658,-0.128172,-0.46032,5.11651,0.173601,
2,0,0,1,0,8435.38,0.166398,0.166089,-0.33689,7,0.0202635,11,-5.59535e-05,-3.47251,-0.092432,-0.638307,8.40647,0.166089,
2,0,0,1,0,8436.88,0.158907,0.158613,-0.417338,7,0.0196764,11,-6.6195e-05,-3.37951,-0.0675914,-0.872892,14.3359,0.158613,
2,0,0,1,0,8438.37,0.151416,0.151115,-0.546408,7,0.0189311,11,-8.25707e-05,-3.26248,-0.0653482,-0.902856,19.2933,0.151115,
2,0,0,1,0,8439.87,0.143925,0.14361,-0.696819,7,0.0179716,11,-0.00010007,-3.15688,-0.0823179,-0.716734,19.4016,0.14361,
2,0,0,1,0,8441.37,0.136434,0.136137,-0.809115,7,0.016809,11,-0.000110151,-3.09199,-0.186136,-0.316972,9.93813,0.136137,
2,0,0,1,0,8442.87,0.128943,0.128632,-0.842458,7,0.0155374,11,-0.000108367,-3.07445,2.01342,0.0293033,-0.958454,0.128632,
2,0,0,0,0,8444.37,0.121453,0.121195,-0.818829,7,0.0142622,11,-9.92381e-05,-3.08681,0.301407,0.195749,-6.23818,0.121195,
2,0,0,1,0,8445.86,0.113962,0.113625,-0.762342,7,0.0130474,11,-8.66211e-05,-3.11785,0.227,0.259912,-7.75388,0.113625,
2,0,0,0,0,8447.36,0.106471,0.106204,-0.702235,7,0.0119223,11,-7.45803e-05,-3.15352,0.211914,0.278415,-7.65125,0.106204,
2,0,0,1,0,8448.86,0.0989799,0.0987166,-0.647497,7,0.0108874,11,-6.39187e-05,-3.18876,0.294571,0.200291,-5.05455,0.0987166,
2,0,0,0,0,8450.36,0.0914889,0.0911899,-0.611169,7,0.00992315,11,-5.57325e-05,-3.21384,0.328004,0.179876,-4.27657,0.0911899,
2,0,0,1,0,8451.86,0.083998,0.0837119,-0.580893,7,0.00900776,11,-4.86276e-05,-3.2359,0.326891,0.180489,-4.07762,0.0837119,
2,0,0,0,0,8453.36,0.076507,0.0761915,-0.558242,7,0.00812972,11,-4.25333e-05,-3.25318,0.430428,0.137073,-2.97988,0.0761915,
2,0,0,1,0,8454.85,0.0690161,0.0687347,-0.529195,7,0.0072878,11,-3.6374e-05,-3.27638,0.365065,0.161615,-3.35665,0.0687347,
2,0,0,0,0,8456.35,0.0615251,0.0612196,-0.502809,7,0.0064853,11,-3.07817e-05,-3.2986,0.285609,0.206576,-4.0658,0.06121961,
2,0,0,1,0,8457.85,0.0540342,0.05373,-0.474005,7,0.00572738,11,-2.54683e-05,-3.32422,0.301868,0.195449,-3.60479,0.05373,
2,0,0,1,0,8459.35,0.0465436,0.0462503,-0.445423,7,0.00501354,11,-2.06009e-05,-3.35123,0.343158,0.171933,-2.99061,0.04625028,
2,0,0,1,0,8460.85,0.0390526,0.0387235,-0.42389,7,0.00433674,11,-1.64145e-05,-3.37275,0.365276,0.161522,-2.67076,0.0387235,
2,0,0,1,0,8462.34,0.0315615,0.0312105,-0.410775,7,0.00368643,11,-1.28205e-05,-3.3864,0.714463,0.0825795,-1.3268,0.0312105,
2,0,0,1,0,8463.84,0.0240706,0.0237768,-0.403333,7,0.00305088,11,-9.58997e-06,-3.39434,-17.563,-0.00335933,0.0531844,0.0237768,
2,0,0,1,0,8465.34,0.0165795,0.016282,-0.4048,7,0.00241933,11,-6.59095e-06,-3.39276,-1.11874,-0.052738,0.8324,0.016282,
2,0,0,1,0,8466.84,0.00908846,0.00878364,-0.410123,7,0.00178344,11,-3.60237e-06,-3.38709,-0.862406,-0.0684132,1.0956,0.00878364,
2,0,0,1,0,8468.34,0.00159739,0.00129691,-0.420729,7,0.00113515,11,-5.45647e-07,-3.376, , , ,0.00129691,
2,0,0,0,0,8468.62,0.000199195,-0.000191712,-0.42091,7,0.00101256,11,8.06936e-08,-3.37581, , , ,-0.0001917123,