File: Figure_codes/Fig_3-5/rawdata_trumpetplot_data/before 10th/20221101_1-115_002_TrumpetPlot_ParaChange_11_CV_C01_6.csv
mode,ox/red,error,control changes,counter inc.,time/s,control/V,Ewe/V,<I>/mA,cycle number,(Q-Qo)/C,I Range,P/W,log(|I|),Tafel slope mV/dec,alpha_eff,dI/d(E-IR),E-IR/V,
2,0,0,1,0,8591.76,2.44065e-05,0.000609955,-7.47141,7,0.0000000E+000,11,-4.55723e-06,-2.1266, , , ,0.000609955,
2,1,0,1,0,8591.86,0.00978761,0.00946734,3.11534,7,-7.03955e-07,11,2.9494e-05,-2.50649,0.0310344,1.90111,221.493,0.00946734,
2,1,0,1,0,8591.96,0.0197755,0.0195022,4.04285,7,0.000370261,11,7.88447e-05,-2.39331,0.225824,0.261265,41.2508,0.0195022,
2,1,0,1,0,8592.06,0.0297635,0.029496,4.41061,7,0.000793787,11,0.000130095,-2.3555,0.309162,0.190838,32.8305,0.029496,
2,1,0,1,0,8592.16,0.0397514,0.0394448,4.80021,7,0.00125396,11,0.000189343,-2.31874,0.216454,0.272575,51.23,0.0394448,
2,1,0,1,0,8592.26,0.0497484,0.0494193,5.32893,7,0.00175955,11,0.000263352,-2.27336,0.214201,0.275443,57.1774,0.0494193,
2,1,0,1,0,8592.36,0.0597273,0.0593919,5.94659,7,0.00232157,11,0.00035318,-2.22573,0.205898,0.286549,66.4587,0.0593919,
2,1,0,1,0,8592.46,0.0697152,0.0694206,6.63194,7,0.00295051,11,0.000460393,-2.17836,0.234222,0.251898,65.2495,0.0694206,
2,1,0,1,0,8592.56,0.0797031,0.0794098,7.30367,7,0.00364788,11,0.000579983,-2.13646,0.259078,0.227731,64.9078,0.0794098,
2,1,0,1,0,8592.66,0.0896911,0.089395,7.90706,7,0.00440928,11,0.000706852,-2.10198,0.304923,0.193491,59.763,0.089395,
2,1,0,1,0,8592.76,0.099679,0.0993777,8.51546,7,0.00522859,11,0.000846246,-2.06979,0.307569,0.191827,63.659,0.0993777,
2,1,0,1,0,8592.86,0.109667,0.109373,9.2527,7,0.00611405,11,0.001012,-2.03373,0.232392,0.253881,91.8224,0.109373,
2,1,0,1,0,8592.96,0.119655,0.119388,10.3568,7,0.00709171,11,0.00123649,-1.98477,0.201011,0.293517,118.615,0.119388,
2,1,0,1,0,8593.06,0.129643,0.12936,11.6228,7,0.00818994,11,0.00150352,-1.93469,0.210058,0.280875,127.311,0.12936,
2,1,0,1,0,8593.16,0.139631,0.139344,12.7613,7,0.00941109,11,0.00177821,-1.89411,0.293717,0.200873,100.031,0.139344,
2,1,0,1,0,8593.26,0.149619,0.149298,13.5346,7,0.0107289,11,0.00202069,-1.86856,0.737512,0.0799987,42.1661,0.149298,
2,1,0,1,0,8593.36,0.159607,0.159319,13.1567,7,0.0120776,11,0.00209612,-1.88085,-0.207949,-0.283723,-145.151,0.159319,
2,1,0,1,0,8593.46,0.169595,0.169338,10.5314,7,0.0132793,11,0.00178338,-1.97751,-0.0693166,-0.851167,-348.676,0.169338,
2,1,0,1,0,8593.56,0.179582,0.179307,7.38784,7,0.0141636,11,0.00132469,-2.13148,-0.0735487,-0.80219,-232.591,0.179307,
2,1,0,1,0,8593.66,0.18957,0.189277,5.87764,7,0.0148163,11,0.0011125,-2.2308,-0.138048,-0.427388,-98.2088,0.189277,
2,1,0,1,0,8593.76,0.199558,0.199261,5.15328,7,0.0153636,11,0.00102685,-2.28792,-0.23782,-0.248087,-49.8951,0.199261,
2,1,0,1,0,8593.86,0.209546,0.20926,4.73179,7,0.015856,11,0.000990174,-2.32497,-0.270299,-0.218277,-40.3208,0.20926,
2,1,0,1,0,8593.96,0.219534,0.219222,4.45772,7,0.0163141,11,0.000977228,-2.35089,-0.515678,-0.114413,-19.9071,0.219222,
2,1,0,1,0,8594.06,0.229522,0.229214,4.27129,7,0.0167507,11,0.000979036,-2.36944,-0.655557,-0.0899998,-15.0437,0.229214,
2,1,0,1,0,8594.16,0.23951,0.23922,4.15991,7,0.0171725,11,0.000995133,-2.38092,-1.2893,-0.0457614,-7.43527,0.23922,
2,1,0,1,0,8594.26,0.249498,0.249224,4.07275,7,0.0175835,11,0.00101503,-2.39011,-1.09394,-0.0539336,-8.56037,0.249224,
2,1,0,1,0,8594.36,0.259486,0.259227,3.99776,7,0.0179866,11,0.00103633,-2.39818,-0.905319,-0.0651704,-10.152,0.259227,
2,1,0,1,0,8594.46,0.269474,0.269155,3.92195,7,0.0183825,11,0.00105561,-2.4065,-1.73762,-0.0339544,-5.20114,0.269155,
2,1,0,1,0,8594.56,0.279462,0.279148,3.86178,7,0.018772,11,0.00107801,-2.41321,-1.18566,-0.0497615,-7.49744,0.279148,
2,1,0,1,0,8594.66,0.28945,0.289131,3.8001,7,0.0191554,11,0.00109873,-2.42021,-2.36212,-0.0249775,-3.70482,0.289131,
2,1,0,1,0,8594.75,0.299438,0.299193,3.74181,7,0.0195328,11,0.00111953,-2.42692,-0.026375,-2.23697,-296.767,0.299193,
2,0,0,1,0,8594.84,0.291747,0.291439,-1.45831,7,0.0195277,11,-0.000425008,-2.83615,-0.0417209,-1.41416,78.9593,0.291439,
2,0,0,1,0,8594.94,0.281759,0.281455,-1.90778,7,0.0193558,11,-0.000536954,-2.71947,-0.13613,-0.43341,32.1322,0.2814551,
2,0,0,1,0,8595.04,0.271771,0.271478,-2.17794,7,0.0191507,11,-0.000591261,-2.66195,-0.185638,-0.317822,26.9638,0.271478,
2,0,0,1,0,8595.14,0.261783,0.261463,-2.3885,7,0.0189217,11,-0.000624506,-2.62187,-0.31277,-0.188637,17.5565,0.261463,
2,0,0,1,0,8595.24,0.251795,0.251526,-2.56339,7,0.0186737,11,-0.000644761,-2.59118,-0.332716,-0.177329,17.7511,0.251526,
2,0,0,1,0,8595.34,0.241807,0.241484,-2.72019,7,0.0184087,11,-0.000656883,-2.5654,-0.350058,-0.168544,17.9636,0.2414844,
2,0,0,1,0,8595.44,0.231815,0.231535,-2.8847,7,0.0181281,11,-0.00066791,-2.5399,-0.369207,-0.159802,17.9641,0.231535,
2,0,0,1,0,8595.54,0.221831,0.221545,-3.03896,7,0.0178321,11,-0.000673267,-2.51728,-0.450636,-0.130926,15.5163,0.221545,
2,0,0,1,0,8595.64,0.211843,0.211576,-3.21317,7,0.0175195,11,-0.000679828,-2.49307,-0.50437,-0.116978,14.6359,0.211576,
2,0,0,1,0,8595.74,0.201856,0.201525,-3.40688,7,0.0171884,11,-0.000686572,-2.46764,-0.370187,-0.159379,21.2271,0.201525,
2,0,0,1,0,8595.84,0.191868,0.191543,-3.66772,7,0.0168348,11,-0.000702526,-2.4356,-0.271072,-0.217655,31.216,0.191543,
2,0,0,1,0,8595.94,0.18188,0.181561,-4.04132,7,0.0164515,11,-0.000733746,-2.39348,-0.196886,-0.299666,47.1261,0.181561,
2,0,0,1,0,8596.04,0.171892,0.171604,-4.5824,7,0.0160229,11,-0.000786358,-2.33891,-0.156535,-0.376912,67.4145,0.171604,
2,0,0,1,0,8596.14,0.161904,0.161591,-5.48061,7,0.0155238,11,-0.000885615,-2.26117,-0.109248,-0.540055,115.592,0.161591,
2,0,0,1,0,8596.24,0.151916,0.151643,-6.95515,7,0.0149073,11,-0.0010547,-2.15769,-0.0889333,-0.663418,180.466,0.1516427,
2,0,0,1,0,8596.34,0.141928,0.14168,-9.06806,7,0.01411,11,-0.00128476,-2.04249,-0.0879665,-0.67071,237.407,0.14168,
2,0,0,1,0,8596.44,0.13194,0.131626,-11.3237,7,0.0130892,11,-0.00149048,-1.94601,-0.126049,-0.46807,206.5,0.131626,
2,0,0,1,0,8596.54,0.121952,0.121659,-12.9844,7,0.011868,11,-0.00157967,-1.88658,-0.253817,-0.232451,117.533,0.121659,
2,0,0,1,0,8596.64,0.111964,0.111597,-13.6462,7,0.010528,11,-0.00152288,-1.86499,-2.56012,-0.0230458,12.2584,0.1115973,
2,0,0,1,0,8596.74,0.101976,0.10166,-13.2517,7,0.00917529,11,-0.00134717,-1.87773,0.325738,0.181127,-93.464,0.10166,
2,0,0,1,0,8596.84,0.0919883,0.0916984,-11.9733,7,0.00791033,11,-0.00109793,-1.92179,0.200897,0.293683,-137.365,0.0916984,
2,0,0,1,0,8596.94,0.0820004,0.0816414,-10.7015,7,0.00678121,11,-0.000873682,-1.97056,0.228915,0.257738,-107.686,0.0816414,
2,0,0,1,0,8597.04,0.0720124,0.0716885,-9.87283,7,0.00575665,11,-0.000707768,-2.00556,0.338998,0.174042,-67.0962,0.0716885,
2,0,0,1,0,8597.14,0.0620245,0.061679,-9.28221,7,0.00480011,11,-0.000572517,-2.03235,0.364497,0.161867,-58.6543,0.061679,
2,0,0,1,0,8597.24,0.0520366,0.0517371,-8.68178,7,0.00390139,11,-0.00044917,-2.06139,0.290496,0.203101,-68.7275,0.0517371,
2,0,0,1,0,8597.34,0.0420486,0.0417108,-7.93543,7,0.00306992,11,-0.000330993,-2.10043,0.24312,0.242679,-75.2143,0.0417108,
2,0,0,1,0,8597.44,0.0320607,0.0317389,-7.19925,7,0.00231562,11,-0.000228496,-2.14271,0.249929,0.236067,-66.2621,0.0317389,
2,0,0,1,0,8597.54,0.0220728,0.0217318,-6.67585,7,0.00162515,11,-0.000145078,-2.17549,0.4035,0.146221,-38.1104,0.0217318,
2,0,0,1,0,8597.64,0.0120848,0.0117731,-6.42188,7,0.00097257,11,-7.56057e-05,-2.19234,0.897005,0.0657744,-16.5011,0.0117731,
2,0,0,1,0,8597.74,0.0020969,0.00171268,-6.41804,7,0.000334912,11,-1.09921e-05,-2.1926,-1.41973,-0.0415571,10.3474,0.00171268,
2,0,0,1,0,8597.84,-0.00789103,-0.00821378,-6.42821,7,-0.000305689,11,5.27999e-05,-2.19191,-1.07789,-0.0547364,13.7644,-0.00821378,
2,0,0,1,0,8597.94,-0.017879,-0.0182438,-6.60472,7,-0.00095608,11,0.000120495,-2.18015,-0.708231,-0.0833062,21.4406,-0.0182438,
2,0,0,1,0,8598.04,-0.0278669,-0.0282054,-6.81081,7,-0.001626,11,0.000192102,-2.1668,-0.70436,-0.083764,22.2872,-0.0282054,
2,0,0,1,0,8598.14,-0.0378548,-0.0381962,-7.08395,7,-0.00232017,11,0.00027058,-2.14972,-0.609056,-0.0968712,26.737,-0.0381962,
2,0,0,1,0,8598.24,-0.0478428,-0.0482033,-7.3789,7,-0.00304287,11,0.000355687,-2.13201,-0.436503,-0.135165,38.9917,-0.0482033,
2,0,0,1,0,8598.34,-0.0578216,-0.0581755,-7.75141,7,-0.00379863,11,0.000450942,-2.11062,-0.441952,-0.133499,40.404,-0.0581755,
2,0,0,1,0,8598.44,-0.0678187,-0.0681708,-8.2048,7,-0.00459555,11,0.000559328,-2.08593,-0.365842,-0.161272,51.6153,-0.0681708,
2,0,0,1,0,8598.54,-0.0778066,-0.0781634,-8.75039,7,-0.00544233,11,0.000683961,-2.05797,-0.347378,-0.169844,58.0394,-0.0781634,
2,0,0,1,0,8598.64,-0.0877945,-0.0881619,-9.39881,7,-0.00634906,11,0.000828617,-2.02693,-0.323679,-0.18228,66.8479,-0.0881619,
2,0,0,1,0,8598.74,-0.0977825,-0.0981323,-10.0374,7,-0.00732142,11,0.000984991,-1.99838,-0.373952,-0.157774,61.8532,-0.0981323,
2,0,0,1,1,8598.83,-0.0927386,-0.0931032,-0.155338,7,-0.00783028,11,1.44625e-05,-3.80872,-0.0165432,-3.56643,661.334,-0.09310317,
2,1,0,1,1,8598.93,-0.0827529,-0.0831517,3.34515,7,-0.00763447,11,-0.000278155,-2.47558,0.0407938,1.4463,185.955,-0.0831517,
2,1,0,1,1,8599.03,-0.0727627,-0.0731103,4.54828,7,-0.00723164,11,-0.000332526,-2.34215,0.136605,0.431902,76.2412,-0.0731103,
2,1,0,1,1,8599.13,-0.0627748,-0.0631113,5.08698,7,-0.00674747,11,-0.000321046,-2.29354,0.296229,0.199171,39.5449,-0.06311135,
2,1,0,1,1,8599.23,-0.0527868,-0.0530864,5.38267,7,-0.00622241,11,-0.000285747,-2.269,0.60463,0.0975803,20.4834,-0.0530864,
2,1,0,1,1,8599.33,-0.0427989,-0.0431495,5.52612,7,-0.00567644,11,-0.000238449,-2.25758,1.01939,0.0578779,12.4792,-0.0431495,
2,1,0,1,1,8599.43,-0.0328109,-0.0331399,5.58933,7,-0.00512161,11,-0.00018523,-2.25264,8.30709,0.00710237,1.54547,-0.0331399,
2,1,0,1,1,8599.53,-0.022823,-0.0231592,5.57465,7,-0.0045644,11,-0.000129104,-2.25378,-6.01914,-0.00980207,-2.12977,-0.0231592,
2,1,0,1,1,8599.63,-0.0128351,-0.0131889,5.5226,7,-0.00400983,11,-7.28369e-05,-2.25786,-1.79897,-0.0327965,-7.07627,-0.0131889,
2,1,0,1,1,8599.73,-0.00284713,-0.00318925,5.47432,7,-0.00346008,11,-1.7459e-05,-2.26167,-2.0435,-0.028872,-6.1692,-0.00318925,
2,1,0,0,1,8599.76,-2.55332e-05,-0.000363498,5.47001,7,-0.00330643,11,-1.98834e-06,-2.26201, , , ,-0.000363498,