File: Figure_codes/Fig_3-5/rawdata_trumpetplot_data/before 10th/20221101_1-115_002_TrumpetPlot_ParaChange_16_CV_C01_5.csv
mode,ox/red,error,control changes,counter inc.,time/s,control/V,Ewe/V,<I>/mA,cycle number,(Q-Qo)/C,I Range,P/W,log(|I|),Tafel slope mV/dec,alpha_eff,dI/d(E-IR),E-IR/V,
2,1,0,1,0,7377.22,2.44065e-05,-0.000955205,66.4963,6,0.0000000E+000,10,-6.35176e-05,-1.1772, , , ,-0.000955205,
2,1,0,1,0,7377.23,0.0131086,0.0127559,56.0333,6,0.000766994,10,0.000714752,-1.25155,-0.734459,-0.0803313,-178.569,0.0127559,
2,1,0,1,0,7377.25,0.0271416,0.0267787,55.4023,6,0.00154548,10,0.0014836,-1.25647,-10.0925,-0.00584593,-12.6545,0.0267787,
2,1,0,1,0,7377.26,0.0411248,0.0407707,55.4129,6,0.00232084,10,0.00225922,-1.25639,12.8297,0.00459869,9.95075,0.0407707,
2,1,0,1,0,7377.28,0.0551079,0.0547161,55.6462,6,0.00309811,10,0.00304475,-1.25456,3.83651,0.0153785,33.466,0.05471614,
2,1,0,1,0,7377.29,0.0691409,0.0687867,56.4448,6,0.00388158,10,0.00388265,-1.24838,1.60382,0.0367873,81.0726,0.0687867,
2,1,0,1,0,7377.3,0.083124,0.082766,57.7896,6,0.00468058,10,0.00478301,-1.23815,1.05878,0.0557247,126.024,0.082766,
2,1,0,1,0,7377.32,0.0971071,0.0967941,60.0501,6,0.00550457,10,0.00581249,-1.22149,0.697229,0.0846207,198.86,0.0967941,
2,1,0,1,0,7377.33,0.11114,0.110839,63.2829,6,0.0063672,10,0.00701422,-1.19871,0.560707,0.105224,260.184,0.110839,
2,1,0,1,0,7377.35,0.125123,0.124782,67.2178,6,0.00728029,10,0.0083876,-1.17252,0.50758,0.116238,305.294,0.124782,
2,1,0,1,0,7377.36,0.139106,0.138764,71.792,6,0.00825319,10,0.00996214,-1.14392,0.474901,0.124237,348.521,0.138764,
2,1,0,1,0,7377.37,0.153139,0.15277,77.0021,6,0.00929463,10,0.0117636,-1.1135,0.450993,0.130822,393.429,0.15277,
2,1,0,1,0,7377.39,0.167123,0.166783,82.8036,6,0.0104132,10,0.0138102,-1.08195,0.435889,0.135356,437.736,0.166783,
2,1,0,1,0,7377.4,0.181106,0.180743,89.1543,6,0.0116173,10,0.016114,-1.04986,0.44306,0.133165,463.339,0.180743,
2,1,0,1,0,7377.42,0.195139,0.194831,95.5893,6,0.0129118,10,0.0186237,-1.01959,0.513539,0.114889,427.668,0.194831,
2,1,0,1,0,7377.43,0.209122,0.20879,100.95,6,0.0142899,10,0.0210773,-0.995896,0.767349,0.0768881,301.493,0.20879,
2,1,0,1,0,7377.44,0.223105,0.222811,103.467,6,0.0157258,10,0.0230535,-0.9852,28.9886,0.00203528,8.14974,0.222811,
2,1,0,1,0,7377.46,0.237138,0.236904,100.527,6,0.0171615,10,0.0238151,-0.997719,-0.491182,-0.120118,-465.52,0.236904,
2,1,0,1,0,7377.47,0.251121,0.250923,90.5746,6,0.0185055,10,0.0227273,-1.04299,-0.228086,-0.258674,-904.38,0.250923,
2,1,0,1,0,7377.49,0.265104,0.264943,75.9708,6,0.0196727,10,0.0201279,-1.11935,-0.16306,-0.361829,-1069.18,0.264943,
2,1,0,1,0,7377.5,0.279137,0.278966,61.4766,6,0.0206311,10,0.0171499,-1.21129,-0.151714,-0.388889,-937.303,0.278966,
2,1,0,1,0,7377.51,0.29312,0.292896,50.3368,6,0.0214077,10,0.0147434,-1.29811,-0.176511,-0.334256,-667.492,0.292896,
2,1,0,1,0,7377.52,0.298714,0.298758,41.8808,6,0.0217963,10,0.0125122,-1.37799,0.0209599,2.81489,3429.7,0.298758,
2,1,0,1,0,7377.54,0.28473,0.284624,8.26241,6,0.0221128,10,0.00235168,-2.08289,0.0154738,3.81289,1638.48,0.284624,
2,0,0,1,0,7377.55,0.270747,0.270512,-7.72421,6,0.0221023,10,-0.00208949,-2.11215,-0.00621928,-9.48663,808.372,0.270512,
2,0,0,1,0,7377.56,0.256714,0.256503,-15.9157,6,0.0219298,10,-0.00408242,-1.79818,-0.0805332,-0.732617,431.233,0.256503,
2,0,0,1,0,7377.58,0.242731,0.242467,-20.462,6,0.0216721,10,-0.00496137,-1.68905,-0.181907,-0.324341,254.879,0.242467,
2,0,0,1,0,7377.59,0.228748,0.228458,-23.3631,6,0.0213637,10,-0.0053375,-1.63147,-0.298787,-0.197465,179.192,0.2284584,
2,0,0,1,0,7377.61,0.214715,0.214441,-25.6054,6,0.0210198,10,-0.00549085,-1.59167,-0.405018,-0.145673,145.278,0.214441,
2,0,0,1,0,7377.62,0.200732,0.200493,-27.5975,6,0.0206473,10,-0.00553312,-1.55913,-0.429926,-0.137233,147.871,0.2004934,
2,0,0,1,0,7377.63,0.186735,0.186517,-29.8009,6,0.0202458,10,-0.00555838,-1.52577,-0.388117,-0.152016,177.306,0.186517,
2,0,0,1,0,7377.65,0.172716,0.172493,-32.6178,6,0.0198093,10,-0.00562636,-1.48654,-0.326824,-0.180525,230.681,0.172493,
2,0,0,1,0,7377.66,0.158733,0.158482,-36.4557,6,0.0193271,10,-0.00577758,-1.43823,-0.256398,-0.230111,329.178,0.158482,
2,0,0,1,0,7377.68,0.144719,0.144538,-41.9477,6,0.01878,10,-0.00606303,-1.37729,-0.210742,-0.279964,460.781,0.144538,
2,0,0,1,0,7377.69,0.130717,0.130467,-49.356,6,0.018142,10,-0.00643935,-1.30666,-0.193191,-0.305398,589.48,0.130467,
2,0,0,1,0,7377.7,0.116733,0.116562,-58.3386,6,0.0173889,10,-0.00680008,-1.23404,-0.198875,-0.296669,674.595,0.116562,
2,0,0,1,0,7377.72,0.102703,0.102526,-68.0101,6,0.0165039,10,-0.00697278,-1.16743,-0.229293,-0.257313,680.149,0.102526,
2,0,0,1,0,7377.73,0.0887173,0.0885855,-77.1255,6,0.0154868,10,-0.0068322,-1.1128,-0.28468,-0.20725,620.761,0.0885855,
2,0,0,1,0,7377.75,0.0747341,0.0746263,-85.065,6,0.0143491,10,-0.00634809,-1.07025,-0.380628,-0.155007,512.699,0.0746263,
2,0,0,1,0,7377.76,0.0607011,0.0604869,-91.3722,6,0.0131109,10,-0.00552682,-1.03919,-0.593854,-0.0993511,352.305,0.0604869,
2,0,0,1,0,7377.77,0.046718,0.0465192,-94.8489,6,0.0118036,10,-0.0044123,-1.02297,-1.51247,-0.039009,143.659,0.04651919,
2,0,0,1,0,7377.79,0.0327349,0.0324837,-95.4461,6,0.0104684,10,-0.00310044,-1.02024,4.6164,0.0127805,-47.4101,0.0324837,
2,0,0,1,0,7377.8,0.0187018,0.0183728,-93.8441,6,0.00914217,10,-0.00172418,-1.02759,1.31161,0.0449829,-164.323,0.0183728,
2,0,0,1,0,7377.82,0.00471873,0.00442742,-90.9285,6,0.00784799,10,-0.000402578,-1.0413,0.881415,0.0669378,-237.222,0.00442742,
2,0,0,1,0,7377.83,-0.00926438,-0.0095901,-87.1232,6,0.00660041,10,0.00083552,-1.05987,0.621673,0.0949052,-321.78,-0.0095901,
2,0,0,1,0,7377.84,-0.0232974,-0.0236712,-82.0583,6,0.00541557,10,0.00194242,-1.08588,0.470706,0.125344,-400.228,-0.0236712,
2,0,0,1,0,7377.86,-0.0372805,-0.0376273,-76.0758,6,0.00430916,10,0.00286252,-1.11875,0.422602,0.139611,-414.926,-0.0376273,
2,0,0,1,0,7377.87,-0.0512636,-0.0515515,-70.816,6,0.00328306,10,0.00365067,-1.14987,0.514684,0.114634,-317.972,-0.0515515,
2,0,0,1,0,7377.89,-0.0652967,-0.0656231,-67.3256,6,0.00231873,10,0.00441811,-1.17182,0.810034,0.0728365,-191.958,-0.0656231,
2,0,0,1,0,7377.9,-0.0792798,-0.0795812,-65.3607,6,0.00139182,10,0.00520148,-1.18468,1.63909,0.0359955,-92.1044,-0.0795812,
2,0,0,1,0,7377.91,-0.0932629,-0.0935807,-64.6506,6,0.000482932,10,0.00605005,-1.18943,9.51201,0.00620268,-15.6868,-0.0935807,
2,0,0,1,0,7377.93,-0.107296,-0.107581,-64.9054,6,-0.000423002,10,0.0069826,-1.18772,-3.75974,-0.0156926,39.784,-0.107581,
2,0,0,1,0,7377.94,-0.121279,-0.121583,-65.6698,6,-0.00133639,10,0.00798432,-1.18263,-2.08875,-0.0282465,72.4654,-0.121583,
2,0,0,1,0,7377.96,-0.135262,-0.135556,-66.8771,6,-0.00226395,10,0.00906558,-1.17472,-1.53537,-0.0384273,100.408,-0.135556,
2,0,0,1,0,7377.97,-0.149295,-0.149575,-68.5243,6,-0.00321158,10,0.0102496,-1.16416,-1.27296,-0.0463487,123.944,-0.149575,
2,0,0,1,0,7377.98,-0.163278,-0.163572,-70.3271,6,-0.00418347,10,0.0115035,-1.15288,-1.18123,-0.049948,137.133,-0.1635718,
2,0,0,1,0,7378,-0.177261,-0.177525,-72.3322,6,-0.00518203,10,0.0128408,-1.14067,-1.09549,-0.0538573,152.115,-0.177525,
2,0,0,1,0,7378.01,-0.191295,-0.191559,-74.6552,6,-0.00621079,10,0.0143009,-1.12694,-0.986023,-0.0598363,174.306,-0.191559,
2,0,0,1,1,7378.02,-0.199984,-0.20038,-75.8918,6,-0.00691249,10,0.0152072,-1.11981,-0.033411,-1.76589,4508.58,-0.20038,
2,0,0,1,1,7378.03,-0.186686,-0.187145,-43.2264,6,-0.00766823,10,0.00808959,-1.36425,-0.0494398,-1.19337,1997.18,-0.187145,
2,0,0,1,1,7378.05,-0.172667,-0.173109,-19.5121,6,-0.00809648,10,0.00337772,-1.7097,-0.0281262,-2.09769,1464.89,-0.1731091,
2,0,0,1,1,7378.06,-0.158684,-0.159191,-1.48994,6,-0.00823629,10,0.000237185,-2.82683,-0.0783706,-0.752833,1145.55,-0.159191,
2,1,0,1,1,7378.08,-0.14467,-0.145209,12.7877,6,-0.00815247,10,-0.00185688,-1.89321,0.0267791,2.20321,919.937,-0.145209,
2,1,0,1,1,7378.09,-0.130668,-0.131143,24.3694,6,-0.00788855,10,-0.00319589,-1.61316,0.0728483,0.809903,743.03,-0.1311435,
2,1,0,1,1,7378.1,-0.116685,-0.117096,33.7245,6,-0.00747835,10,-0.00394901,-1.47205,0.128548,0.458974,594.706,-0.117096,
2,1,0,1,1,7378.12,-0.102654,-0.102999,41.2646,6,-0.00695123,10,-0.00425022,-1.38442,0.196823,0.299761,477.892,-0.102999,
2,1,0,1,1,7378.13,-0.0886685,-0.0890729,47.1751,6,-0.00632996,10,-0.00420202,-1.32629,0.2859,0.206366,377.888,-0.0890729,
2,1,0,1,1,7378.15,-0.0746854,-0.0750734,51.858,6,-0.00563484,10,-0.00389316,-1.28518,0.40194,0.146788,295.968,-0.0750734,
2,1,0,1,1,7378.16,-0.0606523,-0.0609817,55.6058,6,-0.00488171,10,-0.00339093,-1.25488,0.549885,0.107295,231.879,-0.0609817,
2,1,0,1,1,7378.17,-0.0466692,-0.0470161,58.3723,6,-0.00408294,10,-0.00274444,-1.23379,0.774104,0.0762171,173.213,-0.0470161,
2,1,0,1,1,7378.19,-0.0326861,-0.0330219,60.4149,6,-0.00325045,10,-0.00199502,-1.21886,1.13011,0.0522072,122.895,-0.0330219,
2,1,0,1,1,7378.2,-0.018653,-0.0190235,61.9092,6,-0.00239357,10,-0.00117773,-1.20824,1.7431,0.0338477,81.5786,-0.0190235,
2,1,0,1,1,7378.22,-0.00466992,-0.00502717,62.6939,6,-0.00152075,10,-0.000315173,-1.20277, , , ,-0.005027168,
2,1,0,1,1,7378.22,-0.000175352,-0.000535284,62.8245,6,-0.00123832,10,-3.3629e-05,-1.20187, , , ,-0.000535284,