File: Figure_codes/Fig_3-5/rawdata_trumpetplot_data/before 10th/20221101_1-115_002_TrumpetPlot_ParaChange_08_CV_C01_3.csv
mode,ox/red,error,control changes,counter inc.,time/s,control/V,Ewe/V,<I>/mA,cycle number,(Q-Qo)/C,I Range,P/W,log(|I|),Tafel slope mV/dec,alpha_eff,dI/d(E-IR),E-IR/V,
2,0,0,0,0,4864.07,2.44065e-05,-0.0002108,-2.36848,4,0.0000000E+000,11,4.99274e-07,-2.62553, , , ,-0.0002108,
2,1,0,1,0,4864.26,0.00729063,0.00700915,1.61094,4,0.000169053,11,1.12913e-05,-2.79292,0.11009,0.535923,33.3976,0.00700915,
2,1,0,1,0,4864.44,0.014778,0.0145272,1.75344,4,0.00048655,11,2.54725e-05,-2.75611,0.254757,0.231593,15.8602,0.0145272,
2,1,0,1,0,4864.63,0.0222743,0.0220297,1.847,4,0.000824827,11,4.06889e-05,-2.73353,0.376249,0.156811,11.2308,0.0220297,
2,1,0,1,0,4864.82,0.0297626,0.0294983,1.91539,4,0.00117752,11,5.65006e-05,-2.71774,0.485851,0.121437,9.10254,0.02949827,
2,1,0,1,0,4865.01,0.0372544,0.0369607,2.00532,4,0.00154535,11,7.41181e-05,-2.69782,0.366978,0.160773,12.5691,0.0369607,
2,1,0,1,0,4865.19,0.0447472,0.0445116,2.11501,4,0.00193148,11,9.41427e-05,-2.67469,0.287746,0.205042,16.9197,0.0445116,
2,1,0,1,0,4865.38,0.0522345,0.0519049,2.25913,4,0.00234156,11,0.00011726,-2.64606,0.222388,0.265303,23.5085,0.0519049,
2,1,0,1,0,4865.57,0.0597309,0.0594226,2.46263,4,0.0027842,11,0.000146336,-2.6086,0.187777,0.314202,30.0937,0.0594226,
2,1,0,1,0,4865.75,0.0672182,0.0669336,2.69081,4,0.00326598,11,0.000180106,-2.57012,0.193413,0.305046,31.944,0.0669336,
2,1,0,1,0,4865.94,0.0747074,0.0744223,2.92552,4,0.00379198,11,0.000217724,-2.5338,0.224867,0.262377,29.9682,0.0744223,
2,1,0,1,0,4866.13,0.0822019,0.0819076,3.16012,4,0.00436337,11,0.000258838,-2.5003,0.260311,0.226652,27.9065,0.0819076,
2,1,0,1,0,4866.32,0.0896911,0.0894057,3.37275,4,0.00497586,11,0.000301543,-2.47202,0.283382,0.208199,27.4334,0.0894057,
2,1,0,1,0,4866.5,0.097182,0.0968988,3.58006,4,0.00562795,11,0.000346903,-2.44611,0.253114,0.233097,32.6157,0.0968988,
2,1,0,1,0,4866.69,0.104675,0.104397,3.83959,4,0.00632212,11,0.000400841,-2.41572,0.218443,0.270094,40.3855,0.104397,
2,1,0,1,0,4866.88,0.112162,0.111849,4.18242,4,0.00707082,11,0.000467798,-2.37857,0.173952,0.339174,55.4202,0.111849,
2,1,0,1,0,4867.07,0.119655,0.119349,4.68481,4,0.00789943,11,0.000559128,-2.32931,0.147839,0.399082,73.0059,0.119349,
2,1,0,1,0,4867.25,0.127146,0.126843,5.27945,4,0.00883278,11,0.000669661,-2.27741,0.148395,0.397587,81.8896,0.126843,
2,1,0,1,0,4867.44,0.134635,0.134393,5.86557,4,0.00987929,11,0.000788289,-2.23169,0.193922,0.304247,69.7551,0.1343926,
2,1,0,1,0,4867.63,0.14213,0.14181,6.30705,4,0.0110248,11,0.000894405,-2.20017,0.330184,0.178688,43.8778,0.14181,
2,1,0,1,0,4867.81,0.149619,0.149304,6.42053,4,0.0122236,11,0.000958612,-2.19243,-0.80145,-0.0736166,-18.3611,0.149304,
2,1,0,1,0,4868,0.157106,0.156814,5.93511,4,0.0133913,11,0.000930709,-2.22657,-0.119762,-0.492644,-113.619,0.156814,
2,1,0,1,0,4868.19,0.164602,0.164292,4.83869,4,0.0144075,11,0.000794957,-2.31527,-0.0666414,-0.885336,-166.724,0.164292,
2,1,0,1,0,4868.38,0.172091,0.171864,3.73716,4,0.0152055,11,0.000642285,-2.42746,-0.0727772,-0.810693,-118.76,0.171864,
2,1,0,1,0,4868.56,0.179582,0.179351,3.05542,4,0.0158376,11,0.000547994,-2.51493,-0.100749,-0.585616,-70.2133,0.1793513,
2,1,0,1,0,4868.75,0.187074,0.186783,2.63752,4,0.0163686,11,0.000492645,-2.5788,-0.138615,-0.425638,-43.7135,0.186783,
2,1,0,1,0,4868.94,0.194563,0.194318,2.36023,4,0.0168345,11,0.000458634,-2.62705,-0.185306,-0.318392,-29.2991,0.194318,
2,1,0,1,0,4869.13,0.202059,0.20179,2.17616,4,0.0172586,11,0.000439127,-2.66231,-0.241448,-0.244359,-20.7403,0.20179,
2,1,0,1,0,4869.31,0.209546,0.20927,2.06093,4,0.0176548,11,0.000431291,-2.68594,-0.295288,-0.199805,-16.0284,0.20927,
2,1,0,1,0,4869.5,0.217035,0.216718,1.96689,4,0.018032,11,0.000426262,-2.70622,-0.493791,-0.119484,-9.21201,0.216718,
2,1,0,1,0,4869.69,0.22453,0.224259,1.91282,4,0.0183965,11,0.000428966,-2.71833,-0.56778,-0.103914,-7.75886,0.224259,
2,1,0,1,0,4869.87,0.232019,0.23174,1.86957,4,0.0187506,11,0.000433254,-2.72826,-0.982899,-0.0600265,-4.35857,0.23174,
2,1,0,1,0,4870.06,0.23951,0.239253,1.8255,4,0.0190972,11,0.000436756,-2.73862,-1.10861,-0.0532199,-3.80209,0.239253,
2,1,0,1,0,4870.25,0.247003,0.246788,1.79978,4,0.0194374,11,0.000444166,-2.74478,-0.685394,-0.0860818,-6.02711,0.246788,
2,1,0,1,0,4870.44,0.25449,0.254224,1.76902,4,0.019772,11,0.000449727,-2.75227,-0.897326,-0.0657509,-4.54079,0.2542243,
2,1,0,1,0,4870.62,0.261983,0.261739,1.73994,4,0.0201019,11,0.00045541,-2.75947,-1.34396,-0.0439002,-2.99838,0.261739,
2,1,0,1,0,4870.81,0.269474,0.269196,1.72277,4,0.0204274,11,0.000463763,-2.76377,-2.09177,-0.0282058,-1.89436,0.269196,
2,1,0,1,0,4871,0.276963,0.276698,1.70049,4,0.0207486,11,0.000470523,-2.76943,-1.36344,-0.0432728,-2.8735,0.276698,
2,1,0,1,0,4871.19,0.284458,0.284236,1.67824,4,0.0210664,11,0.000477016,-2.77515,-1.75448,-0.0336282,-2.2081,0.284236,
2,1,0,1,0,4871.37,0.291947,0.291661,1.66617,4,0.02138,11,0.000485957,-2.77828,-0.987573,-0.0597424,-3.86443,0.2916612,
2,1,0,1,0,4871.56,0.299434,0.299144,1.63976,4,0.0216902,11,0.000490524,-2.78522,-0.00775082,-7.6121,-358.195,0.299144,
2,0,0,1,0,4871.72,0.294196,0.293883,-0.550843,4,0.0216767,11,-0.000161883,-3.25897,-0.0406641,-1.45091,30.9048,0.293883,
2,0,0,1,0,4871.91,0.286701,0.286421,-0.724123,4,0.0215544,11,-0.000207404,-3.14019,-0.0930326,-0.634186,17.8809,0.286421,
2,0,0,1,0,4872.09,0.279212,0.278973,-0.832429,4,0.0214066,11,-0.000232225,-3.07965,-0.161502,-0.365322,11.9986,0.278973,
2,0,0,1,0,4872.28,0.271725,0.271447,-0.922034,4,0.0212407,11,-0.000250283,-3.03525,-0.159098,-0.370841,13.3404,0.271447,
2,0,0,1,0,4872.47,0.264228,0.263994,-0.998539,4,0.0210599,11,-0.000263609,-3.00063,-0.238917,-0.246947,9.55004,0.263994,
2,0,0,1,0,4872.66,0.256741,0.256445,-1.05602,4,0.0208667,11,-0.000270811,-2.97633,-0.339924,-0.173568,7.19452,0.256445,
2,0,0,1,0,4872.84,0.249248,0.248977,-1.11916,4,0.0206621,11,-0.000278646,-2.95111,-0.36694,-0.160789,6.98862,0.2489773,
2,0,0,1,0,4873.03,0.241756,0.241467,-1.16766,4,0.0204467,11,-0.000281951,-2.93268,-0.400773,-0.147216,6.73317,0.241467,
2,0,0,1,0,4873.22,0.234268,0.233987,-1.22421,4,0.0202209,11,-0.000286448,-2.91215,-0.327664,-0.180063,8.69362,0.233987,
2,0,0,1,0,4873.4,0.226772,0.226493,-1.29634,4,0.0199839,11,-0.000293611,-2.88728,-0.240636,-0.245183,12.28,0.226493,
2,0,0,1,0,4873.59,0.219284,0.218996,-1.3594,4,0.0197359,11,-0.000297703,-2.86665,-0.339851,-0.173605,9.15737,0.218996,
2,0,0,1,0,4873.78,0.211796,0.21152,-1.42205,4,0.0194753,11,-0.000300791,-2.84709,-0.389267,-0.151567,8.42375,0.21152,
2,0,0,1,0,4873.97,0.204301,0.203971,-1.51318,4,0.0191997,11,-0.000308644,-2.82011,-0.399416,-0.147716,8.70355,0.203971,
2,0,0,1,0,4874.15,0.196812,0.196542,-1.60487,4,0.0189074,11,-0.000315424,-2.79456,-0.234144,-0.251982,15.8789,0.1965421,
2,0,0,1,0,4874.34,0.189321,0.189015,-1.74642,4,0.0185926,11,-0.0003301,-2.75785,-0.185902,-0.317371,21.6876,0.189015,
2,0,0,1,0,4874.53,0.181828,0.18152,-1.94031,4,0.0182481,11,-0.000352205,-2.71213,-0.147367,-0.400362,30.1349,0.18152,
2,0,0,1,0,4874.72,0.174341,0.174041,-2.20021,4,0.0178618,11,-0.000382927,-2.65753,-0.114351,-0.515956,44.443,0.174041,
2,0,0,1,0,4874.9,0.166848,0.166547,-2.60665,4,0.0174136,11,-0.000434128,-2.58392,-0.0945134,-0.62425,63.5002,0.166547,
2,0,0,1,0,4875.09,0.159357,0.159045,-3.22093,4,0.0168717,11,-0.000512274,-2.49202,-0.0767503,-0.768727,96.4985,0.159045,
2,0,0,1,0,4875.28,0.151868,0.15156,-4.06666,4,0.0161917,11,-0.000616342,-2.39076,-0.0742982,-0.794097,126.505,0.15156,
2,0,0,1,0,4875.46,0.144373,0.144093,-5.04801,4,0.0153358,11,-0.000727381,-2.29688,-0.0904596,-0.652225,128.473,0.144093,
2,0,0,1,0,4875.65,0.136884,0.13658,-5.9015,4,0.014305,11,-0.000806028,-2.22904,-0.144212,-0.409121,93.8974,0.13658,
2,0,0,1,0,4875.84,0.129393,0.129084,-6.39174,4,0.0131464,11,-0.00082507,-2.19438,-0.390941,-0.150918,37.5885,0.129084,
2,0,0,1,0,4876.03,0.1219,0.121598,-6.43322,4,0.0119374,11,-0.000782265,-2.19157,0.528368,0.111665,-27.9169,0.121598,
2,0,0,1,0,4876.21,0.114413,0.114122,-6.03286,4,0.0107642,11,-0.000688481,-2.21948,0.175874,0.335467,-78.8334,0.114122,
2,0,0,1,0,4876.4,0.10692,0.106593,-5.36914,4,0.00969373,11,-0.000572315,-2.2701,0.13599,0.433855,-91.1356,0.106593,
2,0,0,1,0,4876.59,0.0994284,0.0991557,-4.77863,4,0.00874481,11,-0.000473829,-2.3207,0.168701,0.349731,-65.257,0.0991557,
2,0,0,1,0,4876.78,0.0919401,0.0916227,-4.37819,4,0.00788996,11,-0.000401141,-2.35871,0.247793,0.238102,-40.7447,0.0916227,
2,0,0,1,0,4876.96,0.0844447,0.0841836,-4.12044,4,0.00709413,11,-0.000346873,-2.38506,0.32871,0.179489,-28.8994,0.0841836,
2,0,0,1,0,4877.15,0.0769565,0.0766351,-3.92845,4,0.00634106,11,-0.000301057,-2.40578,0.316001,0.186708,-28.5611,0.0766351,
2,0,0,1,0,4877.34,0.0694682,0.0691772,-3.71266,4,0.00562509,11,-0.000256832,-2.43031,0.299387,0.197069,-28.5968,0.0691772,
2,0,0,1,0,4877.52,0.0619728,0.0617117,-3.48187,4,0.00494907,11,-0.000214872,-2.45819,0.238481,0.247399,-33.6296,0.0617117,
2,0,0,1,0,4877.71,0.0544836,0.0541838,-3.23379,4,0.00431985,11,-0.000175219,-2.49029,0.251652,0.234451,-29.5621,0.0541838,
2,0,0,1,0,4877.9,0.0469927,0.0466872,-3.00832,4,0.00373493,11,-0.00014045,-2.52168,0.281449,0.209629,-24.6786,0.0466872,
2,0,0,1,0,4878.09,0.0394999,0.0392388,-2.85689,4,0.00318625,11,-0.000112101,-2.54411,0.38878,0.151757,-16.8722,0.03923877,
2,0,0,1,0,4878.27,0.0320125,0.0316647,-2.75356,4,0.00266222,11,-8.71905e-05,-2.56011,0.616374,0.095721,-10.277,0.0316647,
2,0,0,1,0,4878.46,0.0245198,0.0242191,-2.69526,4,0.00215148,11,-6.52769e-05,-2.5694,1.41986,0.0415534,-4.38961,0.0242191,
2,0,0,1,0,4878.65,0.0170289,0.0167161,-2.69021,4,0.00164627,11,-4.49697e-05,-2.57021,-5.14088,-0.0114766,1.20688,0.0167161,
2,0,0,1,0,4878.84,0.0095397,0.00919397,-2.70991,4,0.00114004,11,-2.49148e-05,-2.56704,-0.961353,-0.0613718,6.48609,0.00919397,
2,0,0,1,0,4879.02,0.00204518,0.00174003,-2.81051,4,0.000627476,11,-4.89036e-06,-2.55122,-0.601244,-0.0981299,10.5628,0.00174003,
2,0,0,1,0,4879.07,0.000177222,-0.00020431,-2.77886,4,0.000497072,11,5.67748e-07,-2.55613, , , ,-0.00020431,