File: Figure_codes/Fig_3-5/rawdata_trumpetplot_data/before 10th/20221101_1-115_002_TrumpetPlot_ParaChange_07_CV_C01_2.csv
mode,ox/red,error,control changes,counter inc.,time/s,control/V,Ewe/V,<I>/mA,cycle number,(Q-Qo)/C,I Range,P/W,log(|I|),Tafel slope mV/dec,alpha_eff,dI/d(E-IR),E-IR/V,
2,0,0,0,0,3602.35,2.44065e-05,-0.000478022,-1.16477,3,0.0000000E+000,11,5.56785e-07,-2.93376, , , ,-0.000478022,
2,1,0,1,0,3602.71,0.00729063,0.00701485,0.819152,3,0.000225421,11,5.74622e-06,-3.08664,0.130169,0.453258,14.4298,0.00701485,
2,1,0,1,0,3603.08,0.0147802,0.0144701,0.896652,3,0.000551072,11,1.29746e-05,-3.04738,0.230994,0.255418,8.9342,0.0144701,
2,1,0,1,0,3603.46,0.0222725,0.0220356,0.940518,3,0.00089854,11,2.07248e-05,-3.02663,0.420246,0.140394,5.15408,0.0220356,
2,1,0,1,0,3603.83,0.0297644,0.029517,0.979661,3,0.00126096,11,2.89167e-05,-3.00892,0.531595,0.110987,4.23449,0.029517,
2,1,0,1,0,3604.21,0.0372544,0.0369914,1.01724,3,0.00163758,11,3.76291e-05,-2.99258,0.462498,0.127568,5.08115,0.0369914,
2,1,0,1,0,3604.58,0.0447449,0.0444626,1.07206,3,0.00203122,11,4.76668e-05,-2.96978,0.287634,0.205122,8.57712,0.0444626,
2,1,0,1,0,3604.96,0.0522363,0.0519698,1.13957,3,0.0024478,11,5.92233e-05,-2.94326,0.214232,0.275402,12.2542,0.0519698,
2,1,0,1,0,3605.33,0.0597291,0.059432,1.23739,3,0.00289546,11,7.35408e-05,-2.90749,0.188937,0.312274,15.0616,0.059432,
2,1,0,1,0,3605.71,0.0672182,0.0669536,1.356,3,0.00338265,11,9.0789e-05,-2.86774,0.186017,0.317176,16.7473,0.0669536,
2,1,0,1,0,3606.08,0.0747092,0.0744621,1.47926,3,0.00391564,11,0.000110149,-2.82995,0.203804,0.289494,16.717,0.0744621,
2,1,0,1,0,3606.45,0.0822001,0.0819269,1.6009,3,0.00449712,11,0.000131157,-2.79564,0.247846,0.238051,14.9111,0.0819269,
2,1,0,1,0,3606.83,0.0896911,0.0893841,1.72348,3,0.00512355,11,0.000154051,-2.76359,0.257011,0.229562,15.4781,0.0893841,
2,1,0,1,0,3607.2,0.097182,0.0969108,1.83807,3,0.00579369,11,0.000178129,-2.73564,0.223995,0.263399,18.8884,0.0969108,
2,1,0,1,0,3607.58,0.104673,0.104406,1.98004,3,0.00650953,11,0.000206728,-2.70333,0.197227,0.299148,23.0971,0.104406,
2,1,0,1,0,3607.95,0.112164,0.111868,2.17905,3,0.00728849,11,0.000243766,-2.66173,0.15014,0.392967,33.4521,0.111868,
2,1,0,1,0,3608.33,0.119655,0.119351,2.48826,3,0.008162,11,0.000296976,-2.60411,0.128446,0.459335,44.6228,0.119351,
2,1,0,1,0,3608.7,0.127146,0.126853,2.85821,3,0.00916553,11,0.000362573,-2.54391,0.126669,0.465779,52.0071,0.126853,
2,1,0,1,0,3609.08,0.134637,0.134356,3.22724,3,0.0103119,11,0.000433599,-2.49117,0.179256,0.329138,41.4404,0.134356,
2,1,0,1,0,3609.45,0.142128,0.141877,3.45657,3,0.0115734,11,0.000490407,-2.46135,0.410848,0.143605,19.3305,0.141877,
2,1,0,1,0,3609.83,0.149619,0.149356,3.43336,3,0.0128768,11,0.000512794,-2.46428,-0.286005,-0.20629,-27.5081,0.149356,
2,1,0,1,0,3610.2,0.157108,0.156811,3.03495,3,0.0141021,11,0.000475915,-2.51785,-0.0890503,-0.662547,-77.9734,0.156811,
2,1,0,1,0,3610.57,0.164601,0.164368,2.38493,3,0.0151208,11,0.000392006,-2.62252,-0.0628809,-0.938282,-87.2521,0.164368,
2,1,0,1,0,3610.95,0.172092,0.171772,1.8466,3,0.0159095,11,0.000317194,-2.73363,-0.0775457,-0.760842,-55.2117,0.171772,
2,1,0,1,0,3611.32,0.179582,0.179285,1.5268,3,0.0165391,11,0.000273733,-2.81622,-0.107605,-0.5483,-32.8077,0.1792855,
2,1,0,1,0,3611.7,0.187073,0.186822,1.33877,3,0.0170751,11,0.000250113,-2.87329,-0.16764,-0.351944,-18.3507,0.186822,
2,1,0,1,0,3612.07,0.194564,0.194275,1.22056,3,0.0175547,11,0.000237125,-2.91344,-0.228662,-0.258023,-12.2917,0.194275,
2,1,0,1,0,3612.45,0.202057,0.201809,1.14276,3,0.0179982,11,0.000230619,-2.94205,-0.269704,-0.218759,-9.72875,0.201809,
2,1,0,1,0,3612.82,0.209546,0.209264,1.08608,3,0.0184178,11,0.000227277,-2.96414,-0.34687,-0.170093,-7.22257,0.209264,
2,1,0,1,0,3613.2,0.217037,0.216731,1.04533,3,0.0188198,11,0.000226556,-2.98075,-0.545963,-0.108066,-4.42594,0.216731,
2,1,0,1,0,3613.57,0.224528,0.224266,1.01884,3,0.0192095,11,0.000228491,-2.99189,-0.606823,-0.0972276,-3.85961,0.224266,
2,1,0,1,0,3613.95,0.232019,0.231752,0.997298,3,0.0195892,11,0.000231126,-3.00117,-0.991374,-0.0595134,-2.31066,0.231752,
2,1,0,1,0,3614.32,0.23951,0.23925,0.975794,3,0.0199614,11,0.000233459,-3.01064,-0.809451,-0.0728889,-2.77563,0.23925,
2,1,0,1,0,3614.69,0.247001,0.246724,0.962789,3,0.020327,11,0.000237543,-3.01647,-0.682307,-0.0864713,-3.23847,0.2467238,
2,1,0,1,0,3615.07,0.254492,0.254231,0.944377,3,0.020687,11,0.00024009,-3.02485,-1.05122,-0.0561255,-2.07864,0.254231,
2,1,0,1,0,3615.44,0.261983,0.261727,0.933526,3,0.0210418,11,0.000244329,-3.02987,-1.30757,-0.045122,-1.644,0.261727,
2,1,0,1,0,3615.82,0.269474,0.269192,0.920684,3,0.0213922,11,0.00024784,-3.03589,-5.82756,-0.0101243,-0.363383,0.269192,
2,1,0,1,0,3616.19,0.276965,0.276711,0.910794,3,0.0217384,11,0.000252027,-3.04058,-1.11655,-0.0528416,-1.88201,0.2767109,
2,1,0,1,0,3616.57,0.284456,0.284217,0.9018,3,0.0220806,11,0.000256307,-3.04489,-1.84114,-0.0320454,-1.12696,0.284217,
2,1,0,1,0,3616.94,0.291947,0.29168,0.888574,3,0.022419,11,0.000259179,-3.05131,-0.930248,-0.0634239,-2.20519,0.29168,
2,1,0,1,0,3617.32,0.299436,0.299207,0.8771,3,0.0227538,11,0.000262435,-3.05695,-0.00139976,-42.1501,-544.343,0.299207,
2,0,0,1,0,3617.66,0.293745,0.293444,-0.269737,3,0.0227288,11,-7.91528e-05,-3.56906,-0.0360249,-1.63775,16.8299,0.2934444,
2,0,0,1,0,3618.03,0.286254,0.285918,-0.357009,3,0.022607,11,-0.000102075,-3.44732,-0.091161,-0.647207,9.0101,0.285918,
2,0,0,1,0,3618.41,0.278763,0.278451,-0.416351,3,0.0224582,11,-0.000115933,-3.38054,-0.123321,-0.478427,7.75342,0.278451,
2,0,0,1,0,3618.78,0.271272,0.270926,-0.467415,3,0.02229,11,-0.000126635,-3.3303,-0.187635,-0.31444,5.66765,0.270926,
2,0,0,1,0,3619.16,0.263781,0.263516,-0.501955,3,0.0221058,11,-0.000132273,-3.29934,-0.243554,-0.242246,4.7771,0.263516,
2,0,0,1,0,3619.53,0.25629,0.255976,-0.539093,3,0.0219074,11,-0.000137995,-3.26834,-0.322881,-0.18273,3.8235,0.255976,
2,0,0,1,0,3619.91,0.248799,0.24852,-0.571595,3,0.0216962,11,-0.000142053,-3.24291,-0.331774,-0.177832,3.98035,0.24852,
2,0,0,1,0,3620.28,0.241308,0.241007,-0.607461,3,0.0214729,11,-0.000146402,-3.21648,-0.315471,-0.187022,4.42756,0.241007,
2,0,0,1,0,3620.65,0.233817,0.233501,-0.637837,3,0.0212373,11,-0.000148936,-3.19529,-0.311495,-0.189409,4.72865,0.233501,
2,0,0,1,0,3621.03,0.226326,0.226034,-0.670179,3,0.0209891,11,-0.000151483,-3.17381,-0.335804,-0.175698,4.60398,0.226034,
2,0,0,1,0,3621.4,0.218835,0.218539,-0.709739,3,0.0207276,11,-0.000155105,-3.1489,-0.260298,-0.226663,6.27581,0.2185387,
2,0,0,1,0,3621.78,0.211344,0.211031,-0.753814,3,0.0204514,11,-0.000159078,-3.12274,-0.328007,-0.179874,5.27512,0.211031,
2,0,0,1,0,3622.15,0.203855,0.203548,-0.800323,3,0.0201577,11,-0.000162904,-3.09673,-0.264622,-0.22296,7.00831,0.203548,
2,0,0,1,0,3622.53,0.196362,0.196051,-0.864753,3,0.0198432,11,-0.000169536,-3.06311,-0.198028,-0.297938,10.0613,0.196051,
2,0,0,1,0,3622.9,0.188871,0.188552,-0.949149,3,0.0195012,11,-0.000178964,-3.02267,-0.149841,-0.393751,14.5791,0.1885522,
2,0,0,1,0,3623.28,0.18138,0.181105,-1.06857,3,0.0191224,11,-0.000193524,-2.9712,-0.131912,-0.447266,18.6239,0.181105,
2,0,0,1,0,3623.65,0.173891,0.173586,-1.23819,3,0.0186906,11,-0.000214933,-2.90721,-0.0994358,-0.593348,28.6295,0.1735857,
2,0,0,1,0,3624.03,0.166398,0.166076,-1.49809,3,0.0181792,11,-0.000248796,-2.82446,-0.0834338,-0.707148,41.5278,0.166076,
2,0,0,1,0,3624.4,0.158906,0.158613,-1.90005,3,0.0175445,11,-0.000301372,-2.72124,-0.0666612,-0.885073,65.8565,0.158613,
2,0,0,1,0,3624.77,0.151417,0.151128,-2.44947,3,0.0167288,11,-0.000370185,-2.61093,-0.0727907,-0.810543,77.5008,0.151128,
2,0,0,1,0,3625.15,0.143926,0.143637,-3.00871,3,0.0157013,11,-0.000432163,-2.52162,-0.100584,-0.586573,68.5849,0.143637,
2,0,0,1,0,3625.52,0.136435,0.136109,-3.38982,3,0.0144928,11,-0.000461385,-2.46982,-0.227012,-0.259898,34.2518,0.136109,
2,0,0,1,0,3625.9,0.128942,0.128641,-3.49393,3,0.0131921,11,-0.000449461,-2.45669,1.10188,0.0535447,-7.26464,0.128641,
2,0,0,1,0,3626.27,0.121453,0.121177,-3.29547,3,0.0119106,11,-0.000399335,-2.48208,0.178541,0.330455,-42.4006,0.121177,
2,0,0,1,0,3626.65,0.113962,0.113699,-2.91567,3,0.0107413,11,-0.000331509,-2.53526,0.127377,0.46319,-52.7904,0.113699,
2,0,0,1,0,3627.02,0.106471,0.10623,-2.55879,3,0.00971553,11,-0.000271819,-2.59197,0.151655,0.38904,-38.9831,0.10623,
2,0,0,1,0,3627.4,0.0989799,0.098677,-2.31731,3,0.00880306,11,-0.000228665,-2.63502,0.224969,0.262259,-23.7032,0.098677,
2,0,0,1,0,3627.77,0.0914889,0.091168,-2.16698,3,0.00796378,11,-0.000197559,-2.66414,0.293368,0.201113,-16.9656,0.091168,
2,0,0,1,0,3628.15,0.083998,0.0836675,-2.05059,3,0.00717291,11,-0.000171567,-2.68812,0.26683,0.221114,-17.6721,0.0836675,
2,0,0,1,0,3628.52,0.076507,0.0762168,-1.94391,3,0.00642219,11,-0.000148159,-2.71132,0.283735,0.20794,-15.7618,0.0762168,
2,0,0,1,0,3628.89,0.0690161,0.0687312,-1.81805,3,0.00571374,11,-0.000124956,-2.7404,0.249226,0.236733,-16.8663,0.0687312,
2,0,0,1,0,3629.27,0.0615251,0.0612544,-1.6968,3,0.00505098,11,-0.000103937,-2.77037,0.245306,0.240516,-15.9832,0.0612544,
2,0,0,1,0,3629.64,0.0540342,0.0537351,-1.58918,3,0.00443344,11,-8.53946e-05,-2.79883,0.294905,0.200065,-12.4019,0.05373507,
2,0,0,1,0,3630.02,0.0465432,0.0462351,-1.50312,3,0.00385231,11,-6.94971e-05,-2.82301,0.404447,0.145878,-8.57355,0.0462351,
2,0,0,1,0,3630.39,0.0390523,0.0387668,-1.45257,3,0.00329691,11,-5.63113e-05,-2.83786,0.454179,0.129905,-7.34329,0.0387668,
2,0,0,1,0,3630.77,0.0315626,0.0312583,-1.42446,3,0.00275681,11,-4.45261e-05,-2.84635,1.85254,0.0318481,-1.7689,0.0312583,
2,0,0,1,0,3631.14,0.0240704,0.0237684,-1.41035,3,0.00222285,11,-3.35217e-05,-2.85067,26.8355,0.00219858,-0.12173,0.02376841,
2,0,0,1,0,3631.52,0.0165785,0.0162291,-1.42352,3,0.00168864,11,-2.31024e-05,-2.84664,-0.917425,-0.0643104,3.57715,0.0162291,
2,0,0,1,0,3631.89,0.00908846,0.00877527,-1.44346,3,0.00114899,11,-1.26668e-05,-2.8406,-0.851303,-0.0693055,3.90147,0.00877527,
2,0,0,1,0,3632.27,0.0015984,0.00123984,-1.49805,3,0.000598804,11,-1.85734e-06,-2.82447, , , ,0.00123984,
2,0,0,1,0,3632.34,0.000199195,-0.000131526,-1.48338,3,0.000494277,11,1.95103e-07,-2.82875, , , ,-0.000131526,