File: Figure_codes/Fig_3-5/rawdata_trumpetplot_data/before 10th/20221101_1-115_002_TrumpetPlot_ParaChange_09_CV_C01_0.csv
mode,ox/red,error,control changes,counter inc.,time/s,control/V,Ewe/V,<I>/mA,cycle number,(Q-Qo)/C,I Range,P/W,log(|I|),Tafel slope mV/dec,alpha_eff,dI/d(E-IR),E-IR/V,
2,0,0,0,0,1184.29,2.44065e-05,1.82482e-05,-3.87168,1,0.0000000E+000,11,-7.06514e-08,-2.4121, , , ,1.82482e-05,
2,1,0,1,0,1184.41,0.007288,0.00699818,2.44817,1,0.000124499,11,1.71327e-05,-2.61116,0.0761602,0.774683,72.0753,0.00699818,
2,1,0,1,0,1184.54,0.0147816,0.0144875,2.59785,1,0.000443278,11,3.76363e-05,-2.58539,0.464715,0.12696,12.9301,0.0144875,
2,1,0,1,0,1184.66,0.0222712,0.0220071,2.68084,1,0.000773564,11,5.89976e-05,-2.57173,1.00517,0.0586966,6.1259,0.0220071,
2,1,0,1,0,1184.79,0.0297648,0.0294735,2.74662,1,0.00111233,11,8.09525e-05,-2.5612,0.902885,0.0653461,6.96652,0.0294735,
2,1,0,1,0,1184.91,0.0372518,0.0369467,2.80241,1,0.00145852,11,0.00010354,-2.55247,0.690466,0.0854496,9.36037,0.03694668,
2,1,0,1,0,1185.03,0.0447467,0.0444711,2.87272,1,0.00181396,11,0.000127753,-2.54171,0.568358,0.103808,11.7083,0.0444711,
2,1,0,1,0,1185.16,0.052235,0.0519293,2.99103,1,0.00218081,11,0.000155322,-2.52418,0.400145,0.147447,17.2533,0.0519293,
2,1,0,1,0,1185.28,0.0597299,0.0594401,3.16182,1,0.00256502,11,0.000187939,-2.50006,0.274178,0.215189,26.4657,0.0594401,
2,1,0,1,0,1185.41,0.0672156,0.0669326,3.37637,1,0.00297193,11,0.000225989,-2.47155,0.213773,0.275994,36.3004,0.0669326,
2,1,0,1,0,1185.53,0.0747105,0.0744317,3.63563,1,0.00340973,11,0.000270606,-2.43942,0.220268,0.267855,38.126,0.0744317,
2,1,0,1,0,1185.66,0.0821988,0.081924,3.95414,1,0.00388411,11,0.000323939,-2.40295,0.22115,0.266788,41.2215,0.081924,
2,1,0,1,0,1185.78,0.0896937,0.0893961,4.30929,1,0.00440024,11,0.000385234,-2.36559,0.217468,0.271304,45.5615,0.0893961,
2,1,0,1,0,1185.91,0.0971794,0.0969168,4.65991,1,0.00495993,11,0.000451623,-2.33162,0.199458,0.295802,53.7924,0.0969168,
2,1,0,1,0,1186.03,0.104674,0.104408,5.06221,1,0.00556694,11,0.000528533,-2.29566,0.192628,0.30629,60.604,0.104408,
2,1,0,1,0,1186.16,0.112163,0.111867,5.58519,1,0.00623051,11,0.000624799,-2.25296,0.161639,0.365011,79.6205,0.111867,
2,1,0,1,0,1186.28,0.119657,0.119427,6.34793,1,0.00697234,11,0.000758111,-2.19737,0.128362,0.459639,113.68,0.1194265,
2,1,0,1,0,1186.41,0.127143,0.126882,7.36522,1,0.00782517,11,0.000934514,-2.13281,0.109901,0.536847,154.447,0.126882,
2,1,0,1,0,1186.53,0.134638,0.134406,8.59212,1,0.00882208,11,0.00115483,-2.0659,0.119837,0.492335,165.231,0.1344061,
2,1,0,1,0,1186.66,0.142126,0.141845,9.74529,1,0.00997044,11,0.00138232,-2.01121,0.168607,0.349925,132.969,0.141845,
2,1,0,1,0,1186.78,0.149621,0.149349,10.4804,1,0.0112405,11,0.00156524,-1.97962,0.457409,0.128988,52.5617,0.149349,
2,1,0,1,0,1186.91,0.157107,0.156846,10.4201,1,0.0125544,11,0.00163436,-1.98213,-0.29018,-0.203322,-82.1678,0.156846,
2,1,0,1,0,1187.03,0.164602,0.164294,9.09592,1,0.013788,11,0.00149441,-2.04115,-0.0774615,-0.761669,-268.755,0.164294,
2,1,0,1,0,1187.16,0.17209,0.171806,6.71133,1,0.0147791,11,0.00115305,-2.17319,-0.0496672,-1.18791,-312.291,0.1718064,
2,1,0,1,0,1187.28,0.179585,0.179333,4.92774,1,0.015494,11,0.000883706,-2.30735,-0.0707806,-0.833561,-161.281,0.179333,
2,1,0,1,0,1187.41,0.187072,0.186838,4.0877,1,0.0160506,11,0.000763736,-2.38852,-0.123179,-0.478978,-76.4391,0.186838,
2,1,0,1,0,1187.53,0.194566,0.194289,3.61054,1,0.0165293,11,0.000701488,-2.44243,-0.175035,-0.337075,-47.5563,0.194289,
2,1,0,1,0,1187.66,0.202055,0.201769,3.28502,1,0.0169585,11,0.000662814,-2.48346,-0.195894,-0.301184,-38.6303,0.201769,
2,1,0,1,0,1187.78,0.209549,0.209243,3.07384,1,0.0173551,11,0.00064318,-2.51232,-0.222448,-0.26523,-31.7917,0.209243,
2,1,0,1,0,1187.91,0.217036,0.216746,2.91174,1,0.0177281,11,0.000631107,-2.53585,-0.395521,-0.14917,-16.9569,0.216746,
2,1,0,1,0,1188.03,0.224529,0.224268,2.80264,1,0.0180853,11,0.000628544,-2.55243,-0.557014,-0.105922,-11.6102,0.224268,
2,1,0,1,0,1188.16,0.232019,0.23171,2.71555,1,0.01843,11,0.00062922,-2.56614,-0.792028,-0.0744923,-7.91531,0.23171,
2,1,0,1,0,1188.28,0.239513,0.239238,2.65558,1,0.018766,11,0.000635317,-2.57584,-0.761432,-0.0774856,-8.02435,0.239238,
2,1,0,1,0,1188.41,0.247001,0.246724,2.61339,1,0.0190946,11,0.000644786,-2.5828,-0.811709,-0.0726862,-7.366,0.246724,
2,1,0,1,0,1188.53,0.254493,0.254258,2.55751,1,0.0194174,11,0.000650269,-2.59218,-1.83412,-0.032168,-3.21346,0.254258,
2,1,0,1,0,1188.66,0.261983,0.261694,2.51103,1,0.0197348,11,0.000657123,-2.60015,-1.21882,-0.0484074,-4.76745,0.261694,
2,1,0,1,0,1188.78,0.269477,0.269206,2.48487,1,0.0200477,11,0.000668942,-2.6047,-1.07972,-0.054644,-5.30642,0.269206,
2,1,0,1,0,1188.91,0.276965,0.276684,2.45813,1,0.0203564,11,0.000680126,-2.6094,-1.08561,-0.0543475,-5.19411,0.276684,
2,1,0,1,0,1189.03,0.284457,0.284197,2.42157,1,0.0206613,11,0.000688203,-2.6159,-6.07445,-0.00971282,-0.917892,0.284197,
2,1,0,1,0,1189.15,0.291947,0.291684,2.38784,1,0.0209621,11,0.000696497,-2.62199,-1.54301,-0.0382368,-3.56882,0.291684,
2,1,0,1,0,1189.28,0.29944,0.299185,2.36073,1,0.0212598,11,0.000706297,-2.62695,-0.00242088,-24.3713,-1086.52,0.299185,
2,0,0,1,0,1189.39,0.293742,0.293415,-0.957175,1,0.0212323,11,-0.00028085,-3.01901,-0.0759973,-0.776344,28.5769,0.293415,
2,0,0,1,0,1189.52,0.286254,0.285918,-1.15319,1,0.0211,11,-0.000329719,-2.9381,-0.109734,-0.537662,24.09,0.285918,
2,0,0,1,0,1189.64,0.278761,0.278496,-1.29398,1,0.020946,11,-0.000360368,-2.88807,-0.159468,-0.36998,18.8308,0.2784965,
2,0,0,1,0,1189.77,0.271272,0.27098,-1.41229,1,0.0207759,11,-0.000382703,-2.85008,-0.214112,-0.275557,15.2592,0.27098,
2,0,0,1,0,1189.89,0.263778,0.263465,-1.5215,1,0.0205919,11,-0.000400863,-2.81773,-0.341113,-0.172963,10.2431,0.2634654,
2,0,0,1,0,1190.02,0.25629,0.25599,-1.61844,1,0.020396,11,-0.000414306,-2.7909,-0.296361,-0.199081,12.4697,0.25599,
2,0,0,1,0,1190.14,0.248797,0.248477,-1.69745,1,0.0201888,11,-0.000421778,-2.7702,-0.303328,-0.194509,12.9102,0.248477,
2,0,0,1,0,1190.27,0.241308,0.241024,-1.77483,1,0.0199711,11,-0.000427775,-2.75084,-0.366003,-0.161201,11.2739,0.241024,
2,0,0,1,0,1190.39,0.233814,0.233534,-1.87768,1,0.0197422,11,-0.000438503,-2.72638,-0.375345,-0.157189,11.4984,0.233534,
2,0,0,1,0,1190.52,0.226326,0.226029,-1.97658,1,0.0195019,11,-0.000446764,-2.70409,-0.329502,-0.179058,13.7578,0.226029,
2,0,0,1,0,1190.64,0.218834,0.218516,-2.08112,1,0.0192487,11,-0.000454759,-2.6817,-0.249102,-0.23685,19.24,0.218516,
2,0,0,1,0,1190.77,0.211344,0.21107,-2.20158,1,0.0189811,11,-0.000464686,-2.65727,-0.301754,-0.195524,16.8408,0.21107,
2,0,0,1,0,1190.89,0.203856,0.203562,-2.36598,1,0.0186955,11,-0.000481623,-2.62599,-0.286516,-0.205922,19.0454,0.203562,
2,0,0,1,0,1191.02,0.196362,0.19608,-2.56686,1,0.0183881,11,-0.000503311,-2.5906,-0.194605,-0.303178,30.3235,0.19608,
2,0,0,1,0,1191.14,0.18887,0.188577,-2.83137,1,0.0180513,11,-0.000533932,-2.548,-0.145422,-0.405715,44.8904,0.188577,
2,0,0,1,0,1191.27,0.18138,0.181097,-3.19352,1,0.0176759,11,-0.000578337,-2.49573,-0.122754,-0.480635,60.1618,0.181097,
2,0,0,1,0,1191.39,0.173892,0.173602,-3.72147,1,0.0172455,11,-0.000646055,-2.42929,-0.103496,-0.570071,82.8656,0.173602,
2,0,0,1,0,1191.52,0.166398,0.166098,-4.48134,1,0.016736,11,-0.000744342,-2.34859,-0.0866734,-0.680716,119.128,0.166098,
2,0,0,1,0,1191.64,0.158905,0.158593,-5.56836,1,0.0161123,11,-0.000883105,-2.25427,-0.0732089,-0.805913,175.238,0.158593,
2,0,0,1,0,1191.77,0.151417,0.151103,-6.98285,1,0.0153301,11,-0.00105513,-2.15597,-0.0804784,-0.733116,200.035,0.1511026,
2,0,0,1,0,1191.89,0.143927,0.143624,-8.4833,1,0.0143629,11,-0.0012184,-2.07144,-0.100053,-0.589686,195.207,0.143624,
2,0,0,1,0,1192.02,0.136435,0.136151,-9.73379,1,0.0132192,11,-0.00132527,-2.01172,-0.172038,-0.342948,129.811,0.136151,
2,0,0,1,0,1192.14,0.128941,0.128651,-10.3864,1,0.0119555,11,-0.00133622,-1.98353,-0.619944,-0.09517,38.4068,0.128651,
2,0,0,1,0,1192.26,0.121453,0.121153,-10.1764,1,0.0106618,11,-0.00123291,-1.9924,0.245015,0.240802,-95.3314,0.121153,
2,0,0,1,0,1192.39,0.113963,0.113659,-9.00708,1,0.00945489,11,-0.00102374,-2.04542,0.10188,0.579114,-203.352,0.113659,
2,0,0,1,0,1192.51,0.106471,0.106182,-7.46942,1,0.00842657,11,-0.000793118,-2.12671,0.0909768,0.648517,-189.372,0.1061819,
2,0,0,1,0,1192.64,0.0989825,0.0986776,-6.36892,1,0.00756914,11,-0.00062847,-2.19593,0.13945,0.423092,-105.291,0.0986776,
2,0,0,1,0,1192.76,0.0914889,0.0911692,-5.7484,1,0.00681608,11,-0.000524077,-2.24045,0.219557,0.268723,-60.3599,0.0911692,
2,0,0,1,0,1192.89,0.0839993,0.0836808,-5.34122,1,0.00612469,11,-0.000446957,-2.27236,0.248967,0.23698,-49.4378,0.0836808,
2,0,0,1,0,1193.01,0.076507,0.0761744,-5.00487,1,0.00547838,11,-0.000381243,-2.30061,0.233453,0.252728,-49.2951,0.0761744,
2,0,0,1,0,1193.14,0.0690187,0.0687145,-4.66493,1,0.00487496,11,-0.000320548,-2.33115,0.240928,0.244886,-44.6116,0.0687145,
2,0,0,1,0,1193.26,0.0615251,0.0612398,-4.34675,1,0.00431169,11,-0.000266194,-2.36184,0.280739,0.21016,-35.7834,0.0612398,
2,0,0,1,0,1193.39,0.0540355,0.0537699,-4.10496,1,0.00378397,11,-0.000220723,-2.38669,0.377127,0.156446,-25.1302,0.0537699,
2,0,0,1,0,1193.51,0.0465432,0.046247,-3.95211,1,0.00328104,11,-0.000182773,-2.40317,0.497776,0.118527,-18.2629,0.046247,
2,0,0,1,0,1193.64,0.0390549,0.0387429,-3.86377,1,0.0027943,11,-0.000149694,-2.41299,0.850747,0.0693508,-10.423,0.0387429,
2,0,0,1,0,1193.76,0.0315613,0.0312693,-3.82413,1,0.00231491,11,-0.000119578,-2.41747,14.3496,0.00411161,-0.613395,0.0312693,
2,0,0,1,0,1193.89,0.0240717,0.0237809,-3.8112,1,0.00183783,11,-9.06338e-05,-2.41894,-2.93315,-0.0201149,3.01029,0.0237809,
2,0,0,1,0,1194.01,0.0165781,0.0162508,-3.85878,1,0.00135773,11,-6.2708e-05,-2.41355,-1.2779,-0.0461695,6.97004,0.0162508,
2,0,0,1,0,1194.14,0.00909108,0.00879038,-3.93145,1,0.000871469,11,-3.45589e-05,-2.40545,-0.787035,-0.0749649,11.4614,0.00879038,
2,0,0,1,0,1194.26,0.00159616,0.00121507,-4.06937,1,0.000375118,11,-4.94459e-06,-2.39047, , , ,0.00121507,
2,0,0,1,0,1194.29,0.000199195,-0.000153538,-4.0433,1,0.00028049,11,6.20798e-07,-2.39326, , , ,-0.000153538,