File: Figure_codes/Fig_3-5/rawdata_trumpetplot_data/before 10th/20221101_1-115_002_TrumpetPlot_ParaChange_14_CV_C01_4.csv
mode,ox/red,error,control changes,counter inc.,time/s,control/V,Ewe/V,<I>/mA,cycle number,(Q-Qo)/C,I Range,P/W,log(|I|),Tafel slope mV/dec,alpha_eff,dI/d(E-IR),E-IR/V,
2,1,0,1,0,6142.81,2.44065e-05,-0.00070707,24.606,5,0.0000000E+000,10,-1.73982e-05,-1.60896, , , ,-0.00070707,
2,1,0,1,0,6142.82,0.0102815,0.00996274,24.978,5,0.000412487,10,0.00024885,-1.60244,0.284626,0.207289,201.737,0.00996274,
2,1,0,1,0,6142.84,0.0210878,0.0207534,26.8908,5,0.000880442,10,0.000558076,-1.5704,0.432689,0.136356,142.622,0.0207534,
2,1,0,1,0,6142.86,0.0318859,0.0315441,28.1334,5,0.00137649,10,0.000887445,-1.55078,0.675543,0.0873371,95.7347,0.0315441,
2,1,0,1,0,6142.88,0.042684,0.0423847,29.027,5,0.00189124,10,0.0012303,-1.5372,0.846887,0.0696669,78.9049,0.0423847,
2,1,0,1,0,6142.9,0.0534793,0.0531838,29.8657,5,0.00242123,10,0.00158837,-1.52483,0.785311,0.0751294,87.6795,0.0531838,
2,1,0,1,0,6142.91,0.0642857,0.0639586,30.9404,5,0.00296834,10,0.00197891,-1.50947,0.604129,0.0976612,118.104,0.0639586,
2,1,0,1,0,6142.93,0.0750837,0.074743,32.4198,5,0.00353822,10,0.00242315,-1.48919,0.465598,0.126719,160.622,0.07474298,
2,1,0,1,0,6142.95,0.0858818,0.0854902,34.3642,5,0.00413893,10,0.0029378,-1.46389,0.404694,0.145789,195.724,0.0854902,
2,1,0,1,0,6142.97,0.0966882,0.0962766,36.6256,5,0.00477779,10,0.00352619,-1.43621,0.367825,0.160403,229.729,0.0962766,
2,1,0,1,0,6142.99,0.107483,0.107182,39.3495,5,0.00546166,10,0.00421755,-1.40506,0.353116,0.167084,256.487,0.107182,
2,1,0,1,0,6143,0.118282,0.117956,42.1548,5,0.00619512,10,0.0049724,-1.37515,0.362906,0.162576,267.495,0.1179556,
2,1,0,1,0,6143.02,0.129088,0.128767,45.1534,5,0.00698077,10,0.00581429,-1.34531,0.356425,0.165533,291.724,0.128767,
2,1,0,1,0,6143.04,0.139886,0.139536,48.5008,5,0.00782325,10,0.0067676,-1.31425,0.336112,0.175537,332.388,0.139536,
2,1,0,1,0,6143.06,0.150681,0.150374,52.3454,5,0.00873037,10,0.0078714,-1.28112,0.318635,0.185165,378.442,0.150374,
2,1,0,1,0,6143.08,0.161485,0.161159,56.6319,5,0.00971111,10,0.00912671,-1.24694,0.321347,0.183602,405.698,0.161159,
2,1,0,1,0,6143.09,0.172286,0.171948,61.0043,5,0.0107706,10,0.0104896,-1.21464,0.355125,0.166138,395.159,0.171948,
2,1,0,1,0,6143.11,0.183084,0.182749,64.9791,5,0.0119059,10,0.0118748,-1.18723,0.464067,0.127137,321.74,0.182749,
2,1,0,1,0,6143.13,0.193879,0.193617,67.612,5,0.0131026,10,0.0130908,-1.16998,1.14769,0.0514076,135.124,0.193617,
2,1,0,1,0,6143.15,0.204688,0.204386,67.3656,5,0.0143234,10,0.0137686,-1.17156,-0.699167,-0.0843861,-220.339,0.204386,
2,1,0,1,0,6143.17,0.215484,0.215219,62.4858,5,0.0154994,10,0.0134481,-1.20422,-0.210364,-0.280466,-678.313,0.215219,
2,1,0,1,0,6143.18,0.226282,0.226035,53.1342,5,0.016544,10,0.0120102,-1.27463,-0.124215,-0.474983,-979.937,0.2260354,
2,1,0,1,0,6143.2,0.237088,0.236854,42.4811,5,0.0174022,10,0.0100618,-1.3718,-0.106506,-0.553957,-919.465,0.236854,
2,1,0,1,0,6143.22,0.247886,0.247601,33.9406,5,0.0180841,10,0.00840373,-1.46928,-0.123581,-0.477421,-636.589,0.2476009,
2,1,0,1,0,6143.24,0.258681,0.258391,28.6464,5,0.0186424,10,0.00740195,-1.54293,-0.183236,-0.321989,-362.601,0.258391,
2,1,0,1,0,6143.26,0.269488,0.269195,25.7447,5,0.019129,10,0.00693034,-1.58931,-0.299977,-0.196682,-198.534,0.269195,
2,1,0,1,0,6143.27,0.280286,0.279995,24.1426,5,0.0195767,10,0.00675982,-1.61722,-0.493924,-0.119451,-112.808,0.279995,
2,1,0,1,0,6143.29,0.291084,0.290799,23.1513,5,0.0200017,10,0.00673237,-1.63542,-0.704517,-0.0837454,-75.8257,0.290799,
2,1,0,1,0,6143.31,0.300012,0.299785,22.5573,5,0.0203423,10,0.00676234,-1.64671,0.000482151,122.368,85341.7,0.299785,
2,1,0,1,0,6143.32,0.290843,0.290634,3.14663,5,0.0205143,10,0.000914518,-2.50215,0.0126983,4.64631,1336.19,0.290634,
2,0,0,1,0,6143.34,0.280047,0.279781,-5.86834,5,0.0204764,10,-0.00164185,-2.23148,-0.02164,-2.72643,531.622,0.279781,
2,0,0,1,0,6143.36,0.269244,0.268953,-9.75302,5,0.0203311,10,-0.00262311,-2.01086,-0.0874864,-0.67439,250.947,0.268953,
2,0,0,1,0,6143.38,0.258443,0.258189,-11.7945,5,0.0201354,10,-0.0030452,-1.92832,-0.184733,-0.31938,145.879,0.258189,
2,0,0,1,0,6143.39,0.247645,0.247374,-13.135,5,0.0199103,10,-0.00324925,-1.88157,-0.27707,-0.212943,108.905,0.247374,
2,0,0,1,0,6143.41,0.236849,0.236557,-14.1988,5,0.019664,10,-0.00335882,-1.84775,-0.350652,-0.168258,93.1088,0.236557,
2,0,0,1,0,6143.43,0.22604,0.225733,-15.1704,5,0.0193996,10,-0.00342446,-1.819,-0.401865,-0.146815,86.7979,0.225733,
2,0,0,1,0,6143.45,0.215245,0.214929,-16.1126,5,0.0191181,10,-0.00346305,-1.79284,-0.400036,-0.147487,92.7801,0.214929,
2,0,0,1,0,6143.47,0.204447,0.204135,-17.1535,5,0.0188188,10,-0.00350163,-1.76565,-0.384609,-0.153402,102.723,0.204135,
2,0,0,1,0,6143.48,0.19364,0.193342,-18.3576,5,0.0184996,10,-0.0035493,-1.73618,-0.342405,-0.17231,123.54,0.193342,
2,0,0,1,0,6143.5,0.182842,0.182547,-19.8497,5,0.0181562,10,-0.00362351,-1.70225,-0.287928,-0.204912,159.098,0.182547,
2,0,0,1,0,6143.52,0.172047,0.171763,-21.8398,5,0.0177816,10,-0.00375127,-1.66075,-0.233558,-0.252614,216.092,0.171763,
2,0,0,1,0,6143.54,0.161241,0.160968,-24.5802,5,0.0173647,10,-0.00395662,-1.60941,-0.192413,-0.306633,295.053,0.160968,
2,0,0,1,0,6143.56,0.150443,0.15016,-28.3117,5,0.01689,10,-0.00425129,-1.54803,-0.164404,-0.358872,397.39,0.15016,
2,0,0,1,0,6143.57,0.139645,0.139405,-33.2098,5,0.0163377,10,-0.00462962,-1.47873,-0.150685,-0.391546,508.052,0.139405,
2,0,0,1,0,6143.59,0.128849,0.128624,-39.124,5,0.0156872,10,-0.0050323,-1.40756,-0.156442,-0.377137,575.697,0.128624,
2,0,0,1,0,6143.61,0.118043,0.117889,-45.388,5,0.0149259,10,-0.00535074,-1.34306,-0.178931,-0.329735,583.883,0.117889,
2,0,0,1,0,6143.63,0.107245,0.107032,-51.5948,5,0.0140511,10,-0.00552231,-1.28739,-0.218422,-0.27012,542.605,0.107032,
2,0,0,1,0,6143.65,0.0964468,0.0962682,-57.0195,5,0.0130719,10,-0.00548917,-1.24398,-0.286525,-0.205916,457.166,0.0962682,
2,0,0,1,0,6143.66,0.0856404,0.0853788,-61.2964,5,0.0120042,10,-0.00523341,-1.21257,-0.444173,-0.132831,316.798,0.0853788,
2,0,0,1,0,6143.68,0.0748451,0.0745489,-63.8128,5,0.010875,10,-0.00475718,-1.19509,-1.03179,-0.0571824,141.95,0.0745489,
2,0,0,1,0,6143.7,0.0640471,0.0637826,-64.2413,5,0.00971911,10,-0.00409748,-1.19219,2.30376,0.0256103,-63.9909,0.06378261,
2,0,0,1,0,6143.72,0.0532407,0.0529357,-62.549,5,0.00857556,10,-0.00331107,-1.20378,0.629945,0.093659,-228.173,0.0529357,
2,0,0,1,0,6143.74,0.0424426,0.0421302,-59.6303,5,0.00747525,10,-0.00251224,-1.22453,0.478243,0.123368,-286.984,0.0421302,
2,0,0,1,0,6143.75,0.0316473,0.0313575,-56.4881,5,0.00643048,10,-0.00177133,-1.24804,0.436725,0.135096,-297.685,0.0313575,
2,0,0,1,0,6143.77,0.0208437,0.0205276,-53.2157,5,0.00544322,10,-0.00109239,-1.27396,0.38038,0.155108,-321.669,0.0205276,
2,0,0,1,0,6143.79,0.0100429,0.00976975,-49.4311,5,0.00451887,10,-0.000482929,-1.306,0.301187,0.195892,-377.191,0.00976975,
2,0,0,1,0,6143.81,-0.000755207,-0.00109942,-45.2231,5,0.00366748,10,4.97193e-05,-1.34464,0.271511,0.217302,-383.253,-0.00109942,
2,0,0,1,0,6143.83,-0.0115505,-0.0119294,-41.3243,5,0.00289052,10,0.000492973,-1.38379,0.308964,0.190961,-308.804,-0.0119294,
2,0,0,1,0,6143.84,-0.0223597,-0.022702,-38.6465,5,0.00217298,10,0.000877355,-1.41289,0.472308,0.124919,-188.956,-0.022702,
2,0,0,1,0,6143.86,-0.033155,-0.0335002,-37.1745,5,0.0014922,10,0.00124535,-1.42975,1.00472,0.0587228,-85.4402,-0.0335002,
2,0,0,1,0,6143.88,-0.043953,-0.0443386,-36.6307,5,0.000828956,10,0.00162415,-1.43615,3.82956,0.0154065,-22.0672,-0.04433858,
2,0,0,1,0,6143.9,-0.0547594,-0.0551144,-36.6906,5,0.000169844,10,0.00202218,-1.43544,-3.70242,-0.0159355,22.8353,-0.0551144,
2,0,0,1,0,6143.92,-0.0655575,-0.0658956,-37.1181,5,-0.000494006,10,0.00244592,-1.43041,-1.56629,-0.0376685,54.6076,-0.0658956,
2,0,0,1,0,6143.93,-0.0763528,-0.0766958,-37.8309,5,-0.00116824,10,0.00290147,-1.42215,-1.18223,-0.0499058,73.7015,-0.0766958,
2,0,0,1,0,6143.95,-0.0871592,-0.0874865,-38.7319,5,-0.00185688,10,0.00338852,-1.41193,-0.976385,-0.060427,91.3344,-0.0874865,
2,0,0,1,0,6143.97,-0.0979573,-0.0982931,-39.8038,5,-0.00256345,10,0.00391244,-1.40008,-0.934775,-0.0631168,97.5986,-0.0982931,
2,0,0,1,1,6143.98,-0.0955546,-0.096044,-27.4874,5,-0.00295277,10,0.00264,-1.56087,-0.0250103,-2.35903,2474.25,-0.096044,
2,0,0,1,1,6144,-0.0847538,-0.0852056,-6.85017,5,-0.00324515,10,0.000583673,-2.1643,-0.00574932,-10.2621,1521.45,-0.0852056,
2,1,0,1,1,6144.02,-0.0739557,-0.0743916,6.34629,5,-0.00324059,10,-0.000472111,-2.19748,0.00974545,6.05411,1004.04,-0.0743916,
2,1,0,1,1,6144.03,-0.0631604,-0.0636189,15.2343,5,-0.00304071,10,-0.000969192,-1.81718,0.0493843,1.19471,686.483,-0.0636189,
2,1,0,1,1,6144.05,-0.0523512,-0.0527699,21.3695,5,-0.00270691,10,-0.00112767,-1.6702,0.10531,0.56025,460.985,-0.05276987,
2,1,0,1,1,6144.07,-0.0415559,-0.0419378,25.4139,5,-0.00228285,10,-0.0010658,-1.59493,0.191969,0.307341,302.919,-0.0419378,
2,1,0,1,1,6144.09,-0.0307579,-0.0311397,28.0243,5,-0.00179974,10,-0.000872667,-1.55247,0.3399,0.17358,189.287,-0.0311397,
2,1,0,1,1,6144.11,-0.0199515,-0.020296,29.6647,5,-0.00127903,10,-0.000602075,-1.52776,0.59619,0.0989618,114.256,-0.020296,
2,1,0,1,1,6144.12,-0.0091534,-0.00950209,30.5584,5,-0.000736111,10,-0.000290368,-1.51487,1.2922,0.0456586,54.3313,-0.00950209,
2,1,0,1,1,6144.14,-7.54729e-05,-0.000401673,30.8124,5,-0.000271842,10,-1.23765e-05,-1.51127, , , ,-0.000401673,