File: Figure_codes/Fig_3-5/rawdata_trumpetplot_data/before 10th/20221101_1-115_002_TrumpetPlot_ParaChange_11_CV_C01_5.csv
mode,ox/red,error,control changes,counter inc.,time/s,control/V,Ewe/V,<I>/mA,cycle number,(Q-Qo)/C,I Range,P/W,log(|I|),Tafel slope mV/dec,alpha_eff,dI/d(E-IR),E-IR/V,
2,0,0,1,0,7360.13,2.44065e-05,0.000495431,-6.9749,6,0.0000000E+000,11,-3.45559e-06,-2.15646, , , ,0.0004954313,
2,1,0,1,0,7360.23,0.00978761,0.00946994,3.4591,6,3.60117e-05,11,3.27575e-05,-2.46104,0.037423,1.57657,205.008,0.00946994,
2,1,0,1,0,7360.33,0.0197755,0.0194678,4.24561,6,0.00043284,11,8.26527e-05,-2.37206,0.329553,0.17903,29.6453,0.0194678,
2,1,0,1,0,7360.43,0.0297635,0.0294318,4.52985,6,0.00087148,11,0.000133322,-2.34392,0.370461,0.159261,28.1314,0.0294318,
2,1,0,1,0,7360.53,0.0397514,0.039468,4.86697,6,0.00134039,11,0.000192089,-2.31274,0.241456,0.244351,46.5077,0.03946799,
2,1,0,1,0,7360.63,0.0497484,0.0494167,5.35299,6,0.00184938,11,0.000264527,-2.2714,0.224242,0.263108,54.8117,0.0494167,
2,1,0,1,0,7360.73,0.0597273,0.0594028,5.95081,6,0.00241172,11,0.000353495,-2.22542,0.197024,0.299456,69.4498,0.0594028,
2,1,0,1,0,7360.83,0.0697152,0.0694434,6.64512,6,0.00304065,11,0.000461459,-2.1775,0.224374,0.262954,68.2617,0.0694434,
2,1,0,1,0,7360.93,0.0797031,0.0794128,7.35121,6,0.0037403,11,0.000583781,-2.13364,0.245669,0.240161,68.9051,0.0794128,
2,1,0,1,0,7361.03,0.0896911,0.0894162,7.9936,6,0.00450771,11,0.000714757,-2.09726,0.28855,0.204471,63.8574,0.0894162,
2,1,0,1,0,7361.13,0.099679,0.0993711,8.62029,6,0.00533611,11,0.000856608,-2.06448,0.298553,0.19762,66.4172,0.0993711,
2,1,0,1,0,7361.23,0.109667,0.109379,9.37595,6,0.00623255,11,0.00102553,-2.02798,0.233913,0.25223,92.4429,0.109379,
2,1,0,1,0,7361.33,0.119655,0.119351,10.5218,6,0.00722344,11,0.0012558,-1.97791,0.189918,0.31066,127.634,0.119351,
2,1,0,1,0,7361.43,0.129643,0.129304,11.916,6,0.00834333,11,0.00154079,-1.92387,0.192415,0.306629,142.538,0.129304,
2,1,0,1,0,7361.53,0.139631,0.139345,13.2307,6,0.00960183,11,0.00184363,-1.87842,0.256284,0.230213,118.846,0.139345,
2,1,0,1,0,7361.63,0.149619,0.149322,14.143,6,0.010973,11,0.00211187,-1.84946,0.616951,0.0956315,52.6655,0.149322,
2,1,0,1,0,7361.73,0.159607,0.159291,13.8462,6,0.012386,11,0.00220557,-1.85867,-0.22482,-0.262432,-141.337,0.159291,
2,1,0,1,0,7361.83,0.169595,0.169294,11.1577,6,0.0136548,11,0.00188892,-1.95243,-0.0693713,-0.850495,-368.821,0.1692937,
2,1,0,1,0,7361.93,0.179582,0.179288,7.64889,6,0.014583,11,0.00137136,-2.1164,-0.0656894,-0.898166,-269.494,0.179288,
2,1,0,1,0,7362.03,0.18957,0.189274,5.93539,6,0.0152475,11,0.00112342,-2.22655,-0.13123,-0.449593,-104.389,0.189274,
2,1,0,1,0,7362.13,0.199558,0.199265,5.19618,6,0.0157981,11,0.00103542,-2.28432,-0.229412,-0.257179,-52.0608,0.199265,
2,1,0,1,0,7362.23,0.209546,0.209288,4.75833,6,0.0162927,11,0.000995863,-2.32255,-0.270493,-0.218121,-40.5608,0.209288,
2,1,0,1,0,7362.33,0.219534,0.219234,4.47053,6,0.0167518,11,0.000980092,-2.34964,-0.485344,-0.121563,-21.2277,0.219234,
2,1,0,1,0,7362.43,0.229522,0.229225,4.28268,6,0.0171886,11,0.000981697,-2.36828,-0.64264,-0.0918088,-15.3695,0.229225,
2,1,0,1,0,7362.53,0.23951,0.239233,4.16544,6,0.0176101,11,0.00099651,-2.38034,-1.18702,-0.0497044,-8.08655,0.239233,
2,1,0,1,0,7362.63,0.249498,0.249214,4.07398,6,0.0180206,11,0.00101529,-2.38998,-1.12189,-0.0525896,-8.35535,0.249214,
2,1,0,1,0,7362.73,0.259486,0.259191,3.99724,6,0.0184227,11,0.00103605,-2.39824,-0.71828,-0.0821406,-12.7938,0.259191,
2,1,0,1,0,7362.83,0.269474,0.269159,3.91841,6,0.0188174,11,0.00105467,-2.40689,-1.21984,-0.048367,-7.40905,0.269159,
2,1,0,1,0,7362.93,0.279462,0.279163,3.859,6,0.0192058,11,0.00107729,-2.41353,-1.52281,-0.0387441,-5.83834,0.2791633,
2,1,0,1,0,7363.03,0.28945,0.289202,3.79695,6,0.0195878,11,0.00109809,-2.42057,-2.883,-0.0204648,-3.03307,0.289202,
2,1,0,1,0,7363.13,0.299438,0.299161,3.74495,6,0.0199638,11,0.00112034,-2.42655,-0.0244308,-2.41498,-317.219,0.299161,
2,0,0,1,0,7363.21,0.291747,0.291435,-1.64042,6,0.0199429,11,-0.000478075,-2.78505,-0.0547828,-1.07698,67.8136,0.291435,
2,0,0,1,0,7363.31,0.281759,0.281413,-2.02649,6,0.0197579,11,-0.000570281,-2.69326,-0.156763,-0.376365,29.6701,0.281413,
2,0,0,1,0,7363.41,0.271771,0.271482,-2.28022,6,0.0195428,11,-0.000619038,-2.64202,-0.206735,-0.28539,25.3483,0.271482,
2,0,0,1,0,7363.51,0.261783,0.261517,-2.48373,6,0.019305,11,-0.000649537,-2.6049,-0.365416,-0.16146,15.6167,0.261517,
2,0,0,1,0,7363.61,0.251795,0.251514,-2.64813,6,0.0190489,11,-0.000666042,-2.57706,-0.377946,-0.156107,16.1586,0.2515136,
2,0,0,1,0,7363.71,0.241807,0.241489,-2.80471,6,0.0187762,11,-0.000677306,-2.55211,-0.373912,-0.157791,17.3595,0.241489,
2,0,0,1,0,7363.81,0.231815,0.2315,-2.9714,6,0.0184881,11,-0.000687878,-2.52704,-0.382458,-0.154265,17.8766,0.2315,
2,0,0,1,0,7363.91,0.221831,0.221522,-3.12761,6,0.0181845,11,-0.000692834,-2.50479,-0.420042,-0.140462,17.135,0.221522,
2,0,0,1,0,7364.01,0.211843,0.211539,-3.30956,6,0.0178637,11,-0.000700102,-2.48023,-0.469066,-0.125782,16.2119,0.211539,
2,0,0,1,0,7364.11,0.201856,0.201554,-3.51923,6,0.0175233,11,-0.000709314,-2.45355,-0.362634,-0.162699,22.3875,0.201554,
2,0,0,1,0,7364.21,0.191868,0.191535,-3.80579,6,0.0171584,11,-0.000728941,-2.41955,-0.264155,-0.223354,33.2337,0.191535,
2,0,0,1,0,7364.31,0.18188,0.181586,-4.22512,6,0.0167602,11,-0.000767223,-2.37416,-0.183805,-0.320993,52.7643,0.181586,
2,0,0,1,0,7364.41,0.171892,0.171598,-4.84168,6,0.0163107,11,-0.000830824,-2.315,-0.144443,-0.408467,77.2281,0.171598,
2,0,0,1,0,7364.51,0.161904,0.161642,-5.86954,6,0.0157805,11,-0.000948766,-2.2314,-0.101646,-0.580448,133.214,0.161642,
2,0,0,1,0,7364.61,0.151916,0.151667,-7.53146,6,0.0151166,11,-0.00114227,-2.12312,-0.0855871,-0.689356,203.176,0.151667,
2,0,0,1,0,7364.71,0.141928,0.141617,-9.85765,6,0.0142522,11,-0.00139601,-2.00623,-0.0904264,-0.652464,250.465,0.1416171,
2,0,0,1,0,7364.81,0.13194,0.131649,-12.1825,6,0.0131498,11,-0.00160381,-1.91426,-0.135542,-0.43529,206.621,0.131649,
2,0,0,1,0,7364.91,0.121952,0.121675,-13.821,6,0.011843,11,-0.00168167,-1.85946,-0.302346,-0.195141,105.043,0.121675,
2,0,0,1,0,7365.01,0.111964,0.111659,-14.3031,6,0.0104282,11,-0.00159707,-1.84457,2.31304,0.0255076,-14.215,0.111659,
2,0,0,1,0,7365.11,0.101976,0.101664,-13.5716,6,0.0090263,11,-0.00137975,-1.86737,0.236033,0.249965,-132.152,0.101664,
2,0,0,1,0,7365.21,0.0919883,0.0916515,-11.9756,6,0.00774749,11,-0.00109758,-1.9217,0.170296,0.346455,-162.143,0.0916515,
2,0,0,1,0,7365.31,0.0820004,0.0817443,-10.5878,6,0.00662645,11,-0.000865495,-1.97519,0.22785,0.258942,-107.076,0.0817443,
2,0,0,1,0,7365.41,0.0720124,0.0716751,-9.7581,6,0.00561428,11,-0.000699412,-2.01063,0.333343,0.176995,-67.4131,0.0716751,
2,0,0,1,0,7365.51,0.0620245,0.0617051,-9.13716,6,0.00467101,11,-0.00056381,-2.03919,0.326772,0.180554,-64.4112,0.0617051,
2,0,0,1,0,7365.61,0.0520366,0.0517045,-8.469,6,0.00379048,11,-0.000437886,-2.07217,0.243093,0.242705,-80.0759,0.0517045,
2,0,0,1,0,7365.71,0.0420486,0.0417099,-7.65003,6,0.00298492,11,-0.000319082,-2.11634,0.226612,0.260356,-77.8618,0.0417099,
2,0,0,1,0,7365.81,0.0320607,0.0317488,-6.94998,6,0.00225844,11,-0.000220654,-2.15802,0.281293,0.209746,-56.8669,0.0317488,
2,0,0,1,0,7365.91,0.0220728,0.0218025,-6.52231,6,0.00158865,11,-0.000142203,-2.1856,0.510034,0.115679,-29.4426,0.0218025,
2,0,0,1,0,7366.01,0.0120848,0.0117574,-6.34933,6,0.0009477,11,-7.46514e-05,-2.19727,1.23741,0.0476802,-11.8183,0.0117574,
2,0,0,1,0,7366.11,0.0020969,0.00174175,-6.40541,6,0.000314739,11,-1.11566e-05,-2.19345,-0.97177,-0.060714,15.0751,0.00174175,
2,0,0,1,0,7366.21,-0.00789103,-0.00824988,-6.44771,6,-0.000325944,11,5.31929e-05,-2.19059,-1.00896,-0.0584763,14.7531,-0.00824988,
2,0,0,1,0,7366.31,-0.017879,-0.0182097,-6.65138,6,-0.000979403,11,0.00012112,-2.17709,-0.67244,-0.0877402,22.7378,-0.0182097,
2,0,0,1,0,7366.41,-0.0278669,-0.0282149,-6.87637,6,-0.0016546,11,0.000194016,-2.16264,-0.664421,-0.0887991,23.8562,-0.0282149,
2,0,0,1,0,7366.51,-0.0378548,-0.0381979,-7.16102,6,-0.00235564,11,0.000273536,-2.14503,-0.600531,-0.0982463,27.43,-0.0381979,
2,0,0,1,0,7366.61,-0.0478428,-0.0481712,-7.47845,6,-0.0030867,11,0.000360246,-2.12619,-0.435765,-0.135394,39.5581,-0.0481712,
2,0,0,1,0,7366.71,-0.0578216,-0.0581382,-7.85666,6,-0.00385201,11,0.000456772,-2.10476,-0.430156,-0.13716,42.0757,-0.0581382,
2,0,0,1,0,7366.81,-0.0678187,-0.0681629,-8.32745,6,-0.00465997,11,0.000567624,-2.07949,-0.355208,-0.1661,53.949,-0.0681629,
2,0,0,1,0,7366.91,-0.0778066,-0.0781326,-8.89211,6,-0.00551979,11,0.000694764,-2.051,-0.349713,-0.16871,58.6024,-0.0781326,
2,0,0,1,0,7367.01,-0.0877945,-0.0881432,-9.57001,6,-0.00644205,11,0.000843531,-2.01909,-0.311173,-0.189605,70.8089,-0.0881432,
2,0,0,1,0,7367.11,-0.0977825,-0.0980767,-10.2327,6,-0.00743273,11,0.00100359,-1.99001,-0.383407,-0.153884,61.5015,-0.0980767,
2,1,0,1,1,7367.21,-0.0927386,-0.0931279,0.274483,6,-0.00792996,11,-2.5562e-05,-3.56148,0.117971,0.500125,680.26,-0.0931279,
2,1,0,1,1,7367.3,-0.0827529,-0.0831058,3.7458,6,-0.00769098,11,-0.000311298,-2.42645,0.048908,1.20635,174.227,-0.08310575,
2,1,0,1,1,7367.4,-0.0727627,-0.0730816,4.84809,6,-0.00725368,11,-0.000354306,-2.31443,0.164933,0.357721,67.346,-0.0730816,
2,1,0,1,1,7367.5,-0.0627748,-0.0631231,5.32632,6,-0.00674326,11,-0.000336214,-2.27357,0.343953,0.171535,35.6493,-0.0631231,
2,1,0,1,1,7367.6,-0.0527868,-0.0531026,5.57747,6,-0.00619715,11,-0.000296178,-2.25356,0.876658,0.0673011,14.6326,-0.0531026,
2,1,0,1,1,7367.7,-0.0427989,-0.0430801,5.69176,6,-0.00563362,11,-0.000245201,-2.24475,1.22586,0.0481295,10.6928,-0.0430801,
2,1,0,1,1,7367.8,-0.0328109,-0.0331403,5.73467,6,-0.00506365,11,-0.000190049,-2.24149,103.176,0.000571839,0.127742,-0.0331403,
2,1,0,1,1,7367.9,-0.022823,-0.0231583,5.70828,6,-0.00449303,11,-0.000132194,-2.24349,-3.85281,-0.0153135,-3.40726,-0.02315833,
2,1,0,1,1,7368,-0.0128351,-0.0131438,5.64191,6,-0.00392633,11,-7.4156e-05,-2.24857,-1.21958,-0.0483775,-10.6567,-0.0131438,
2,1,0,1,1,7368.1,-0.00284713,-0.00318386,5.58076,6,-0.00336567,11,-1.77684e-05,-2.25331,-1.6636,-0.0354652,-7.71857,-0.00318386,
2,1,0,0,1,7368.13,-2.55332e-05,-0.000401673,5.55435,6,-0.00320924,11,-2.23103e-06,-2.25537, , , ,-0.000401673,