File: Figure_codes/Fig_3-5/rawdata_trumpetplot_data/before 10th/20221101_1-115_002_TrumpetPlot_ParaChange_13_CV_C01_0.csv
mode,ox/red,error,control changes,counter inc.,time/s,control/V,Ewe/V,<I>/mA,cycle number,(Q-Qo)/C,I Range,P/W,log(|I|),Tafel slope mV/dec,alpha_eff,dI/d(E-IR),E-IR/V,
2,1,0,1,0,1214.19,2.44065e-05,-0.000687983,11.7849,1,0.0000000E+000,10,-8.10778e-06,-1.92868, , , ,-0.0006879826,
2,1,0,1,0,1214.22,0.0100623,0.00975914,17.4373,1,0.000377989,10,0.000170174,-1.75852,0.110709,0.532926,358.507,0.00975914,
2,1,0,1,0,1214.24,0.0204636,0.0201236,19.7445,1,0.000866757,10,0.000397329,-1.70455,0.355659,0.165889,127.514,0.0201236,
2,1,0,1,0,1214.27,0.0308677,0.030577,20.5154,1,0.00139249,10,0.000627301,-1.68792,1.28109,0.0460545,36.8201,0.030577,
2,1,0,1,0,1214.3,0.0412635,0.040934,20.6905,1,0.00192863,10,0.000846946,-1.68423,8.87859,0.0066452,5.35932,0.040934,
2,1,0,1,0,1214.32,0.051662,0.0513345,20.7426,1,0.00246728,10,0.00106481,-1.68314,3.49032,0.0169039,13.7135,0.0513345,
2,1,0,1,0,1214.35,0.0620633,0.0617413,21.0364,1,0.00301007,10,0.00129882,-1.67703,1.11725,0.0528084,43.4105,0.06174133,
2,1,0,1,0,1214.37,0.0724674,0.0721333,21.7365,1,0.00356516,10,0.00156793,-1.66281,0.586637,0.100573,85.3141,0.0721333,
2,1,0,1,0,1214.4,0.0828632,0.082556,22.8087,1,0.00414339,10,0.001883,-1.6419,0.437551,0.134841,120.172,0.082556,
2,1,0,1,0,1214.43,0.0932618,0.0929512,24.4351,1,0.00475647,10,0.00227127,-1.61199,0.31391,0.187952,179.382,0.0929512,
2,1,0,1,0,1214.45,0.103669,0.103357,26.4603,1,0.0054176,10,0.00273485,-1.57741,0.285126,0.206926,213.754,0.103357,
2,1,0,1,0,1214.48,0.114067,0.113744,28.8371,1,0.00613581,10,0.00328003,-1.54005,0.269599,0.218844,246.214,0.113744,
2,1,0,1,0,1214.5,0.124463,0.124165,31.6258,1,0.00692096,10,0.00392683,-1.49996,0.246199,0.239643,296.047,0.124165,
2,1,0,1,0,1214.53,0.134861,0.134526,35.0819,1,0.00778698,10,0.00471941,-1.45492,0.215038,0.27437,376.244,0.134526,
2,1,0,1,0,1214.56,0.145268,0.144966,39.4574,1,0.0087544,10,0.00571999,-1.40387,0.197517,0.298708,459.863,0.144966,
2,1,0,1,0,1214.58,0.155667,0.155357,44.5395,1,0.00984555,10,0.00691953,-1.35125,0.201753,0.292437,508.137,0.1553572,
2,1,0,1,0,1214.61,0.166063,0.165709,49.7978,1,0.0110731,10,0.00825194,-1.30279,0.232851,0.25338,492.244,0.165709,
2,1,0,1,0,1214.63,0.176461,0.176149,54.384,1,0.0124309,10,0.00957967,-1.26453,0.345712,0.170662,361.418,0.176149,
2,1,0,1,0,1214.66,0.186868,0.186602,56.713,1,0.0138824,10,0.0105828,-1.24632,3.50514,0.0168324,37.1058,0.186602,
2,1,0,1,0,1214.69,0.197267,0.19697,54.3043,1,0.0153386,10,0.0106963,-1.26517,-0.228327,-0.258401,-544.174,0.19697,
2,1,0,1,0,1214.71,0.207662,0.207382,45.3667,1,0.0166467,10,0.00940824,-1.34326,-0.0926757,-0.636628,-1119.7,0.207382,
2,1,0,1,0,1214.74,0.218061,0.217777,32.6742,1,0.0176615,10,0.00711569,-1.4858,-0.0632023,-0.933511,-1190.02,0.217777,
2,1,0,1,0,1214.76,0.228468,0.228209,22.3662,1,0.0183655,10,0.00510417,-1.65041,-0.0693479,-0.850783,-748.065,0.228209,
2,1,0,1,0,1214.79,0.238866,0.238603,17.1918,1,0.0188687,10,0.00410203,-1.76468,-0.139512,-0.422904,-286.171,0.238603,
2,1,0,1,0,1214.82,0.249262,0.248978,15.5284,1,0.0192894,10,0.00386625,-1.80887,-0.456535,-0.129234,-78.6053,0.248978,
2,1,0,1,0,1214.84,0.259661,0.259408,15.1073,1,0.0196865,10,0.00391897,-1.82081,-1.62064,-0.0364053,-21.48,0.2594085,
2,1,0,1,0,1214.87,0.270068,0.269823,14.9421,1,0.0200769,10,0.00403171,-1.82559,-2.36881,-0.0249071,-14.5219,0.269823,
2,1,0,1,0,1214.89,0.280466,0.280163,14.7739,1,0.0204631,10,0.00413908,-1.83051,-1.82802,-0.0322754,-18.5892,0.280163,
2,1,0,1,0,1214.92,0.290862,0.290572,14.5642,1,0.0208444,10,0.00423195,-1.83671,-1.50034,-0.0393244,-22.3362,0.290572,
2,1,0,1,0,1214.94,0.300012,0.29967,14.3633,1,0.0211758,10,0.00430426,-1.84274,0.000171669,343.684,142082,0.29967,
2,0,0,1,0,1214.97,0.290704,0.290481,-3.76742,1,0.0212443,10,-0.00109436,-2.42396,-0.00553856,-10.6526,832.256,0.290481,
2,0,0,1,0,1214.99,0.280305,0.280038,-7.86845,1,0.0210792,10,-0.00220346,-2.10411,-0.100943,-0.584489,176.805,0.280038,
2,0,0,1,0,1215.02,0.269909,0.269609,-8.97953,1,0.0208581,10,-0.00242096,-2.04675,-0.27488,-0.214639,75.0611,0.269609,
2,0,0,1,0,1215.04,0.2595,0.259189,-9.64733,1,0.0206157,10,-0.00250048,-2.01559,-0.363143,-0.162471,61.065,0.259189,
2,0,0,1,0,1215.07,0.249104,0.248793,-10.2403,1,0.0203573,10,-0.00254771,-1.98969,-0.449313,-0.131312,52.3913,0.2487928,
2,0,0,1,0,1215.1,0.238705,0.23846,-10.8367,1,0.0200834,10,-0.00258412,-1.9651,-0.418976,-0.140819,59.6703,0.23846,
2,0,0,1,0,1215.12,0.22831,0.228026,-11.4959,1,0.019793,10,-0.00262136,-1.93946,-0.385138,-0.153192,68.7958,0.228026,
2,0,0,1,0,1215.15,0.2179,0.21761,-12.2842,1,0.0194841,10,-0.00267316,-1.91065,-0.353182,-0.167053,79.9037,0.21761,
2,0,0,1,0,1215.17,0.207504,0.207202,-13.1745,1,0.0191537,10,-0.00272979,-1.88026,-0.303491,-0.194404,100.176,0.207202,
2,0,0,1,0,1215.2,0.197106,0.196818,-14.3598,1,0.0187959,10,-0.00282626,-1.84285,-0.249638,-0.236342,132.82,0.196818,
2,0,0,1,0,1215.23,0.18671,0.186454,-15.9669,1,0.0184023,10,-0.00297709,-1.79678,-0.204766,-0.288134,179.725,0.186454,
2,0,0,1,0,1215.25,0.1763,0.176002,-18.1671,1,0.0179597,10,-0.00319745,-1.74071,-0.168937,-0.349242,248.068,0.176002,
2,0,0,1,0,1215.28,0.165905,0.165623,-21.2065,1,0.0174495,10,-0.00351228,-1.67353,-0.145104,-0.406605,337.012,0.165623,
2,0,0,1,0,1215.3,0.155506,0.155229,-25.3634,1,0.0168466,10,-0.00393713,-1.59579,-0.128815,-0.45802,453.688,0.155229,
2,0,0,1,0,1215.33,0.145105,0.144851,-30.6745,1,0.01612,10,-0.00444323,-1.51322,-0.127866,-0.46142,551.556,0.144851,
2,0,0,1,0,1215.36,0.134701,0.134444,-36.7877,1,0.0152444,10,-0.00494587,-1.4343,-0.138063,-0.42734,613.132,0.134444,
2,0,0,1,0,1215.38,0.124305,0.124083,-43.0486,1,0.0142053,10,-0.00534158,-1.36604,-0.16996,-0.34714,582.585,0.124083,
2,0,0,1,0,1215.41,0.113906,0.113624,-48.7536,1,0.013009,10,-0.00553957,-1.31199,-0.231302,-0.255078,484.387,0.113624,
2,0,0,1,0,1215.43,0.103505,0.103188,-52.8372,1,0.0116836,10,-0.00545219,-1.27706,-0.435183,-0.135575,278.851,0.103188,
2,0,0,1,0,1215.46,0.0931008,0.0928293,-54.206,1,0.0102846,10,-0.0050319,-1.26595,3.67592,0.0160504,-33.849,0.0928293,
2,0,0,1,0,1215.49,0.0827051,0.0824171,-51.8932,1,0.00889713,10,-0.00427689,-1.28489,0.292522,0.201694,-406.904,0.0824171,
2,0,0,1,0,1215.51,0.0723065,0.072022,-46.2471,1,0.00761685,10,-0.00333081,-1.33492,0.168212,0.350749,-632.072,0.072022,
2,0,0,1,0,1215.54,0.0618996,0.0615918,-39.6238,1,0.00650195,10,-0.0024405,-1.40204,0.151082,0.390516,-604.4,0.0615918,
2,0,0,1,0,1215.56,0.0515011,0.0511617,-34.0018,1,0.00554847,10,-0.00173959,-1.4685,0.162274,0.363582,-482.587,0.0511617,
2,0,0,1,0,1215.59,0.0411053,0.0407951,-29.5549,1,0.00472514,10,-0.00120569,-1.52937,0.179141,0.32935,-380.18,0.0407951,
2,0,0,1,0,1215.62,0.0307068,0.030419,-26.0926,1,0.00400403,10,-0.000793713,-1.58348,0.214328,0.275279,-281.092,0.030419,
2,0,0,1,0,1215.64,0.0202999,0.0200037,-23.8124,1,0.00335828,10,-0.000476337,-1.6232,0.347205,0.169928,-158.175,0.0200037,
2,0,0,1,0,1215.67,0.00990136,0.00958311,-22.7194,1,0.00275621,10,-0.000217723,-1.6436,0.961646,0.0613531,-54.464,0.00958311,
2,0,0,1,0,1215.69,-0.000494411,-0.000844923,-22.5745,1,0.0021693,10,1.90737e-05,-1.64638,-3.76979,-0.0156507,13.7733,-0.000844923,
2,0,0,1,0,1215.72,-0.010893,-0.0112624,-22.8279,1,0.00158003,10,0.000257096,-1.64153,-1.1934,-0.0494388,44.0727,-0.0112624,
2,0,0,1,0,1215.75,-0.0212998,-0.0217031,-23.3846,1,0.000979593,10,0.000507519,-1.63107,-0.877115,-0.067266,61.3895,-0.02170313,
2,0,0,1,0,1215.77,-0.0316984,-0.0320294,-24.0811,1,0.00036281,10,0.000771302,-1.61832,-0.786685,-0.0749982,70.4339,-0.0320294,
2,0,0,1,0,1215.8,-0.0420942,-0.0424468,-24.8245,1,-0.00027301,10,0.00105372,-1.60512,-0.7839,-0.0752647,72.9788,-0.0424468,
2,0,0,1,0,1215.82,-0.0524927,-0.0527996,-25.6297,1,-0.000929121,10,0.00135324,-1.59126,-0.753972,-0.0782523,78.2969,-0.05279956,
2,0,0,1,0,1215.85,-0.0628996,-0.0632265,-26.4892,1,-0.00160644,10,0.00167482,-1.57693,-0.736869,-0.0800685,82.6903,-0.0632265,
2,0,0,1,0,1215.88,-0.0732982,-0.0736419,-27.3507,1,-0.00230611,10,0.00201416,-1.56303,-0.701071,-0.0841569,89.8637,-0.0736419,
2,0,0,1,0,1215.9,-0.0836939,-0.0840455,-28.3414,1,-0.00303003,10,0.00238197,-1.54758,-0.629643,-0.0937039,103.691,-0.0840455,
2,0,0,1,0,1215.93,-0.0940925,-0.0944386,-29.4935,1,-0.00378161,10,0.00278532,-1.53027,-0.566329,-0.10418,119.895,-0.09443856,
2,0,0,1,1,1215.95,-0.0978574,-0.0982518,-22.7275,1,-0.00437083,10,0.00223302,-1.64345,-0.0157996,-3.73427,3044.22,-0.09825179,
2,0,0,1,1,1215.97,-0.0874588,-0.0879086,0.32392,1,-0.00462337,10,-2.84754e-05,-3.48956,-0.229033,-0.257605,1539.53,-0.0879086,
2,1,0,1,1,1216,-0.077052,-0.0775102,11.9501,1,-0.00444619,10,-0.000926257,-1.92263,0.0328157,1.79792,809.669,-0.07751023,
2,1,0,1,1,1216.03,-0.0666562,-0.0670429,18.2121,1,-0.00404465,10,-0.00122099,-1.73964,0.0994767,0.593104,417.309,-0.0670429,
2,1,0,1,1,1216.05,-0.0562576,-0.0566001,21.3302,1,-0.00352553,10,-0.00120729,-1.671,0.235268,0.250777,208.066,-0.0566001,
2,1,0,1,1,1216.08,-0.0458563,-0.046242,22.8056,1,-0.0029491,10,-0.00105458,-1.64196,0.590614,0.099896,88.6965,-0.046242,
2,1,0,1,1,1216.1,-0.0354522,-0.0357758,23.3314,1,-0.00234803,10,-0.0008347,-1.63206,2.18376,0.0270177,24.5643,-0.0357758,
2,1,0,1,1,1216.13,-0.0250564,-0.0253912,23.3413,1,-0.0017404,10,-0.000592664,-1.63187,-3.81055,-0.0154833,-14.1061,-0.0253912,
2,1,0,1,1,1216.16,-0.0146579,-0.0150236,23.0953,1,-0.00113621,10,-0.000346976,-1.63648,-1.58919,-0.0371259,-33.4394,-0.0150236,
2,1,0,1,1,1216.18,-0.00425653,-0.00460725,22.6727,1,-0.000540927,10,-0.000104459,-1.6445,-1.1066,-0.0533166,-47.1971,-0.00460725,
2,1,0,1,1,1216.19,-7.54729e-05,-0.000229887,22.4867,1,-0.000303768,10,-5.16941e-06,-1.64807, , , ,-0.000229887,