File: Figure_codes/Fig_3-5/rawdata_trumpetplot_data/before 10th/20221101_1-115_002_TrumpetPlot_ParaChange_06_CV_C01.mpt
EC-Lab ASCII FILE
Nb header lines : 68

Cyclic Voltammetry

Run on channel : 1 (SN 65296)
User :
CE vs. WE compliance from -10 V to 10 V
Electrode connection : standard
Potential control : Ewe
Ewe ctrl range : min = -1.00 V, max = 1.00 V
Safety Limits :
	Do not start on E overload
Acquisition started on : 11/08/2022 17:30:03.488
Loaded Setting File :  NONE
Saved on :
	File : 20221101_1-115_002_TrumpetPlot_ParaChange_06_CV_C01.mpr
	Directory : C:\Users\NakamuraT\Documents\EC-Lab\Data\Yatsuzuka\20221108_1-115_001_TrumpetPlot\
	Host : 192.109.209.100
Device : SP-50e (SN .003219)
Address : 192.109.209.128
EC-Lab for windows v11.43 (software)
Internet server v11.40 (firmware)
Command interpretor v11.40 (firmware)
Electrode material : Au/Pd
Initial state :
Electrolyte : NaCl (0.2M)
Comments : Fe(CN)63-/Fe(CN)64- 5.10-3 M
Reference electrode : SCE Saturated Calomel Electrode (0.241 V)
Electrode surface area : 0.001 cm2
Characteristic mass : 0.001 g
Equivalent Weight : 0.000 g/eq.
Density : 0.000 g/cm3
Volume (V) : 0.001 cm3
Cycle Definition : Charge/Discharge alternance
Ei (V)              0.000
vs.                 Ref
dE/dt               10.000
dE/dt unit          mV/s
E1 (V)              0.300
vs.                 Ref
Step percent        50
N                   10
E range min (V)     -1.000
E range max (V)     1.000
I Range             10 mA
I Range min         Unset
I Range max         Unset
I Range init        Unset
Bandwidth           5
E2 (V)              0.000
vs.                 Ref
nc cycles           0
Reverse Scan        0
Ef (V)              0.000
vs.                 Eoc

Number of loops : 8
Loop 0 from point number 0 to 1204
Loop 1 from point number 1205 to 2409
Loop 2 from point number 2410 to 3614
Loop 3 from point number 3615 to 4819
Loop 4 from point number 4820 to 6024
Loop 5 from point number 6025 to 7229
Loop 6 from point number 7230 to 8434
Loop 7 from point number 8435 to 9639

mode	ox/red	error	control changes	counter inc.	time/s	control/V	Ewe/V	<I>/mA	cycle number	(Q-Qo)/C	I Range	P/W
2	0	0	0	0	1078.99	2.44065e-05	-0.000325324	-0.487102	1	0.0000000E+000	11	1.58466e-07
2	1	0	1	0	1082.51	0.0352568	0.0350042	0.498566	1	0.00159193	11	1.74519e-05
2	1	0	1	0	1086.06	0.070714	0.0704536	0.646884	1	0.00361844	11	4.55753e-05
2	1	0	1	0	1089.6	0.106171	0.10584	0.981086	1	0.00650694	11	0.000103839
2	1	0	1	0	1093.15	0.141628	0.14135	1.91471	1	0.0116269	11	0.000270645
2	1	0	1	0	1096.69	0.177085	0.176784	0.865236	1	0.0168986	11	0.000152959
2	1	0	1	0	1100.24	0.212543	0.212272	0.577169	1	0.0193465	11	0.000122517
2	1	0	1	0	1103.79	0.248	0.247744	0.509368	1	0.0212971	11	0.000126193
2	1	0	1	0	1107.33	0.283457	0.283192	0.48161	1	0.0230985	11	0.000136388
2	0	0	1	0	1110.81	0.281759	0.2815	-0.186935	1	0.023654	11	-5.26221e-05
2	0	0	1	0	1114.36	0.246302	0.246028	-0.296043	1	0.0227325	11	-7.28349e-05
2	0	0	1	0	1117.9	0.210845	0.210567	-0.400506	1	0.0214622	11	-8.43334e-05
2	0	0	1	0	1121.45	0.175387	0.175066	-0.686787	1	0.0196104	11	-0.000120233
2	0	0	1	0	1124.99	0.13993	0.13961	-1.87298	1	0.0151892	11	-0.000261487
2	0	0	1	0	1128.54	0.104474	0.104184	-1.1896	1	0.00937552	11	-0.000123937
2	0	0	1	0	1132.09	0.069016	0.0687071	-0.848161	1	0.00578822	11	-5.82747e-05
2	0	0	1	0	1135.63	0.0335589	0.0332556	-0.738424	1	0.00299632	11	-2.45568e-05
2	1	0	1	0	2310.69	0.000798471	0.000498612	0.286387	2	8.59727e-06	11	1.42796e-07
2	1	0	1	0	2314.24	0.0362552	0.0359675	0.509643	2	0.00166498	11	1.83306e-05
2	1	0	1	0	2317.78	0.0717128	0.0714218	0.703067	2	0.0037999	11	5.02143e-05
2	1	0	1	0	2321.33	0.10717	0.106907	1.04156	2	0.00690464	11	0.00011135
2	1	0	1	0	2324.88	0.142627	0.142329	1.87877	2	0.0121656	11	0.000267403
2	1	0	1	0	2328.42	0.178084	0.177821	0.816302	2	0.0171422	11	0.000145156
2	1	0	1	0	2331.97	0.213541	0.213249	0.566992	2	0.0195124	11	0.00012091
2	1	0	1	0	2335.51	0.248999	0.248713	0.505718	2	0.0214464	11	0.000125779
2	1	0	1	0	2339.06	0.284456	0.284191	0.48059	2	0.0232441	11	0.00013658
2	0	0	1	0	2342.54	0.28076	0.280522	-0.192382	2	0.0237279	11	-5.39675e-05
2	0	0	1	0	2346.09	0.245303	0.245042	-0.296449	2	0.0227975	11	-7.26425e-05
2	0	0	1	0	2349.63	0.209846	0.209527	-0.394505	2	0.0215284	11	-8.26594e-05
2	0	0	1	0	2353.18	0.174389	0.174099	-0.672242	2	0.0196974	11	-0.000117037
2	0	0	1	0	2356.72	0.138931	0.138623	-1.83473	2	0.0153251	11	-0.000254336
2	0	0	1	0	2360.27	0.103474	0.10319	-1.21284	2	0.00956552	11	-0.000125153
2	0	0	1	0	2363.81	0.0680179	0.0677235	-0.88797	2	0.00583683	11	-6.01365e-05
2	0	0	1	0	2367.36	0.0325601	0.0322132	-0.74603	2	0.00297571	11	-2.40321e-05
2	1	0	1	0	3542.42	0.00179816	0.00144549	0.322517	3	3.30549e-05	11	4.66197e-07
2	1	0	1	0	3545.97	0.0372544	0.0369501	0.517966	3	0.00168901	11	1.91389e-05
2	1	0	1	0	3549.51	0.0727111	0.072437	0.746362	3	0.00390774	11	5.40642e-05
2	1	0	1	0	3553.06	0.108169	0.107856	1.07022	3	0.00714859	11	0.00011543
2	1	0	1	0	3556.6	0.143626	0.143351	1.81073	3	0.0124238	11	0.000259571
2	1	0	1	0	3560.15	0.179083	0.178729	0.782372	3	0.0171109	11	0.000139832
2	1	0	1	0	3563.7	0.21454	0.214298	0.561613	3	0.0194233	11	0.000120352
2	1	0	1	0	3567.24	0.249997	0.249744	0.508699	3	0.0213524	11	0.000127044
2	1	0	1	0	3570.79	0.285455	0.285189	0.480869	3	0.023152	11	0.000137138
2	0	0	1	0	3574.27	0.279761	0.279503	-0.18978	3	0.0235827	11	-5.30441e-05
2	0	0	1	0	3577.81	0.244304	0.243981	-0.295403	3	0.0226595	11	-7.20727e-05
2	0	0	1	0	3581.36	0.208848	0.208543	-0.392438	3	0.0214047	11	-8.18402e-05
2	0	0	1	0	3584.91	0.17339	0.173068	-0.655432	3	0.0196133	11	-0.000113434
2	0	0	1	0	3588.45	0.137933	0.137627	-1.76734	3	0.0153965	11	-0.000243233
2	0	0	1	0	3592	0.102475	0.102192	-1.23551	3	0.00971111	11	-0.00012626
2	0	0	1	0	3595.54	0.0670185	0.0667019	-0.928906	3	0.00587053	11	-6.19598e-05
2	0	0	1	0	3599.09	0.0315618	0.0312687	-0.752955	3	0.0029398	11	-2.3544e-05
2	1	0	1	0	4774.15	0.00279606	0.0024996	0.352723	4	6.72098e-05	11	8.81666e-07
2	1	0	1	0	4777.7	0.0382532	0.0379469	0.531298	4	0.00174758	11	2.01611e-05
2	1	0	1	0	4781.24	0.0737104	0.0734493	0.786454	4	0.00406606	11	5.77645e-05
2	1	0	1	0	4784.79	0.109167	0.108896	1.11273	4	0.00742526	11	0.000121172
2	1	0	1	0	4788.33	0.144625	0.144313	1.74318	4	0.0127347	11	0.000251563
2	1	0	1	0	4791.88	0.180082	0.179813	0.744757	4	0.0171327	11	0.000133917
2	1	0	1	0	4795.42	0.215539	0.215227	0.554092	4	0.0193858	11	0.000119255
2	1	0	1	0	4798.97	0.250996	0.250697	0.506994	4	0.0212999	11	0.000127102
2	1	0	1	0	4802.52	0.286454	0.286151	0.481096	4	0.0230942	11	0.000137666
2	0	0	1	0	4806	0.278763	0.278482	-0.194765	4	0.0234555	11	-5.42385e-05
2	0	0	1	0	4809.54	0.243305	0.243031	-0.295842	4	0.0225251	11	-7.18987e-05
2	0	0	1	0	4813.09	0.207848	0.207576	-0.389684	4	0.0212718	11	-8.08889e-05
2	0	0	1	0	4816.63	0.172392	0.172065	-0.641473	4	0.0195045	11	-0.000110375
2	0	0	1	0	4820.18	0.136934	0.136661	-1.71922	4	0.0153982	11	-0.00023495
2	0	0	1	0	4823.73	0.101477	0.101182	-1.24379	4	0.0097765	11	-0.000125849
2	0	0	1	0	4827.27	0.0660188	0.0657328	-0.956179	4	0.00586988	11	-6.28523e-05
2	0	0	1	0	4830.82	0.0305625	0.030261	-0.752382	4	0.00288808	11	-2.27678e-05
2	1	0	1	0	6005.88	0.00379485	0.00350911	0.358338	5	0.000101254	11	1.25744e-06
2	1	0	1	0	6009.42	0.039252	0.0389649	0.543563	5	0.00181501	11	2.11799e-05
2	1	0	1	0	6012.97	0.0747092	0.0744058	0.820884	5	0.00423418	11	6.10785e-05
2	1	0	1	0	6016.52	0.110166	0.10982	1.15093	5	0.00769497	11	0.000126395
2	1	0	1	0	6020.06	0.145623	0.145384	1.68486	5	0.0130351	11	0.000244951
2	1	0	1	0	6023.61	0.181081	0.180807	0.710454	5	0.0171519	11	0.000128455
2	1	0	1	0	6027.15	0.216538	0.21625	0.542909	5	0.019343	11	0.000117404
2	1	0	1	0	6030.7	0.251995	0.251723	0.503415	5	0.0212386	11	0.000126721
2	1	0	1	0	6034.24	0.287452	0.287163	0.47879	5	0.0230244	11	0.00013749
2	0	0	1	0	6037.72	0.277764	0.27743	-0.199205	5	0.0233118	11	-5.52654e-05
2	0	0	1	0	6041.27	0.242307	0.24201	-0.296977	5	0.0223715	11	-7.18717e-05
2	0	0	1	0	6044.82	0.206849	0.206551	-0.394362	5	0.0211163	11	-8.14557e-05
2	0	0	1	0	6048.36	0.171392	0.171092	-0.624876	5	0.0193668	11	-0.000106911
2	0	0	1	0	6051.91	0.135936	0.135644	-1.67898	5	0.0153451	11	-0.000227742
2	0	0	1	0	6055.45	0.100478	0.100185	-1.25588	5	0.00979314	11	-0.000125821
2	0	0	1	0	6059	0.0650209	0.0646893	-0.967356	5	0.00584637	11	-6.25775e-05
2	0	0	1	0	6062.54	0.0295637	0.0292229	-0.760501	5	0.00282229	11	-2.2224e-05
2	1	0	1	0	7237.61	0.0047932	0.00452234	0.374333	6	0.000141358	11	1.69286e-06
2	1	0	1	0	7241.15	0.0402508	0.0399542	0.55984	6	0.00187969	11	2.2368e-05
2	1	0	1	0	7244.7	0.075708	0.075445	0.84235	6	0.0043897	11	6.35511e-05
2	1	0	1	0	7248.24	0.111165	0.110866	1.19075	6	0.00793171	11	0.000132013
2	1	0	1	0	7251.79	0.146622	0.146328	1.59465	6	0.0132626	11	0.000233341
2	1	0	1	0	7255.33	0.182079	0.18176	0.675438	6	0.0170592	11	0.000122768
2	1	0	1	0	7258.88	0.217537	0.217261	0.537676	6	0.0191893	11	0.000116816
2	1	0	1	0	7262.43	0.252994	0.252726	0.498975	6	0.0210677	11	0.000126104
2	1	0	1	0	7265.97	0.288451	0.288167	0.477589	6	0.0228454	11	0.000137625
2	0	0	1	0	7269.45	0.276765	0.276492	-0.201567	6	0.0230624	11	-5.57317e-05
2	0	0	1	0	7273	0.241308	0.240999	-0.295957	6	0.0221189	11	-7.13252e-05
2	0	0	1	0	7276.54	0.205851	0.205588	-0.388001	6	0.020867	11	-7.97683e-05
2	0	0	1	0	7280.09	0.170393	0.170058	-0.615372	6	0.0191416	11	-0.000104649
2	0	0	1	0	7283.64	0.134936	0.134626	-1.63794	6	0.0152204	11	-0.00022051
2	0	0	1	0	7287.18	0.0994799	0.0991869	-1.25279	6	0.00977185	11	-0.000124261
2	0	0	1	0	7290.73	0.0640221	0.0637688	-0.976048	6	0.00581409	11	-6.22415e-05
2	0	0	1	0	7294.27	0.0285649	0.0282781	-0.764785	6	0.00275824	11	-2.16267e-05
2	1	0	1	0	8469.33	0.00579244	0.00545283	0.369714	7	0.000169382	11	2.01599e-06
2	1	0	1	0	8472.88	0.0412492	0.0409452	0.57398	7	0.00192132	11	2.35017e-05
2	1	0	1	0	8476.43	0.0767068	0.0763802	0.858896	7	0.00450017	11	6.56027e-05
2	1	0	1	0	8479.97	0.112164	0.111866	1.20976	7	0.00808997	11	0.000135331
2	1	0	1	0	8483.52	0.147621	0.147328	1.513	7	0.0133324	11	0.000222907
2	1	0	1	0	8487.06	0.183078	0.182804	0.656684	7	0.0168767	11	0.000120044
2	1	0	1	0	8490.61	0.218535	0.218286	0.537939	7	0.0189873	11	0.000117424
2	1	0	1	0	8494.15	0.253993	0.253691	0.499653	7	0.0208668	11	0.000126757
2	1	0	1	0	8497.7	0.28945	0.289161	0.478388	7	0.0226453	11	0.000138331
2	0	0	1	0	8501.18	0.275766	0.275447	-0.199137	7	0.0228063	11	-5.48518e-05
2	0	0	1	0	8504.73	0.24031	0.239998	-0.297252	7	0.0218651	11	-7.13397e-05
2	0	0	1	0	8508.27	0.204852	0.204571	-0.384516	7	0.0206195	11	-7.86607e-05
2	0	0	1	0	8511.82	0.169395	0.169088	-0.600242	7	0.0189181	11	-0.000101494
2	0	0	1	0	8515.36	0.133937	0.13363	-1.58163	7	0.0151302	11	-0.000211353
2	0	0	1	0	8518.91	0.0984805	0.0981599	-1.25604	7	0.00978574	11	-0.000123293
2	0	0	1	0	8522.46	0.0630237	0.0627018	-0.986682	7	0.00580262	11	-6.18667e-05
2	0	0	1	0	8526	0.0275661	0.0272516	-0.772584	7	0.00270261	11	-2.10541e-05
2	1	0	1	0	9701.06	0.00679123	0.00646976	0.393825	8	0.000216197	11	2.54796e-06
2	1	0	1	0	9704.61	0.0422484	0.041951	0.597395	8	0.00202741	11	2.50613e-05
2	1	0	1	0	9708.15	0.0777053	0.0774033	0.879234	8	0.00469744	11	6.80556e-05
2	1	0	1	0	9711.7	0.113163	0.112873	1.24357	8	0.00837344	11	0.000140366
2	1	0	1	0	9715.25	0.14862	0.148333	1.44188	8	0.0136123	11	0.000213878
2	1	0	1	0	9718.79	0.184077	0.183765	0.633166	8	0.0169375	11	0.000116354
2	1	0	1	0	9722.34	0.219534	0.219265	0.532099	8	0.0190028	11	0.00011667
2	1	0	1	0	9725.88	0.254992	0.254685	0.493691	8	0.0208653	11	0.000125736
2	1	0	1	0	9729.43	0.290449	0.290157	0.474284	8	0.0226363	11	0.000137617
2	0	0	1	0	9732.91	0.274767	0.274431	-0.208493	8	0.0227138	11	-5.72168e-05
2	0	0	1	0	9736.46	0.23931	0.239034	-0.299476	8	0.0217552	11	-7.15848e-05
2	0	0	1	0	9740	0.203854	0.203547	-0.3845	8	0.0204992	11	-7.82638e-05
2	0	0	1	0	9743.55	0.168396	0.168065	-0.60427	8	0.018797	11	-0.000101557
2	0	0	1	0	9747.09	0.132939	0.132627	-1.55788	8	0.0150293	11	-0.000206618
2	0	0	1	0	9750.64	0.0974808	0.0971887	-1.25405	8	0.00973546	11	-0.000121879
2	0	0	1	0	9754.18	0.0620245	0.0617541	-0.99239	8	0.00575425	11	-6.12841e-05
2	0	0	1	0	9757.73	0.0265678	0.0262648	-0.778361	8	0.00262959	11	-2.04435e-05
2	0	0	0	0	9760.38	-2.44065e-05	-0.000306236	-0.789435	8	0.000546661	11	2.41754e-07