File: Figure_codes/Fig_3-5/rawdata_trumpetplot_data/before 10th/20221101_1-115_002_TrumpetPlot_ParaChange_04_CV_C01_0.csv
mode,ox/red,error,control changes,counter inc.,time/s,control/V,Ewe/V,<I>/mA,cycle number,(Q-Qo)/C,I Range,P/W,log(|I|),Tafel slope mV/dec,alpha_eff,dI/d(E-IR),E-IR/V,
2,0,0,0,0,358.801,2.44065e-05,-0.000382585,-0.375388,1,0.0000000E+000,11,1.43618e-07,-3.42552, , , ,-0.000382585,
2,0,0,1,0,366.068,0.00729061,0.00703704,-0.0966712,1,-0.000841827,11,-6.80279e-07,-4.0147,-0.0339731,-1.73667,6.64314,0.00703704,
2,0,0,1,0,373.558,0.0147815,0.014515,-0.0648368,1,-0.0012665,11,-9.41107e-07,-4.18818,-0.0495941,-1.18966,3.005,0.01451502,
2,0,0,1,0,381.049,0.0222725,0.0220078,-0.0462169,1,-0.00151426,11,-1.01713e-06,-4.3352,-0.0557733,-1.05785,1.93818,0.02200784,
2,0,0,1,0,388.54,0.0297635,0.0294668,-0.0347546,1,-0.00165461,11,-1.02411e-06,-4.45899,-0.0566811,-1.04091,1.40113,0.0294668,
2,0,0,1,0,396.031,0.0372544,0.0369564,-0.0255672,1,-0.0017175,11,-9.44872e-07,-4.59232,-0.0477215,-1.23634,1.21079,0.0369564,
2,0,0,1,0,403.522,0.0447454,0.044427,-0.0169417,1,-0.00171671,11,-7.52667e-07,-4.77104,-0.0408778,-1.44333,1.00721,0.044427,
2,0,0,1,0,411.013,0.0522363,0.0519368,-0.010378,1,-0.00165815,11,-5.38999e-07,-4.98389,-0.0204475,-2.88544,1.14067,0.05193682,
2,0,0,1,0,418.504,0.0597273,0.0594159,-0.00210806,1,-0.00154269,11,-1.25252e-07,-5.67612,-0.00317546,-18.58,1.16667,0.0594159,
2,0,0,1,0,425.995,0.0672183,0.0669194,0.00635003,1,-0.00136709,11,4.2494e-07,-5.19722,0.0120059,4.91427,1.0708,0.0669194,
2,1,0,1,0,433.486,0.0747092,0.0744588,0.0148208,1,-0.0011244,11,1.10354e-06,-4.82913,0.0268902,2.19411,1.29568,0.0744588,
2,1,0,1,0,440.977,0.0822001,0.0819113,0.0250434,1,-0.000809872,11,2.05134e-06,-4.60131,0.0397767,1.48328,1.40413,0.0819113,
2,1,0,1,0,448.468,0.0896911,0.0894095,0.0347226,1,-0.000420369,11,3.10453e-06,-4.45939,0.0539823,1.09295,1.50483,0.0894095,
2,1,0,1,0,455.959,0.0971821,0.0969013,0.0450414,1,4.70898e-05,11,4.36457e-06,-4.34639,0.0670218,0.88031,1.55334,0.0969013,
2,1,0,1,0,463.45,0.104673,0.104404,0.058951,1,0.000599185,11,6.15469e-06,-4.22951,0.0677305,0.871099,1.9526,0.104404,
2,1,0,1,0,470.941,0.112164,0.111858,0.0741045,1,0.00125813,11,8.28919e-06,-4.13016,0.0711261,0.829513,2.39482,0.1118582,
2,1,0,1,0,478.432,0.119655,0.119337,0.099264,1,0.00207227,11,1.18459e-05,-4.00321,0.0611082,0.9655,3.73628,0.119337,
2,1,0,1,0,485.923,0.127146,0.126842,0.130436,1,0.00310582,11,1.65447e-05,-3.8846,0.0672526,0.877289,4.49511,0.126842,
2,1,0,1,0,493.414,0.134637,0.134348,0.162272,1,0.00438845,11,2.1801e-05,-3.78976,0.111185,0.530647,3.35825,0.134348,
2,1,0,1,0,500.905,0.142128,0.141857,0.17664,1,0.00584157,11,2.50576e-05,-3.75291,1.56587,0.0376787,0.256254,0.141857,
2,1,0,1,0,508.396,0.149619,0.149349,0.163751,1,0.0073022,11,2.4456e-05,-3.78582,-0.115765,-0.509652,-3.24565,0.149349,
2,1,0,1,0,515.887,0.15711,0.156814,0.130381,1,0.00858571,11,2.04456e-05,-3.88478,-0.0554559,-1.06391,-5.37193,0.156814,
2,1,0,1,0,523.378,0.164601,0.164296,0.0960206,1,0.00959687,11,1.57758e-05,-4.01764,-0.0557585,-1.05813,-3.95275,0.1642964,
2,1,0,1,0,530.868,0.172091,0.171786,0.0730695,1,0.0103905,11,1.25523e-05,-4.13626,-0.0807886,-0.730301,-2.07265,0.171786,
2,1,0,1,0,538.359,0.179582,0.179347,0.0599803,1,0.0110558,11,1.07573e-05,-4.22199,-0.105716,-0.558097,-1.31941,0.179347,
2,1,0,1,0,545.85,0.187073,0.186834,0.0539081,1,0.0116462,11,1.00719e-05,-4.26835,-0.17922,-0.329205,-0.687654,0.186834,
2,1,0,1,0,553.341,0.194564,0.194282,0.0488277,1,0.012192,11,9.48632e-06,-4.31133,-0.169661,-0.347751,-0.665074,0.194282,
2,1,0,1,0,560.832,0.202055,0.201774,0.04656,1,0.0127095,11,9.39461e-06,-4.33199,-0.826522,-0.0713834,-0.129428,0.201774,
2,1,0,1,0,568.323,0.209546,0.209312,0.0446279,1,0.0132112,11,9.34115e-06,-4.35039,-0.60476,-0.0975594,-0.171961,0.209312,
2,1,0,1,0,575.814,0.217037,0.216765,0.0442979,1,0.0137021,11,9.60226e-06,-4.35362,-3.05713,-0.0192991,-0.0334933,0.216765,
2,1,0,1,0,583.305,0.224528,0.2242,0.0440671,1,0.0141889,11,9.87985e-06,-4.35589,-0.861004,-0.0685247,-0.118596,0.2242,
2,1,0,1,0,590.796,0.232019,0.231691,0.0439417,1,0.0146737,11,1.01809e-05,-4.35712,0.831401,0.0709646,0.122402,0.231691,
2,1,0,1,0,598.287,0.23951,0.239218,0.0448105,1,0.0151597,11,1.07195e-05,-4.34862,-1.50787,-0.0391281,-0.0679914,0.239218,
2,1,0,1,0,605.778,0.247001,0.246734,0.0451037,1,0.0156472,11,1.11286e-05,-4.34579,-4.60561,-0.0128105,-0.0224945,0.246734,
2,1,0,1,0,613.269,0.254492,0.254216,0.0461295,1,0.0161383,11,1.17268e-05,-4.33602,1.30081,0.0453564,0.0805271,0.254216,
2,1,0,1,0,620.76,0.261983,0.261748,0.0463036,1,0.0166322,11,1.21199e-05,-4.33439,13918.9,4.23883e-06,7.60816e-06,0.261748,
2,1,0,1,0,628.251,0.269474,0.269233,0.0467935,1,0.0171307,11,1.25984e-05,-4.32981,0.451193,0.130764,0.239137,0.269233,
2,1,0,1,0,635.742,0.276965,0.276692,0.0472877,1,0.0176332,11,1.30841e-05,-4.32525,0.715934,0.0824098,0.154291,0.276692,
2,1,0,1,0,643.233,0.284456,0.284204,0.0481618,1,0.0181402,11,1.36878e-05,-4.3173,0.669707,0.0880982,0.165255,0.284204,
2,1,0,1,0,650.724,0.291947,0.291645,0.0489926,1,0.0186512,11,1.42884e-05,-4.30987,0.563043,0.104788,0.199809,0.291645,
2,1,0,1,0,658.215,0.299438,0.299176,0.049459,1,0.0191671,11,1.47969e-05,-4.30575,-0.00737621,-7.99868,-11.8358,0.299176,
2,1,0,1,0,665.057,0.293745,0.293452,0.0130042,1,0.0192156,11,3.8161e-06,-4.88592,0.0225475,2.6167,1.41343,0.293452,
2,1,0,1,0,672.548,0.286254,0.285983,0.00527323,1,0.0191397,11,1.50806e-06,-5.27792,0.0124374,4.74375,0.913071,0.285983,
2,1,0,1,0,680.039,0.278763,0.278482,-0.000458476,1,0.0190113,11,-1.27677e-07,-6.33868,-0.0134537,-4.38542,0.59999,0.278482,
2,0,0,1,0,687.53,0.271272,0.271017,-0.00494234,1,0.0188431,11,-1.33946e-06,-5.30607,-0.0284634,-2.07284,0.414674,0.271017,
2,1,0,1,0,695.021,0.263781,0.263506,-0.00922229,1,0.0186414,11,-2.43013e-06,-5.03516,-0.0331252,-1.78112,0.614003,0.263506,
2,0,0,1,0,702.512,0.25629,0.255966,-0.0127198,1,0.0184091,11,-3.25585e-06,-4.89552,-0.0699964,-0.842901,0.40213,0.255966,
2,0,0,1,0,710.003,0.248799,0.248476,-0.0166652,1,0.018149,11,-4.1409e-06,-4.77819,-0.105696,-0.558207,0.358412,0.248476,
2,0,0,1,0,717.494,0.241308,0.241023,-0.0199759,1,0.0178622,11,-4.81466e-06,-4.69949,-0.102952,-0.573083,0.447857,0.2410233,
2,0,0,1,0,724.985,0.233817,0.233537,-0.0228231,1,0.0175486,11,-5.33003e-06,-4.64163,-0.125657,-0.469533,0.41718,0.233537,
2,0,0,1,0,732.476,0.226326,0.226067,-0.0265223,1,0.0172082,11,-5.99583e-06,-4.57639,-0.136672,-0.43169,0.454607,0.226067,
2,0,0,1,0,739.967,0.218835,0.218538,-0.030301,1,0.0168397,11,-6.62192e-06,-4.51854,-0.129759,-0.45469,0.542456,0.218538,
2,0,0,1,0,747.457,0.211344,0.211078,-0.0343168,1,0.0164411,11,-7.24354e-06,-4.46449,-0.158213,-0.372916,0.511332,0.211078,
2,0,0,1,0,754.948,0.203853,0.20353,-0.0388281,1,0.0160081,11,-7.9027e-06,-4.41085,-0.199969,-0.295046,0.452368,0.20353,
2,0,0,1,0,762.439,0.196362,0.196068,-0.0447303,1,0.0155368,11,-8.77019e-06,-4.3494,-0.154697,-0.38139,0.659748,0.196068,
2,0,0,1,0,769.93,0.188871,0.188575,-0.0511897,1,0.0150174,11,-9.65313e-06,-4.29082,-0.12723,-0.463727,0.923962,0.188575,
2,0,0,1,0,777.421,0.18138,0.181082,-0.0602267,1,0.0144366,11,-1.09059e-05,-4.22021,-0.0993729,-0.593723,1.37963,0.181082,
2,0,0,1,0,784.912,0.173889,0.173604,-0.0731452,1,0.0137729,11,-1.26983e-05,-4.13581,-0.0844798,-0.698392,1.99937,0.173604,
2,0,0,1,0,792.403,0.166398,0.166094,-0.0926756,1,0.0129874,11,-1.53928e-05,-4.03303,-0.0720891,-0.818431,2.98692,0.166094,
2,0,0,1,0,799.894,0.158907,0.158594,-0.121777,1,0.0120148,11,-1.93131e-05,-3.91444,-0.0572648,-1.0303,4.94348,0.1585945,
2,0,0,1,0,807.385,0.151417,0.151127,-0.162688,1,0.0107726,11,-2.45865e-05,-3.78865,-0.0721661,-0.817558,5.18794,0.151127,
2,0,0,1,0,814.876,0.143926,0.143582,-0.195444,1,0.0092449,11,-2.80624e-05,-3.70898,-0.120501,-0.489622,3.71724,0.143582,
2,0,0,1,0,822.367,0.136435,0.136111,-0.210082,1,0.00753621,11,-2.85944e-05,-3.67761,-2.07258,-0.0284669,0.231493,0.136111,
2,0,0,1,0,829.858,0.128944,0.128666,-0.200572,1,0.00581325,11,-2.58067e-05,-3.69773,0.155286,0.379943,-2.95557,0.128666,
2,0,0,1,0,837.349,0.121453,0.121128,-0.178307,1,0.00421922,11,-2.1598e-05,-3.74883,0.128409,0.459468,-3.19189,0.121128,
2,0,0,1,0,844.84,0.113962,0.113663,-0.154595,1,0.00280055,11,-1.75718e-05,-3.8108,0.139511,0.422905,-2.57301,0.113663,
2,0,0,1,0,852.331,0.106471,0.106146,-0.14119,1,0.00152127,11,-1.49867e-05,-3.8502,0.205057,0.287725,-1.5974,0.106146,
2,0,0,1,0,859.822,0.0989798,0.0987155,-0.131685,1,0.000332293,11,-1.29994e-05,-3.88046,0.309547,0.190601,-0.975912,0.0987155,
2,0,0,1,0,867.313,0.0914889,0.0912121,-0.124232,1,-0.000793008,11,-1.13315e-05,-3.90576,0.292013,0.202046,-0.980174,0.0912121,
2,0,0,1,0,874.804,0.083998,0.0836611,-0.117073,1,-0.00186322,11,-9.79443e-06,-3.93154,0.239695,0.246146,-1.12511,0.0836611,
2,0,0,1,0,882.295,0.076507,0.0761989,-0.110068,1,-0.00288111,11,-8.38706e-06,-3.95834,0.288136,0.204764,-0.878154,0.0761989,
2,0,0,1,0,889.786,0.069016,0.0687134,-0.104802,1,-0.00385095,11,-7.20133e-06,-3.97963,0.288556,0.204466,-0.839575,0.0687134,
2,0,0,1,0,897.277,0.0615251,0.061245,-0.100802,1,-0.00478348,11,-6.17364e-06,-3.99653,0.444072,0.132861,-0.520279,0.061245,
2,0,0,1,0,904.767,0.0540342,0.0537364,-0.0974917,1,-0.00568873,11,-5.23886e-06,-4.01103,3.40249,0.0173403,-0.0660864,0.0537364,
2,0,0,1,0,912.258,0.0465432,0.0462891,-0.0964481,1,-0.00657895,11,-4.4645e-06,-4.01571,2.39378,0.0246472,-0.0920178,0.04628912,
2,0,0,1,0,919.749,0.0390522,0.0387369,-0.096303,1,-0.00746507,11,-3.73048e-06,-4.01636,-22.4395,-0.00262929,0.00985586,0.0387369,
2,0,0,1,0,927.24,0.0315613,0.0312748,-0.097392,1,-0.00835541,11,-3.04592e-06,-4.01148,-3.17702,-0.0185709,0.0708616,0.0312748,
2,0,0,1,0,934.731,0.0240703,0.0237745,-0.0995574,1,-0.00925728,11,-2.36693e-06,-4.00193,-0.849322,-0.0694672,0.269591,0.0237745,
2,0,0,1,0,942.222,0.0165794,0.0162605,-0.102021,1,-0.0101781,11,-1.65891e-06,-3.99131,-0.522017,-0.113023,0.450953,0.0162605,
2,0,0,1,0,949.713,0.00908843,0.00876551,-0.105919,1,-0.0111249,11,-9.2843e-07,-3.97503,-0.45941,-0.128426,0.531931,0.00876551,
2,0,0,1,0,957.204,0.00159744,0.00124085,-0.111713,1,-0.0121073,11,-1.38619e-07,-3.9519, , , ,0.00124085,
2,0,0,1,0,958.602,0.000199235,-0.00015541,-0.112116,1,-0.012295,11,1.74239e-08,-3.95033, , , ,-0.00015541,