File: Figure_codes/Fig_3-5/rawdata_trumpetplot_data/before 10th/20221101_1-115_002_TrumpetPlot_ParaChange_10_CV_C01_0.csv
mode,ox/red,error,control changes,counter inc.,time/s,control/V,Ewe/V,<I>/mA,cycle number,(Q-Qo)/C,I Range,P/W,log(|I|),Tafel slope mV/dec,alpha_eff,dI/d(E-IR),E-IR/V,
2,0,0,1,0,1194.39,2.44065e-05,0.000247296,-5.24515,1,0.0000000E+000,11,-1.29711e-06,-2.28024, , , ,0.000247296,
2,1,0,1,0,1194.48,0.0072942,0.00698137,3.04458,1,6.12905e-05,11,2.12554e-05,-2.51647,0.0367933,1.60355,181.834,0.00698137,
2,1,0,1,0,1194.57,0.0147816,0.0144977,3.43747,1,0.000373222,11,4.98354e-05,-2.46376,0.627331,0.0940492,12.6211,0.0144977,
2,1,0,1,0,1194.67,0.0222707,0.0220627,3.52515,1,0.000699388,11,7.77745e-05,-2.45282,0.75286,0.0783679,10.7543,0.0220627,
2,1,0,1,0,1194.76,0.0297581,0.0294604,3.58768,1,0.00103197,11,0.000105695,-2.44519,0.781381,0.0755073,10.5602,0.0294604,
2,1,0,1,0,1194.86,0.0372544,0.0369825,3.66867,1,0.00137193,11,0.000135676,-2.43549,0.969981,0.0608259,8.70345,0.0369825,
2,1,0,1,0,1194.95,0.0447507,0.0444859,3.76993,1,0.00172014,11,0.000167709,-2.42367,0.599577,0.0984027,14.4911,0.0444859,
2,1,0,1,0,1195.04,0.0522381,0.0519882,3.90328,1,0.00207908,11,0.000202924,-2.40857,0.323577,0.182337,27.8317,0.05198824,
2,1,0,1,0,1195.14,0.0597273,0.0594255,4.10099,1,0.00245404,11,0.000243703,-2.38711,0.311442,0.189441,30.3683,0.0594255,
2,1,0,1,0,1195.23,0.0672147,0.0669544,4.38978,1,0.00285083,11,0.000293915,-2.35756,0.241673,0.244132,41.7298,0.0669544,
2,1,0,1,0,1195.32,0.0747038,0.0744114,4.7244,1,0.00327649,11,0.000351549,-2.32565,0.208402,0.283107,52.161,0.0744114,
2,1,0,1,0,1195.42,0.0822055,0.0819199,5.1243,1,0.0037385,11,0.000419782,-2.29037,0.223416,0.264081,52.8703,0.0819199,
2,1,0,1,0,1195.51,0.0896946,0.0893915,5.57075,1,0.00423914,11,0.000497978,-2.25409,0.219509,0.268782,58.4985,0.0893915,
2,1,0,1,0,1195.6,0.097182,0.0968786,6.04009,1,0.00478264,11,0.000585155,-2.21896,0.196496,0.30026,70.7416,0.0968786,
2,1,0,1,0,1195.7,0.104671,0.104406,6.55091,1,0.00537174,11,0.000683955,-2.1837,0.201041,0.293473,75.0915,0.104406,
2,1,0,1,0,1195.79,0.112159,0.111886,7.20219,1,0.00601389,11,0.000805824,-2.14254,0.170118,0.346819,97.4471,0.111886,
2,1,0,1,0,1195.89,0.119655,0.119405,8.08492,1,0.0067277,11,0.000965379,-2.09232,0.131694,0.448008,141.576,0.1194048,
2,1,0,1,0,1195.98,0.127149,0.126891,9.30544,1,0.00754065,11,0.00118078,-2.03126,0.118387,0.498367,181.308,0.126891,
2,1,0,1,0,1196.07,0.134639,0.134319,10.8087,1,0.00848168,11,0.0014518,-1.96623,0.122674,0.48095,202.884,0.134319,
2,1,0,1,0,1196.17,0.142126,0.141802,12.3028,1,0.00956504,11,0.00174455,-1.91,0.148846,0.396384,190.014,0.141802,
2,1,0,1,0,1196.26,0.149615,0.149331,13.4194,1,0.0107741,11,0.00200394,-1.87227,0.285888,0.206375,107.92,0.149331,
2,1,0,1,0,1196.35,0.157103,0.15683,13.7856,1,0.0120552,11,0.002162,-1.86058,-1.05993,-0.0556641,-29.8169,0.15683,
2,1,0,1,0,1196.45,0.164606,0.164312,12.7763,1,0.0133139,11,0.0020993,-1.89359,-0.114314,-0.516123,-255.653,0.164312,
2,1,0,1,0,1196.54,0.172095,0.171832,9.99192,1,0.014391,11,0.00171693,-2.00035,-0.0519964,-1.13469,-441.646,0.171832,
2,1,0,1,0,1196.63,0.179582,0.17929,7.00492,1,0.015179,11,0.00125591,-2.1546,-0.052323,-1.12761,-310.654,0.17929,
2,1,0,1,0,1196.73,0.18707,0.186792,5.45781,1,0.0157514,11,0.00101948,-2.26298,-0.101149,-0.583295,-124.625,0.186792,
2,1,0,1,0,1196.82,0.194559,0.194266,4.76056,1,0.0162261,11,0.000924818,-2.32234,-0.16748,-0.352282,-65.5223,0.194266,
2,1,0,1,0,1196.92,0.202062,0.201757,4.32289,1,0.016651,11,0.000872173,-2.36423,-0.190724,-0.309347,-52.1573,0.201757,
2,1,0,1,0,1197.01,0.20955,0.209269,4.03187,1,0.0170411,11,0.000843747,-2.39449,-0.23654,-0.249429,-39.1879,0.209269,
2,1,0,1,0,1197.1,0.217039,0.216775,3.7939,1,0.0174068,11,0.000822423,-2.42091,-0.420328,-0.140367,-20.8734,0.216775,
2,1,0,1,0,1197.2,0.224526,0.224238,3.64545,1,0.0177556,11,0.000817447,-2.43825,-0.407292,-0.144859,-20.6515,0.224238,
2,1,0,1,0,1197.29,0.232016,0.231755,3.54583,1,0.018092,11,0.000821763,-2.45028,-0.644427,-0.0915543,-12.6362,0.231755,
2,1,0,1,0,1197.38,0.23951,0.239254,3.44933,1,0.0184194,11,0.000825267,-2.46227,-1.23036,-0.0479535,-6.46405,0.239254,
2,1,0,1,0,1197.48,0.247006,0.246756,3.37698,1,0.0187395,11,0.000833289,-2.47147,-0.615013,-0.0959329,-12.6406,0.246756,
2,1,0,1,0,1197.57,0.254494,0.254222,3.32342,1,0.0190531,11,0.000844889,-2.47841,-0.996467,-0.0592092,-7.67473,0.254222,
2,1,0,1,0,1197.66,0.261983,0.26172,3.26267,1,0.0193616,11,0.000853908,-2.48643,-3.14901,-0.0187361,-2.39161,0.26172,
2,1,0,1,0,1197.76,0.26947,0.269239,3.21854,1,0.0196656,11,0.000866558,-2.49234,-1.03168,-0.0571884,-7.19468,0.2692394,
2,1,0,1,0,1197.85,0.276959,0.276693,3.1901,1,0.0199656,11,0.000882676,-2.4962,-1.35278,-0.043614,-5.41309,0.276693,
2,1,0,1,0,1197.95,0.284461,0.284196,3.14921,1,0.0202624,11,0.000894994,-2.5018,-4.91414,-0.0120062,-1.47292,0.284196,
2,1,0,1,0,1198.04,0.29195,0.291669,3.09958,1,0.020555,11,0.000904051,-2.5087,-1.01978,-0.0578556,-7.01335,0.291669,
2,1,0,1,0,1198.13,0.299438,0.299185,3.07145,1,0.0208442,11,0.000918933,-2.51266,-0.0169777,-3.47515,-358.443,0.299185,
2,0,0,1,0,1198.21,0.29424,0.293963,-1.29324,1,0.0208328,11,-0.000380164,-2.88832,-0.052305,-1.128,55.2581,0.2939626,
2,0,0,1,0,1198.31,0.286753,0.286421,-1.52794,1,0.0206998,11,-0.000437634,-2.81589,-0.143167,-0.412106,24.6714,0.286421,
2,0,0,1,0,1198.4,0.279264,0.27894,-1.72362,1,0.0205471,11,-0.000480787,-2.76356,-0.183049,-0.322318,21.6304,0.2789402,
2,0,0,1,0,1198.49,0.271776,0.271477,-1.86385,1,0.0203786,11,-0.000505993,-2.72959,-0.174455,-0.338196,24.6999,0.271477,
2,0,0,1,0,1198.59,0.26428,0.263978,-2.00619,1,0.0201968,11,-0.000529591,-2.69763,-0.33164,-0.177904,13.8965,0.263978,
2,0,0,1,0,1198.68,0.256786,0.256517,-2.13022,1,0.0200034,11,-0.00054644,-2.67157,-0.341182,-0.172928,14.3046,0.256517,
2,0,0,1,0,1198.77,0.249296,0.248989,-2.23073,1,0.0197994,11,-0.000555426,-2.65155,-0.312199,-0.188982,16.4614,0.248989,
2,0,0,1,0,1198.87,0.241809,0.241494,-2.33359,1,0.0195849,11,-0.000563546,-2.63198,-0.49546,-0.119081,10.9034,0.2414936,
2,0,0,1,0,1198.96,0.23432,0.233983,-2.46066,1,0.0193603,11,-0.000575754,-2.60895,-0.373098,-0.158135,15.185,0.233983,
2,0,0,1,0,1199.05,0.226833,0.226547,-2.57665,1,0.0191244,11,-0.000583731,-2.58894,-0.245358,-0.240465,24.2131,0.226547,
2,0,0,1,0,1199.15,0.219329,0.219052,-2.71994,1,0.0188758,11,-0.000595808,-2.56544,-0.330622,-0.178451,18.9473,0.219052,
2,0,0,1,0,1199.24,0.21184,0.211549,-2.88498,1,0.0186138,11,-0.000610313,-2.53986,-0.305362,-0.193213,21.6898,0.211549,
2,0,0,1,0,1199.34,0.204353,0.204048,-3.08945,1,0.0183348,11,-0.000630397,-2.51012,-0.265768,-0.221998,26.7303,0.204048,
2,0,0,1,0,1199.43,0.196863,0.196548,-3.31705,1,0.0180351,11,-0.00065196,-2.47925,-0.217229,-0.271603,35.3743,0.196548,
2,0,0,1,0,1199.52,0.189376,0.189079,-3.66639,1,0.0177082,11,-0.000693239,-2.43576,-0.169756,-0.347558,49.8263,0.189079,
2,0,0,1,0,1199.62,0.18188,0.181617,-4.12785,1,0.0173444,11,-0.000749687,-2.38428,-0.124502,-0.473887,76.2708,0.181617,
2,0,0,1,0,1199.71,0.174385,0.174079,-4.753,1,0.0169298,11,-0.000827399,-2.32303,-0.109663,-0.53801,100.122,0.174079,
2,0,0,1,0,1199.8,0.166896,0.166571,-5.67596,1,0.0164443,11,-0.000945452,-2.24596,-0.092838,-0.635516,140.601,0.166571,
2,0,0,1,0,1199.9,0.159409,0.15911,-6.95574,1,0.0158573,11,-0.00110673,-2.15766,-0.0774082,-0.762193,206.8,0.15911,
2,0,0,1,0,1199.99,0.151919,0.151625,-8.62819,1,0.0151296,11,-0.00130825,-2.06408,-0.0828995,-0.711705,239.967,0.151625,
2,0,0,1,0,1200.08,0.144425,0.144134,-10.4999,1,0.0142329,11,-0.00151339,-1.97882,-0.0980526,-0.601718,246.358,0.144134,
2,0,0,1,0,1200.18,0.136929,0.13663,-12.1837,1,0.0131666,11,-0.00166466,-1.91422,-0.142099,-0.415203,196.981,0.13663,
2,0,0,1,0,1200.27,0.129441,0.129142,-13.2938,1,0.0119685,11,-0.00171679,-1.87635,-0.302426,-0.195089,101.036,0.129142,
2,0,0,1,0,1200.37,0.121952,0.121613,-13.5429,1,0.0107041,11,-0.00164699,-1.86829,0.658039,0.0896603,-47.205,0.121613,
2,0,0,1,0,1200.46,0.114465,0.114141,-12.6016,1,0.00947129,11,-0.00143836,-1.89958,0.139625,0.422559,-207.006,0.114141,
2,0,0,1,0,1200.55,0.106976,0.106685,-10.6644,1,0.00837863,11,-0.00113774,-1.97206,0.0907767,0.649946,-270.658,0.106685,
2,0,0,1,0,1200.65,0.0994721,0.0991864,-8.85804,1,0.00746737,11,-0.000878597,-2.05266,0.101028,0.583999,-202.463,0.0991864,
2,0,0,1,0,1200.74,0.0919847,0.0916905,-7.75936,1,0.00669516,11,-0.00071146,-2.11017,0.171394,0.344236,-104.4,0.0916905,
2,0,0,1,0,1200.83,0.0844973,0.0842104,-7.11818,1,0.00600081,11,-0.000599424,-2.14763,0.257463,0.229159,-63.7954,0.0842104,
2,0,0,1,0,1200.93,0.0770082,0.0767414,-6.66458,1,0.00535589,11,-0.000511449,-2.17623,0.236994,0.248952,-64.7311,0.0767414,
2,0,0,1,0,1201.02,0.0695208,0.0692387,-6.22295,1,0.00475293,11,-0.000430869,-2.206,0.241671,0.244133,-59.311,0.0692387,
2,0,0,1,0,1201.11,0.0620245,0.0617496,-5.7943,1,0.00419017,11,-0.000357796,-2.237,0.25642,0.230091,-52.0756,0.0617496,
2,0,0,1,0,1201.21,0.0545282,0.0542388,-5.43761,1,0.00366447,11,-0.00029493,-2.26459,0.322291,0.183064,-38.9021,0.0542388,
2,0,0,1,0,1201.3,0.0470408,0.0467607,-5.19904,1,0.00316746,11,-0.000243111,-2.28408,0.47189,0.125029,-25.3388,0.0467607,
2,0,0,1,0,1201.4,0.0395517,0.0392757,-5.05481,1,0.00268873,11,-0.000198531,-2.2963,1.28733,0.0458313,-9.03179,0.0392757,
2,0,0,1,0,1201.49,0.0320643,0.0317836,-4.98228,1,0.00221949,11,-0.000158355,-2.30257,1.32409,0.0445588,-8.66849,0.0317836,
2,0,0,1,0,1201.58,0.0245751,0.0242997,-4.98086,1,0.00175337,11,-0.000121033,-2.3027,17.8261,0.00330976,-0.643749,0.0242997,
2,0,0,1,0,1201.68,0.0170735,0.0168192,-5.01357,1,0.00128473,11,-8.43241e-05,-2.29985,-0.939944,-0.0627697,12.3095,0.0168192,
2,0,0,1,0,1201.77,0.00958429,0.00930934,-5.08774,1,0.000811307,11,-4.73635e-05,-2.29348,-0.974949,-0.060516,12.0324,0.00930934,
2,0,0,1,0,1201.86,0.0020969,0.00176065,-5.27091,1,0.000329671,11,-9.28022e-06,-2.27811,-0.53892,-0.109478,22.2608,0.00176065,
2,0,0,1,0,1201.89,0.000199195,-0.000128724,-5.25391,1,0.000204856,11,6.76306e-07,-2.27952, , , ,-0.000128724,