File: Figure_codes/Fig_3-5/rawdata_trumpetplot_data/before 10th/20221101_1-115_002_TrumpetPlot_ParaChange_04_CV_C01_5.csv
mode,ox/red,error,control changes,counter inc.,time/s,control/V,Ewe/V,<I>/mA,cycle number,(Q-Qo)/C,I Range,P/W,log(|I|),Tafel slope mV/dec,alpha_eff,dI/d(E-IR),E-IR/V,
2,0,0,1,0,6516.94,2.44065e-05,-0.000325324,-0.394994,6,0.0000000E+000,11,1.28501e-07,-3.40341, , , ,-0.000325324,
2,0,0,1,0,6524.21,0.00729061,0.00701902,-0.0922431,6,-0.000840552,11,-6.47456e-07,-4.03507,-0.0346479,-1.70284,6.27441,0.00701902,
2,0,0,1,0,6531.7,0.0147815,0.0144895,-0.0614938,6,-0.00127415,11,-8.91017e-07,-4.21117,-0.044995,-1.31126,3.13152,0.0144895,
2,0,0,1,0,6539.19,0.0222725,0.0219835,-0.043203,6,-0.00152372,11,-9.49753e-07,-4.36449,-0.0502337,-1.17451,1.98323,0.0219835,
2,0,0,1,0,6546.68,0.0297635,0.0294954,-0.0298625,6,-0.00165924,11,-8.80808e-07,-4.52487,-0.0439702,-1.34182,1.57421,0.0294954,
2,0,0,1,0,6554.17,0.0372544,0.0369299,-0.019371,6,-0.00170661,11,-7.15369e-07,-4.71285,-0.0291889,-2.02132,1.48024,0.0369299,
2,0,0,1,0,6561.66,0.0447454,0.044443,-0.0082001,6,-0.00167318,11,-3.64437e-07,-5.08618,-0.0132017,-4.46911,1.43564,0.044443,
2,0,0,1,0,6569.16,0.0522363,0.0518975,0.00210046,6,-0.00156108,11,1.09009e-07,-5.67769,0.00746999,7.89827,1.68874,0.0518975,
2,1,0,1,0,6576.65,0.0597273,0.0594456,0.0131327,6,-0.00136603,11,7.80678e-07,-4.88165,0.0203524,2.89891,1.45591,0.0594456,
2,1,0,1,0,6584.14,0.0672183,0.0669459,0.0241875,6,-0.00108682,11,1.61925e-06,-4.61641,0.0401849,1.46821,1.35352,0.0669459,
2,1,0,1,0,6591.63,0.0747092,0.0743718,0.0343412,6,-0.000726218,11,2.55402e-06,-4.46418,0.0573876,1.0281,1.38622,0.0743718,
2,1,0,1,0,6599.12,0.0822001,0.0818901,0.0431839,6,-0.000291923,11,3.53634e-06,-4.36468,0.0892629,0.660969,1.12342,0.0818901,
2,1,0,1,0,6606.61,0.0896911,0.0894095,0.0524842,6,0.000209043,11,4.69258e-06,-4.27997,0.093447,0.631374,1.30678,0.0894095,
2,1,0,1,0,6614.1,0.0971821,0.0969076,0.0617953,6,0.000776792,11,5.98843e-06,-4.20904,0.0874385,0.67476,1.62059,0.0969076,
2,1,0,1,0,6621.59,0.104673,0.104356,0.0742903,6,0.00142384,11,7.75263e-06,-4.12907,0.0884497,0.667046,1.91139,0.104356,
2,1,0,1,0,6629.08,0.112164,0.111882,0.0899114,6,0.00217954,11,1.00594e-05,-4.04619,0.0981366,0.601203,2.11871,0.111882,
2,1,0,1,0,6636.57,0.119655,0.119374,0.109942,6,0.00307571,11,1.31243e-05,-3.95884,0.108683,0.542863,2.33263,0.119374,
2,1,0,1,0,6644.06,0.127146,0.126835,0.127542,6,0.00411944,11,1.61769e-05,-3.89435,0.118621,0.497383,2.50602,0.126835,
2,1,0,1,0,6651.56,0.134637,0.134359,0.143868,6,0.00529667,11,1.933e-05,-3.84204,0.219092,0.269293,1.51981,0.134359,
2,1,0,1,0,6659.05,0.142128,0.141839,0.146458,6,0.00654543,11,2.07734e-05,-3.83429,-0.347991,-0.169545,-0.961351,0.141839,
2,1,0,1,0,6666.54,0.149619,0.149342,0.127515,6,0.00773308,11,1.90433e-05,-3.89444,-0.0801428,-0.736186,-3.65293,0.149342,
2,1,0,1,0,6674.03,0.15711,0.15684,0.0976604,6,0.00872246,11,1.5317e-05,-4.01028,-0.0507496,-1.16257,-4.40819,0.15684,
2,1,0,1,0,6681.52,0.164601,0.16428,0.0732753,6,0.00949915,11,1.20377e-05,-4.13504,-0.0673206,-0.876403,-2.51639,0.16428,
2,1,0,1,0,6689.01,0.172091,0.171793,0.0598369,6,0.0101354,11,1.02796e-05,-4.22303,-0.107287,-0.549928,-1.29804,0.171793,
2,1,0,1,0,6696.5,0.179582,0.179282,0.0528697,6,0.0106954,11,9.47859e-06,-4.27679,-0.189253,-0.311752,-0.646789,0.179282,
2,1,0,1,0,6703.99,0.187073,0.186804,0.0492864,6,0.0112132,11,9.20688e-06,-4.30727,-0.255666,-0.23077,-0.442426,0.186804,
2,1,0,1,0,6711.48,0.194564,0.194275,0.046517,6,0.0117074,11,9.03709e-06,-4.33239,-0.294522,-0.200324,-0.369525,0.194275,
2,1,0,1,0,6718.97,0.202055,0.201745,0.0457472,6,0.0121881,11,9.22925e-06,-4.33964,-24.136,-0.00244448,-0.00438152,0.201745,
2,1,0,1,0,6726.47,0.209546,0.209229,0.045976,6,0.0126626,11,9.61951e-06,-4.33747,-0.797311,-0.0739988,-0.131227,0.209229,
2,1,0,1,0,6733.96,0.217037,0.216745,0.0446412,6,0.0131339,11,9.67577e-06,-4.35026,1.00466,0.0587261,0.104402,0.216745,
2,1,0,1,0,6741.45,0.224528,0.224248,0.0455549,6,0.0136058,11,1.02156e-05,-4.34147,0.995269,0.0592805,0.105622,0.224248,
2,1,0,1,0,6748.94,0.232019,0.231744,0.0460326,6,0.0140796,11,1.06678e-05,-4.33693,1.51335,0.0389864,0.0704555,0.231744,
2,1,0,1,0,6756.43,0.23951,0.239236,0.0465219,6,0.0145567,11,1.11297e-05,-4.33234,1.03652,0.0569212,0.104293,0.239236,
2,1,0,1,0,6763.92,0.247001,0.24667,0.0471335,6,0.0150379,11,1.16264e-05,-4.32667,59.9087,0.000984832,0.00182969,0.24667,
2,1,0,1,0,6771.41,0.254492,0.254186,0.0477611,6,0.0155232,11,1.21402e-05,-4.32093,1.80402,0.0327048,0.0614427,0.254186,
2,1,0,1,0,6778.9,0.261983,0.261723,0.0487402,6,0.0160129,11,1.27564e-05,-4.31211,1.45968,0.0404197,0.0765474,0.2617234,
2,1,0,1,0,6786.39,0.269474,0.269181,0.0494107,6,0.0165079,11,1.33004e-05,-4.30618,1.30002,0.0453839,0.0874513,0.269181,
2,1,0,1,0,6793.88,0.276965,0.276676,0.0503422,6,0.017008,11,1.39285e-05,-4.29807,2.15376,0.027394,0.0536351,0.276676,
2,1,0,1,0,6801.37,0.284456,0.284138,0.0511416,6,0.0175129,11,1.45313e-05,-4.29123,1.97868,0.0298178,0.0592863,0.284138,
2,1,0,1,0,6808.87,0.291947,0.291676,0.0517024,6,0.0180223,11,1.50803e-05,-4.28649,2.10342,0.0280495,0.0564926,0.2916756,
2,1,0,1,0,6816.36,0.299438,0.299191,0.0526596,6,0.0185364,11,1.57552e-05,-4.27852,-0.00584386,-10.0961,-14.6178,0.299191,
2,1,0,1,0,6823.2,0.293745,0.293477,0.0107713,6,0.0185869,11,3.16114e-06,-4.96773,0.0185932,3.17321,1.3699,0.293477,
2,1,0,1,0,6830.69,0.286254,0.285965,0.00299008,6,0.0185143,11,8.55061e-07,-5.52432,0.00809806,7.2857,0.86298,0.285965,
2,1,0,1,0,6838.18,0.278763,0.278512,-0.00271163,6,0.0183897,11,-7.55221e-07,-5.56677,-0.00911948,-6.46966,0.629153,0.2785117,
2,0,0,1,0,6845.67,0.271272,0.270938,-0.00712972,6,0.0182259,11,-1.93171e-06,-5.14693,-0.0293206,-2.01224,0.55281,0.270938,
2,0,0,1,0,6853.16,0.263781,0.263491,-0.0116905,6,0.0180288,11,-3.08034e-06,-4.93217,-0.0521694,-1.13093,0.499284,0.263491,
2,0,0,1,0,6860.65,0.25629,0.256,-0.0152077,6,0.0178025,11,-3.89317e-06,-4.81794,-0.0626655,-0.941507,0.549109,0.256,
2,0,0,1,0,6868.14,0.248799,0.248513,-0.0181981,6,0.0175488,11,-4.52247e-06,-4.73997,-0.107819,-0.547213,0.39468,0.248513,
2,0,0,1,0,6875.64,0.241308,0.241008,-0.0217137,6,0.0172694,11,-5.23319e-06,-4.66327,-0.122226,-0.482713,0.408355,0.241008,
2,0,0,1,0,6883.13,0.233817,0.233517,-0.0250264,6,0.0169651,11,-5.84407e-06,-4.6016,-0.162601,-0.362852,0.349488,0.2335166,
2,0,0,1,0,6890.62,0.226326,0.226008,-0.028229,6,0.0166362,11,-6.37997e-06,-4.5493,-0.18206,-0.324068,0.354938,0.2260078,
2,0,0,1,0,6898.11,0.218835,0.218572,-0.0312261,6,0.0162819,11,-6.82517e-06,-4.50548,-0.159317,-0.370331,0.453402,0.218572,
2,0,0,1,0,6905.6,0.211344,0.211068,-0.0350157,6,0.0159017,11,-7.39069e-06,-4.45574,-0.173809,-0.339453,0.463811,0.211068,
2,0,0,1,0,6913.09,0.203853,0.203529,-0.0388599,6,0.015493,11,-7.90913e-06,-4.4105,-0.116691,-0.50561,0.764448,0.203529,
2,0,0,1,0,6920.58,0.196362,0.196058,-0.0429927,6,0.0150538,11,-8.42905e-06,-4.3666,-0.171506,-0.344012,0.577039,0.196058,
2,0,0,1,0,6928.07,0.188871,0.188582,-0.0483055,6,0.0145779,11,-9.10954e-06,-4.316,-0.136871,-0.431064,0.808249,0.188582,
2,0,0,1,0,6935.56,0.18138,0.18104,-0.0546432,6,0.0140573,11,-9.89263e-06,-4.26246,-0.118225,-0.499047,1.05427,0.18104,
2,0,0,1,0,6943.05,0.173889,0.173562,-0.0634659,6,0.013478,11,-1.10153e-05,-4.19746,-0.117568,-0.501838,1.23305,0.173562,
2,0,0,1,0,6950.55,0.166398,0.166116,-0.0758875,6,0.0128147,11,-1.26061e-05,-4.11983,-0.0773579,-0.762689,2.28986,0.1661161,
2,0,0,1,0,6958.04,0.158907,0.158621,-0.0977465,6,0.0120215,11,-1.55047e-05,-4.0099,-0.0638719,-0.923724,3.55566,0.158621,
2,0,0,1,0,6965.53,0.151417,0.151119,-0.130139,6,0.0110249,11,-1.96665e-05,-3.88559,-0.0623881,-0.945694,4.81366,0.151119,
2,0,0,1,0,6973.02,0.143926,0.143631,-0.164543,6,0.00976826,11,-2.36335e-05,-3.78372,-0.0865985,-0.681305,4.3533,0.143631,
2,0,0,1,0,6980.51,0.136435,0.136163,-0.186265,6,0.00829289,11,-2.53624e-05,-3.72987,-0.269236,-0.219138,1.58556,0.136163,
2,0,0,1,0,6988,0.128944,0.128649,-0.189091,6,0.00672565,11,-2.43263e-05,-3.72333,0.530692,0.111176,-0.81896,0.128649,
2,0,0,1,0,6995.49,0.121453,0.121146,-0.181608,6,0.005181,11,-2.20012e-05,-3.74086,0.333519,0.176901,-1.25238,0.121146,
2,0,0,1,0,7002.98,0.113962,0.113704,-0.167966,6,0.00371834,11,-1.90985e-05,-3.77478,0.216645,0.272335,-1.79152,0.113704,
2,0,0,1,0,7010.47,0.106471,0.106199,-0.155278,6,0.00235759,11,-1.64903e-05,-3.80889,0.257815,0.228846,-1.39257,0.106199,
2,0,0,1,0,7017.96,0.0989798,0.0986699,-0.145293,6,0.00108636,11,-1.4336e-05,-3.83776,0.285658,0.206541,-1.17178,0.0986699,
2,0,0,1,0,7025.45,0.0914889,0.0911581,-0.138985,6,-0.00011911,11,-1.26696e-05,-3.85703,0.386912,0.15249,-0.826791,0.0911581,
2,0,0,1,0,7032.95,0.083998,0.0837257,-0.133114,6,-0.00127831,11,-1.1145e-05,-3.87578,0.327976,0.179891,-0.931359,0.0837257,
2,0,0,1,0,7040.44,0.076507,0.0761999,-0.12779,6,-0.00239805,11,-9.73755e-06,-3.8935,0.370017,0.159452,-0.795579,0.0761999,
2,0,0,1,0,7047.93,0.069016,0.0687464,-0.121915,6,-0.00347631,11,-8.38119e-06,-3.91394,0.335424,0.175897,-0.840227,0.0687464,
2,0,0,1,0,7055.42,0.0615251,0.0612472,-0.116811,6,-0.00451099,11,-7.15434e-06,-3.93252,0.367789,0.160418,-0.728313,0.0612472,
2,0,0,1,0,7062.91,0.0540342,0.0537014,-0.110484,6,-0.00549989,11,-5.93314e-06,-3.9567,0.381095,0.154817,-0.666486,0.0537014,
2,0,0,1,0,7070.4,0.0465432,0.0462297,-0.105979,6,-0.00644944,11,-4.89938e-06,-3.97478,0.473825,0.124519,-0.515808,0.0462297,
2,0,0,1,0,7077.89,0.0390522,0.0387273,-0.103072,6,-0.00737006,11,-3.99171e-06,-3.98686,1.5843,0.0372405,-0.149303,0.0387273,
2,0,0,1,0,7085.38,0.0315613,0.0312737,-0.101865,6,-0.00827454,11,-3.18569e-06,-3.99198,3.12155,0.0189008,-0.0748446,0.0312737,
2,0,0,1,0,7092.87,0.0240703,0.0237544,-0.102051,6,-0.00917542,11,-2.42416e-06,-3.99118,-7.65547,-0.00770691,0.0307035,0.0237544,
2,0,0,1,0,7100.36,0.0165794,0.0162637,-0.103728,6,-0.0100838,11,-1.68701e-06,-3.9841,-0.626439,-0.0941831,0.380631,0.0162637,
2,0,0,1,0,7107.86,0.00908843,0.00873901,-0.106691,6,-0.0110096,11,-9.32376e-07,-3.97187,-0.73019,-0.0808008,0.336595,0.00873901,
2,0,0,1,0,7115.35,0.00159744,0.00128956,-0.111056,6,-0.0119636,11,-1.43213e-07,-3.95446, , , ,0.00128956,
2,0,0,1,0,7116.74,0.000199235,-0.000136299,-0.112004,6,-0.0121452,11,1.52662e-08,-3.95076, , , ,-0.000136299,