File: Figure_codes/Fig_3-5/rawdata_trumpetplot_data/before 10th/20221101_1-115_002_TrumpetPlot_ParaChange_12_CV_C01_7.csv
mode,ox/red,error,control changes,counter inc.,time/s,control/V,Ewe/V,<I>/mA,cycle number,(Q-Qo)/C,I Range,P/W,log(|I|),Tafel slope mV/dec,alpha_eff,dI/d(E-IR),E-IR/V,
2,1,0,0,0,9831.49,2.44065e-05,-0.000268062,8.01574,8,0.0000000E+000,10,-2.14871e-06,-2.09606, , , ,-0.000268062,
2,1,0,1,0,9831.54,0.00977853,0.00945346,9.2984,8,0.000408121,10,8.7902e-05,-2.03159,0.153721,0.383812,138.431,0.00945346,
2,1,0,1,0,9831.59,0.0197755,0.0194379,10.1367,8,0.000897404,10,0.000197035,-1.9941,0.453195,0.130187,51.566,0.0194379,
2,1,0,1,0,9831.64,0.0297726,0.0294743,10.6041,8,0.00141654,10,0.000312548,-1.97453,0.641728,0.0919392,37.9544,0.0294743,
2,1,0,1,0,9831.69,0.0397514,0.0394415,11.0471,8,0.00195617,10,0.000435715,-1.95675,0.414538,0.142327,61.4911,0.0394415,
2,1,0,1,0,9831.74,0.0497393,0.049431,11.7159,8,0.00252323,10,0.00057913,-1.93122,0.350711,0.16823,76.7612,0.049431,
2,1,0,1,0,9831.79,0.0597364,0.0593876,12.5477,8,0.00312863,10,0.000745176,-1.90144,0.287185,0.205442,100.697,0.0593876,
2,1,0,1,0,9831.84,0.0697152,0.0693943,13.56,8,0.00377992,10,0.000940985,-1.86774,0.31072,0.189882,100.398,0.0693943,
2,1,0,1,0,9831.89,0.0796941,0.0793477,14.6561,8,0.00448384,10,0.00116293,-1.83398,0.307969,0.191578,109.656,0.0793477,
2,1,0,1,0,9831.94,0.0896911,0.0893816,15.7352,8,0.00524421,10,0.00140644,-1.80313,0.336102,0.175542,107.765,0.0893816,
2,1,0,1,0,9831.99,0.099679,0.0994011,16.7767,8,0.00605554,10,0.00166763,-1.77529,0.367555,0.16052,105.094,0.0994011,
2,1,0,1,0,9832.04,0.109658,0.10931,17.8757,8,0.00691938,10,0.001954,-1.74774,0.341815,0.172608,120.411,0.10931,
2,1,0,1,0,9832.09,0.119655,0.119354,19.2835,8,0.00784689,10,0.00230156,-1.71481,0.279486,0.211102,159.06,0.1193539,
2,1,0,1,0,9832.14,0.129652,0.129355,21.0973,8,0.00885555,10,0.00272904,-1.67577,0.249953,0.236045,194.255,0.129355,
2,1,0,1,0,9832.19,0.139631,0.139299,23.0181,8,0.00995703,10,0.0032064,-1.63793,0.283606,0.208035,186.97,0.1392992,
2,1,0,1,0,9832.24,0.149619,0.149304,24.7706,8,0.0111507,10,0.00369834,-1.60606,0.363232,0.162431,156.773,0.149304,
2,1,0,1,0,9832.29,0.159616,0.159328,25.8995,8,0.0124215,10,0.00412651,-1.58671,1.13692,0.0518948,52.4372,0.159328,
2,1,0,1,0,9832.34,0.169595,0.169258,25.3559,8,0.0137109,10,0.0042917,-1.59592,-0.283957,-0.207778,-204.849,0.169258,
2,1,0,1,0,9832.39,0.179573,0.179312,21.491,8,0.0148935,10,0.0038536,-1.66774,-0.0922763,-0.639384,-535.191,0.179312,
2,1,0,1,0,9832.44,0.18957,0.189243,15.8735,8,0.0158259,10,0.00300395,-1.79933,-0.0718791,-0.820823,-509.056,0.189243,
2,1,0,1,0,9832.49,0.199558,0.199241,12.027,8,0.0165108,10,0.00239626,-1.91984,-0.10813,-0.545639,-256.87,0.199241,
2,1,0,1,0,9832.54,0.209537,0.209244,10.2954,8,0.0170613,10,0.00215426,-1.98735,-0.198592,-0.297092,-119.356,0.209244,
2,1,0,1,0,9832.59,0.219534,0.219234,9.42525,8,0.0175519,10,0.00206634,-2.02571,-0.349065,-0.169023,-62.3467,0.219234,
2,1,0,1,0,9832.64,0.229531,0.229267,8.92442,8,0.0180102,10,0.00204608,-2.04942,-0.478035,-0.123422,-42.9479,0.229267,
2,1,0,1,0,9832.69,0.23951,0.239202,8.56066,8,0.0184462,10,0.00204773,-2.06749,-0.663525,-0.0889191,-29.7776,0.239202,
2,1,0,1,0,9832.74,0.249498,0.249201,8.31492,8,0.018867,10,0.00207209,-2.08014,-0.808713,-0.0729554,-23.6446,0.249201,
2,1,0,1,0,9832.79,0.259495,0.259182,8.1053,8,0.019277,10,0.00210074,-2.09123,-0.935975,-0.0630359,-19.947,0.2591815,
2,1,0,1,0,9832.84,0.269474,0.26914,7.94181,8,0.0196772,10,0.00213746,-2.10008,-1.1289,-0.0522632,-16.1847,0.26914,
2,1,0,1,0,9832.89,0.279453,0.27916,7.78554,8,0.0200697,10,0.00217341,-2.10871,-1.39806,-0.0422014,-12.8541,0.27916,
2,1,0,1,0,9832.94,0.28945,0.289147,7.65557,8,0.020456,10,0.00221358,-2.11602,-2.13406,-0.0276469,-8.25777,0.289147,
2,1,0,1,0,9832.99,0.299438,0.299151,7.53333,8,0.0208351,10,0.00225361,-2.12301,-0.046721,-1.26282,-352.534,0.299151,
2,0,0,1,0,9833.03,0.291747,0.291427,-2.0509,8,0.0208995,10,-0.000597687,-2.68806,-0.0119633,-4.93175,350.471,0.291427,
2,0,0,1,0,9833.08,0.28175,0.281458,-3.60055,8,0.0207479,10,-0.0010134,-2.44363,-0.110784,-0.53257,74.48,0.281458,
2,0,0,1,0,9833.13,0.27178,0.271442,-4.13649,8,0.0205541,10,-0.00112282,-2.38337,-0.201928,-0.292183,47.1538,0.2714425,
2,0,0,1,0,9833.18,0.261783,0.261488,-4.52999,8,0.0203371,10,-0.00118454,-2.3439,-0.330942,-0.178279,31.4347,0.261488,
2,0,0,1,0,9833.23,0.251786,0.251421,-4.84598,8,0.0201023,10,-0.00121838,-2.31462,-0.373388,-0.158013,29.9369,0.251421,
2,0,0,1,0,9833.28,0.241807,0.241524,-5.153,8,0.0198523,10,-0.00124457,-2.28794,-0.382008,-0.154447,31.1077,0.241524,
2,0,0,1,0,9833.33,0.231824,0.231496,-5.45084,8,0.0195878,10,-0.00126185,-2.26354,-0.374503,-0.157542,33.4708,0.231496,
2,0,0,1,0,9833.38,0.221822,0.221526,-5.73617,8,0.0193082,10,-0.00127071,-2.24138,-0.409601,-0.144043,32.2144,0.2215257,
2,0,0,1,0,9833.43,0.211844,0.211554,-6.04788,8,0.0190141,10,-0.00127946,-2.2184,-0.461168,-0.127936,30.211,0.211554,
2,0,0,1,0,9833.48,0.201865,0.20156,-6.40525,8,0.0187035,10,-0.00129104,-2.19346,-0.403058,-0.146381,36.6162,0.20156,
2,0,0,1,0,9833.53,0.191868,0.191531,-6.84885,8,0.0183725,10,-0.00131177,-2.16438,-0.315044,-0.187275,50.1202,0.191531,
2,0,0,1,0,9833.58,0.18188,0.18156,-7.44776,8,0.0180169,10,-0.00135222,-2.12797,-0.22586,-0.261224,75.8292,0.18156,
2,0,0,1,0,9833.63,0.171901,0.17157,-8.28079,8,0.017626,10,-0.00142073,-2.08193,-0.182933,-0.322523,104.267,0.17157,
2,0,0,1,0,9833.68,0.161904,0.161604,-9.56722,8,0.0171821,10,-0.0015461,-2.01921,-0.139764,-0.422141,157.732,0.161604,
2,0,0,1,0,9833.73,0.151907,0.151604,-11.533,8,0.0166575,10,-0.00174844,-1.93806,-0.109855,-0.537073,242.219,0.151604,
2,0,0,1,0,9833.78,0.141928,0.141594,-14.4021,8,0.0160133,10,-0.00203924,-1.84157,-0.100421,-0.587526,330.089,0.141594,
2,0,0,1,0,9833.83,0.13194,0.131693,-17.7872,8,0.0152107,10,-0.00234245,-1.74989,-0.114506,-0.515257,357.509,0.131693,
2,0,0,1,0,9833.88,0.121943,0.121675,-21.0982,8,0.0142356,10,-0.00256712,-1.67576,-0.165663,-0.356144,292.84,0.121675,
2,0,0,1,0,9833.93,0.111964,0.111669,-23.5952,8,0.0131164,10,-0.00263484,-1.62718,-0.269528,-0.218901,201.349,0.111669,
2,0,0,1,0,9833.98,0.101985,0.101687,-24.9458,8,0.0118999,10,-0.00253666,-1.603,-0.866296,-0.068106,66.2056,0.101687,
2,0,0,1,0,9834.03,0.0919883,0.0916617,-24.9135,8,0.0106476,10,-0.00228361,-1.60357,0.847428,0.0696225,-67.6273,0.0916617,
2,0,0,1,0,9834.08,0.0820004,0.0816746,-23.5594,8,0.00943344,10,-0.0019242,-1.62784,0.295713,0.199518,-183.287,0.0816746,
2,0,0,1,0,9834.13,0.0720215,0.071731,-21.582,8,0.00830727,10,-0.0015481,-1.66591,0.25527,0.231128,-194.717,0.071731,
2,0,0,1,0,9834.18,0.0620245,0.0617006,-19.8798,8,0.0072729,10,-0.0012266,-1.70159,0.311018,0.189699,-147.271,0.0617006,
2,0,0,1,0,9834.23,0.0520275,0.0516937,-18.5639,8,0.0063127,10,-0.000959636,-1.73133,0.341113,0.172963,-125.283,0.0516937,
2,0,0,1,0,9834.28,0.0420486,0.0417248,-17.3089,8,0.00541728,10,-0.000722209,-1.76173,0.308843,0.191035,-129.163,0.0417248,
2,0,0,1,0,9834.33,0.0320607,0.0317162,-15.905,8,0.00458767,10,-0.000504447,-1.79847,0.240693,0.245126,-152.018,0.0317162,
2,0,0,1,0,9834.38,0.0220637,0.0217821,-14.3784,8,0.00383149,10,-0.000313191,-1.84229,0.233253,0.252944,-141.978,0.0217821,
2,0,0,1,0,9834.43,0.0120848,0.011753,-13.1953,8,0.0031459,10,-0.000155085,-1.87958,0.321175,0.183701,-94.6638,0.011753,
2,0,0,1,0,9834.48,0.00210598,0.00173784,-12.5982,8,0.00250604,10,-2.18937e-05,-1.89969,1.06679,0.0553059,-27.1323,0.001737842,
2,0,0,1,0,9834.53,-0.00789103,-0.00827259,-12.313,8,0.00188461,10,0.000101861,-1.90963,3.55963,0.0165747,-7.97244,-0.008272592,
2,0,0,1,0,9834.58,-0.017879,-0.0182229,-12.3544,8,0.00126983,10,0.000225132,-1.90818,-1.7329,-0.034047,16.4206,-0.0182229,
2,0,0,1,0,9834.63,-0.0278578,-0.0282683,-12.5651,8,0.000648612,10,0.000355195,-1.90083,-1.25727,-0.0469269,23.0196,-0.0282683,
2,0,0,1,0,9834.68,-0.0378549,-0.0382206,-12.8722,8,1.30214e-05,10,0.000491984,-1.89035,-0.866232,-0.0681111,34.2045,-0.03822061,
2,0,0,1,0,9834.73,-0.0478519,-0.0481929,-13.2579,8,-0.000640287,10,0.000638938,-1.87752,-0.667159,-0.0884347,45.7904,-0.0481929,
2,0,0,1,0,9834.78,-0.0578126,-0.0581443,-13.706,8,-0.00131167,10,0.000796926,-1.86309,-0.652226,-0.0904595,48.3972,-0.0581443,
2,0,0,1,0,9834.83,-0.0678187,-0.0682146,-14.2292,8,-0.00200985,10,0.000970639,-1.84682,-0.573005,-0.102966,57.1601,-0.06821461,
2,0,0,1,0,9834.88,-0.0778157,-0.0781739,-14.8274,8,-0.00273604,10,0.00115912,-1.82893,-0.537923,-0.109681,63.5299,-0.0781739,
2,0,0,1,0,9834.93,-0.0877945,-0.0881819,-15.5678,8,-0.00349418,10,0.0013728,-1.80777,-0.457292,-0.12902,78.3777,-0.0881819,
2,0,0,1,0,9834.98,-0.0977734,-0.098121,-16.3923,8,-0.00429137,10,0.00160843,-1.78536,-0.424873,-0.138865,88.9023,-0.098121,
2,0,0,1,1,9835.02,-0.0936874,-0.094029,-4.20326,8,-0.00477369,10,0.000395228,-2.37641,-0.00680353,-8.67197,1313.24,-0.09402898,
2,1,0,1,1,9835.07,-0.0837086,-0.0841117,4.29184,8,-0.0047389,10,-0.000360994,-2.36736,0.0176537,3.34208,537.77,-0.08411175,
2,1,0,1,1,9835.12,-0.0737025,-0.0740701,8.09599,8,-0.00441692,10,-0.000599671,-2.09173,0.0713025,0.827461,259.796,-0.0740701,
2,1,0,1,1,9835.17,-0.0637236,-0.0640675,9.88253,8,-0.0039629,10,-0.000633148,-2.00513,0.194674,0.303071,116.585,-0.0640675,
2,1,0,1,1,9835.22,-0.0537447,-0.0541021,10.7267,8,-0.00344607,10,-0.000580338,-1.96953,0.456646,0.129203,54.0426,-0.05410213,
2,1,0,1,1,9835.27,-0.0437477,-0.0440769,11.0939,8,-0.00289897,10,-0.000488985,-1.95492,1.17118,0.0503765,21.8019,-0.0440769,
2,1,0,1,1,9835.32,-0.0337507,-0.0340917,11.2121,8,-0.00234012,10,-0.00038224,-1.95031,9.51006,0.00620396,2.71645,-0.0340917,
2,1,0,1,1,9835.37,-0.0237809,-0.0241524,11.2007,8,-0.0017817,10,-0.000270523,-1.95076,-6.8286,-0.00864013,-3.77056,-0.0241524,
2,1,0,1,1,9835.42,-0.0137839,-0.0141229,11.0847,8,-0.00122446,10,-0.000156548,-1.95527,-1.56605,-0.0376744,-16.3098,-0.0141229,
2,1,0,1,1,9835.47,-0.0037869,-0.00412717,10.9523,8,-0.000673596,10,-4.5202e-05,-1.96049,-1.76457,-0.0334359,-14.279,-0.00412717,
2,1,0,1,1,9835.49,-2.55332e-05,-0.000401673,10.8734,8,-0.000469427,10,-4.36756e-06,-1.96363, , , ,-0.000401673,