File: Figure_codes/Fig_3-5/rawdata_trumpetplot_data/before 10th/20221101_1-115_002_TrumpetPlot_ParaChange_11_CV_C01_3.csv
mode,ox/red,error,control changes,counter inc.,time/s,control/V,Ewe/V,<I>/mA,cycle number,(Q-Qo)/C,I Range,P/W,log(|I|),Tafel slope mV/dec,alpha_eff,dI/d(E-IR),E-IR/V,
2,0,0,1,0,4896.88,2.44065e-05,0.000705392,-6.98445,4,0.0000000E+000,11,-4.92678e-06,-2.15587, , , ,0.000705392,
2,1,0,1,0,4896.97,0.00978761,0.00943654,3.47651,4,3.83877e-05,11,3.28062e-05,-2.45886,0.0400016,1.47494,192.826,0.00943654,
2,1,0,1,0,4897.07,0.0197755,0.0194703,4.15344,4,0.000430874,11,8.08686e-05,-2.38159,0.368229,0.160226,26.0082,0.0194703,
2,1,0,1,0,4897.17,0.0297635,0.0295003,4.39451,4,0.000858778,11,0.00012964,-2.35709,0.493689,0.119509,20.4611,0.0295003,
2,1,0,1,0,4897.27,0.0397514,0.0394257,4.65858,4,0.00131107,11,0.000183668,-2.33175,0.284502,0.20738,37.8191,0.0394257,
2,1,0,1,0,4897.37,0.0497484,0.0494878,5.05005,4,0.00179545,11,0.000249916,-2.2967,0.256113,0.230367,45.3293,0.0494878,
2,1,0,1,0,4897.47,0.0597273,0.0594149,5.56258,4,0.00232393,11,0.0003305,-2.25472,0.208021,0.283626,61.5809,0.0594149,
2,1,0,1,0,4897.57,0.0697152,0.0694048,6.21801,4,0.00291228,11,0.00043156,-2.20635,0.209955,0.281012,68.272,0.0694048,
2,1,0,1,0,4897.67,0.0797031,0.0794072,6.94896,4,0.00357041,11,0.000551797,-2.15808,0.222396,0.265292,71.9235,0.07940717,
2,1,0,1,0,4897.77,0.0896911,0.0894444,7.64713,4,0.00430062,11,0.000683993,-2.1165,0.253455,0.232783,69.5515,0.0894444,
2,1,0,1,0,4897.87,0.099679,0.0994005,8.32563,4,0.0050981,11,0.000827571,-2.07958,0.286154,0.206182,66.8917,0.0994005,
2,1,0,1,0,4897.97,0.109667,0.109382,9.0835,4,0.00596583,11,0.000993572,-2.04175,0.241834,0.243969,86.5525,0.109382,
2,1,0,1,0,4898.07,0.119655,0.119356,10.2041,4,0.00692494,11,0.00121792,-1.99123,0.183415,0.321674,128.101,0.119356,
2,1,0,1,0,4898.17,0.129643,0.129324,11.7144,4,0.00801743,11,0.00151495,-1.93128,0.161778,0.364698,166.718,0.129324,
2,1,0,1,0,4898.27,0.139631,0.139329,13.342,4,0.00927117,11,0.00185892,-1.87478,0.201355,0.293015,152.561,0.139329,
2,1,0,1,0,4898.37,0.149619,0.14932,14.6146,4,0.0106719,11,0.00218225,-1.83521,0.374455,0.157562,89.6844,0.14932,
2,1,0,1,0,4898.47,0.159607,0.159329,14.7496,4,0.0121532,11,0.00235005,-1.83122,-0.383608,-0.153803,-88.2721,0.159329,
2,1,0,1,0,4898.57,0.169595,0.16937,12.5142,4,0.0135385,11,0.00211952,-1.9026,-0.0797229,-0.740063,-359.588,0.16937,
2,1,0,1,0,4898.67,0.179582,0.179335,8.65907,4,0.014593,11,0.00155287,-2.06253,-0.059793,-0.986738,-335.07,0.179335,
2,1,0,1,0,4898.77,0.18957,0.18923,6.48716,4,0.0153331,11,0.00122757,-2.18795,-0.116273,-0.507427,-128.832,0.18923,
2,1,0,1,0,4898.87,0.199558,0.199276,5.57874,4,0.0159302,11,0.00111171,-2.25346,-0.19823,-0.297635,-64.7504,0.199276,
2,1,0,1,0,4898.97,0.209546,0.209281,5.03568,4,0.0164585,11,0.00105387,-2.29794,-0.231856,-0.254468,-50.0547,0.209281,
2,1,0,1,0,4899.07,0.219534,0.219217,4.66691,4,0.0169417,11,0.00102307,-2.33097,-0.396788,-0.148694,-27.0872,0.2192174,
2,1,0,1,0,4899.17,0.229522,0.229192,4.41408,4,0.0173954,11,0.00101167,-2.35516,-0.453094,-0.130216,-22.4792,0.2291923,
2,1,0,1,0,4899.27,0.23951,0.239216,4.25363,4,0.0178286,11,0.00101753,-2.37124,-0.830548,-0.0710375,-11.805,0.239216,
2,1,0,1,0,4899.37,0.249498,0.249263,4.13395,4,0.0182474,11,0.00103044,-2.38363,-0.8674,-0.0680194,-10.977,0.249263,
2,1,0,1,0,4899.47,0.259486,0.259234,4.04724,4,0.018656,11,0.00104918,-2.39284,-0.712929,-0.0827571,-13.0533,0.259234,
2,1,0,1,0,4899.57,0.269474,0.269187,3.96,4,0.0190559,11,0.00106598,-2.4023,-1.37016,-0.0430605,-6.6604,0.269187,
2,1,0,1,0,4899.67,0.279462,0.279171,3.88777,4,0.0194485,11,0.00108535,-2.4103,-1.29402,-0.0455945,-6.92187,0.279171,
2,1,0,1,0,4899.77,0.28945,0.289165,3.82527,4,0.0198343,11,0.00110614,-2.41734,-4.06488,-0.0145146,-2.16763,0.289165,
2,1,0,1,0,4899.87,0.299438,0.299168,3.77135,4,0.0202138,11,0.00112827,-2.4235,-0.0244537,-2.41273,-319.271,0.299168,
2,0,0,1,0,4899.96,0.291747,0.291469,-1.57969,4,0.0201934,11,-0.00046043,-2.80143,-0.056882,-1.03724,63.2622,0.291469,
2,0,0,1,0,4900.06,0.281759,0.281495,-1.98388,4,0.0200137,11,-0.000558453,-2.70249,-0.149657,-0.394235,30.3615,0.281495,
2,0,0,1,0,4900.16,0.271771,0.271439,-2.24808,4,0.0198023,11,-0.000610216,-2.64819,-0.181107,-0.325775,28.5588,0.2714386,
2,0,0,1,0,4900.26,0.261783,0.261466,-2.45913,4,0.019567,11,-0.000642978,-2.60922,-0.346861,-0.170097,16.3207,0.261466,
2,0,0,1,0,4900.36,0.251795,0.251492,-2.63962,4,0.0193126,11,-0.000663845,-2.57846,-0.365927,-0.161235,16.5888,0.251492,
2,0,0,1,0,4900.46,0.241807,0.241544,-2.80097,4,0.0190407,11,-0.000676556,-2.55269,-0.365208,-0.161552,17.7257,0.241544,
2,0,0,1,0,4900.56,0.231815,0.231531,-2.97893,4,0.0187523,11,-0.000689715,-2.52594,-0.330243,-0.178656,20.7366,0.231531,
2,0,0,1,0,4900.66,0.221831,0.221537,-3.15429,4,0.018447,11,-0.000698794,-2.5011,-0.363457,-0.16233,19.9534,0.221537,
2,0,0,1,0,4900.76,0.211843,0.211534,-3.35629,4,0.0181226,11,-0.00070997,-2.47414,-0.429621,-0.13733,17.9822,0.211534,
2,0,0,1,0,4900.86,0.201856,0.201522,-3.60323,4,0.0177757,11,-0.00072613,-2.44331,-0.303725,-0.194255,27.3417,0.2015222,
2,0,0,1,0,4900.96,0.191868,0.191584,-3.94542,4,0.0174,11,-0.000755877,-2.40391,-0.218569,-0.269938,41.6513,0.191584,
2,0,0,1,0,4901.06,0.18188,0.181583,-4.4417,4,0.0169841,11,-0.000806539,-2.35245,-0.162272,-0.363586,62.9499,0.181583,
2,0,0,1,0,4901.16,0.171892,0.171615,-5.19972,4,0.0165062,11,-0.000892353,-2.28402,-0.128843,-0.457923,92.9725,0.171615,
2,0,0,1,0,4901.26,0.161904,0.161605,-6.43472,4,0.0159306,11,-0.00103988,-2.19147,-0.0951222,-0.620255,155.95,0.161605,
2,0,0,1,0,4901.36,0.151916,0.151601,-8.35753,4,0.0151977,11,-0.00126701,-2.07792,-0.0866999,-0.680509,222.011,0.151601,
2,0,0,1,0,4901.46,0.141928,0.141625,-10.8436,4,0.0142414,11,-0.00153573,-1.96482,-0.0975416,-0.60487,255.716,0.141625,
2,0,0,1,0,4901.56,0.13194,0.13167,-13.1764,4,0.0130392,11,-0.00173493,-1.8802,-0.148728,-0.396697,203.666,0.1316701,
2,0,0,1,0,4901.66,0.121952,0.121657,-14.6594,4,0.0116399,11,-0.00178341,-1.83388,-0.417879,-0.141189,80.5761,0.121657,
2,0,0,1,0,4901.76,0.111964,0.11163,-14.7923,4,0.0101576,11,-0.00165126,-1.82997,0.549192,0.107431,-61.867,0.11163,
2,0,0,1,0,4901.86,0.101976,0.101634,-13.4713,4,0.0087361,11,-0.00136913,-1.87059,0.161382,0.365591,-191.853,0.1016335,
2,0,0,1,0,4901.96,0.0919883,0.0916125,-11.5314,4,0.00749004,11,-0.00105642,-1.93812,0.162484,0.363112,-163.669,0.0916125,
2,0,0,1,0,4902.06,0.0820004,0.0816812,-10.214,4,0.00641183,11,-0.000834293,-1.9908,0.245524,0.240302,-95.877,0.0816812,
2,0,0,1,0,4902.16,0.0720124,0.0716759,-9.4463,4,0.00543314,11,-0.000677073,-2.02474,0.311272,0.189545,-69.9006,0.0716759,
2,0,0,1,0,4902.26,0.0620245,0.0616948,-8.77392,4,0.00452305,11,-0.000541305,-2.05681,0.269471,0.218948,-74.9932,0.0616948,
2,0,0,1,0,4902.36,0.0520366,0.0517102,-8.00028,4,0.00368475,11,-0.000413696,-2.09689,0.221216,0.266708,-83.2145,0.0517102,
2,0,0,1,0,4902.46,0.0420486,0.041785,-7.21271,4,0.00292672,11,-0.000301383,-2.1419,0.252969,0.23323,-65.7853,0.041785,
2,0,0,1,0,4902.55,0.0320607,0.0317322,-6.68017,4,0.00223674,11,-0.000211977,-2.17521,0.373556,0.157941,-41.1221,0.0317322,
2,0,0,1,0,4902.65,0.0220728,0.0217587,-6.39912,4,0.00158665,11,-0.000139237,-2.19388,0.833533,0.0707831,-17.6829,0.0217587,
2,0,0,1,0,4902.75,0.0120848,0.0117437,-6.32542,4,0.000953234,11,-7.42836e-05,-2.19891,2.84555,0.0207341,-5.11675,0.0117437,
2,0,0,1,0,4902.85,0.0020969,0.00172309,-6.43384,4,0.000320647,11,-1.10861e-05,-2.19153,-0.69059,-0.0854342,21.3103,0.00172309,
2,0,0,1,0,4902.95,-0.00789103,-0.00818723,-6.50104,4,-0.000323645,11,5.32255e-05,-2.18702,-0.877732,-0.0672187,17.101,-0.008187226,
2,0,0,1,0,4903.05,-0.017879,-0.018189,-6.71503,4,-0.00098255,11,0.00012214,-2.17295,-0.639468,-0.0922642,24.1604,-0.018189,
2,0,0,1,0,4903.15,-0.0278669,-0.0281902,-6.94603,4,-0.00166402,11,0.00019581,-2.15826,-0.669665,-0.0881038,23.9262,-0.0281902,
2,0,0,1,0,4903.25,-0.0378548,-0.0381813,-7.22925,4,-0.00237141,11,0.000276022,-2.14091,-0.609276,-0.0968363,27.3065,-0.0381813,
2,0,0,1,0,4903.35,-0.0478428,-0.0481981,-7.53946,4,-0.00310845,11,0.000363387,-2.12266,-0.433905,-0.135975,40.0587,-0.0481981,
2,0,0,1,0,4903.45,-0.0578216,-0.058192,-7.91456,4,-0.00387893,11,0.000460564,-2.10157,-0.441191,-0.133729,41.3213,-0.058192,
2,0,0,1,0,4903.55,-0.0678187,-0.068192,-8.37496,4,-0.00469111,11,0.000571105,-2.07702,-0.377395,-0.156335,51.0912,-0.068192,
2,0,0,1,0,4903.65,-0.0778066,-0.0781986,-8.92853,4,-0.00555386,11,0.000698198,-2.04922,-0.345392,-0.170821,59.5825,-0.0781986,
2,0,0,1,0,4903.75,-0.0877945,-0.0881382,-9.59869,4,-0.00647825,11,0.000846012,-2.01779,-0.322916,-0.18271,68.4261,-0.0881382,
2,0,0,1,0,4903.85,-0.0977825,-0.0981331,-10.2448,4,-0.00746995,11,0.00100535,-1.9895,-0.376716,-0.156617,62.697,-0.0981331,
2,1,0,1,1,4903.95,-0.0927386,-0.0931079,0.536105,4,-0.00795144,11,-4.99156e-05,-3.27075,0.0195597,3.01641,661.37,-0.0931079,
2,1,0,1,1,4904.05,-0.0827529,-0.08314,3.79435,4,-0.00769716,11,-0.000315462,-2.42086,0.0551816,1.0692,156.43,-0.08314,
2,1,0,1,1,4904.15,-0.0727627,-0.0731422,4.7861,4,-0.00726148,11,-0.000350066,-2.32002,0.173165,0.340716,63.3497,-0.0731422,
2,1,0,1,1,4904.25,-0.0627748,-0.0630832,5.24525,4,-0.0067583,11,-0.000330887,-2.28023,0.345818,0.17061,34.9251,-0.0630832,
2,1,0,1,1,4904.35,-0.0527868,-0.0531275,5.5034,4,-0.00621968,11,-0.000292382,-2.25937,0.789989,0.0746846,16.0293,-0.0531275,
2,1,0,1,1,4904.45,-0.0427989,-0.0431039,5.63242,4,-0.00566224,11,-0.000242779,-2.24931,1.03115,0.0572175,12.5883,-0.0431039,
2,1,0,1,1,4904.55,-0.0328109,-0.0331364,5.69725,4,-0.0050965,11,-0.000188786,-2.24433,10.3585,0.00569583,1.26428,-0.0331364,
2,1,0,1,1,4904.65,-0.022823,-0.0231285,5.68407,4,-0.00452836,11,-0.000131464,-2.24534,-9.11403,-0.00647353,-1.43532,-0.0231285,
2,1,0,1,1,4904.75,-0.0128351,-0.0131403,5.62743,4,-0.00396273,11,-7.39461e-05,-2.24969,-1.99392,-0.02959,-6.51047,-0.0131403,
2,1,0,1,1,4904.85,-0.00284713,-0.00315481,5.58391,4,-0.00340223,11,-1.76162e-05,-2.25306,-1.60556,-0.0367473,-7.99868,-0.00315481,
2,1,0,0,1,4904.88,-2.55332e-05,-0.000382585,5.55359,4,-0.00324578,11,-2.12472e-06,-2.25543, , , ,-0.000382585,