File: Figure_codes/Fig_3-5/rawdata_trumpetplot_data/before 10th/20221101_1-115_002_TrumpetPlot_ParaChange_06_CV_C01_6.csv
mode,ox/red,error,control changes,counter inc.,time/s,control/V,Ewe/V,<I>/mA,cycle number,(Q-Qo)/C,I Range,P/W,log(|I|),Tafel slope mV/dec,alpha_eff,dI/d(E-IR),E-IR/V,
2,0,0,1,0,8468.76,2.44065e-05,-0.000268062,-0.553494,7,0.0000000E+000,11,1.4837e-07,-3.25689, , , ,-0.000268062,
2,1,0,1,0,8469.48,0.00729063,0.00698194,0.390033,7,0.000228627,11,2.72319e-06,-3.4089,0.088519,0.666523,10.0628,0.00698194,
2,1,0,1,0,8470.23,0.0147814,0.014482,0.441443,7,0.000552177,11,6.39299e-06,-3.35512,0.171582,0.343859,5.93558,0.014482,
2,1,0,1,0,8470.98,0.0222725,0.0219973,0.476401,7,0.00090659,11,1.04795e-05,-3.32203,0.256423,0.230088,4.2652,0.0219973,
2,1,0,1,0,8471.73,0.0297635,0.0294596,0.511642,7,0.00128599,11,1.50728e-05,-3.29103,0.260812,0.226216,4.49608,0.0294596,
2,1,0,1,0,8472.48,0.0372544,0.036931,0.546315,7,0.00169212,11,2.0176e-05,-3.26256,0.222217,0.265507,5.69308,0.036931,
2,1,0,1,0,8473.23,0.0447458,0.0444559,0.59732,7,0.00213026,11,2.65544e-05,-3.22379,0.194102,0.303964,7.08213,0.0444559,
2,1,0,1,0,8473.98,0.0522363,0.0519347,0.6527,7,0.00260803,11,3.38978e-05,-3.18529,0.159753,0.369321,9.3947,0.0519347,
2,1,0,1,0,8474.73,0.0597282,0.0594505,0.721137,7,0.0031326,11,4.2872e-05,-3.14198,0.180761,0.326399,9.18524,0.0594505,
2,1,0,1,0,8475.48,0.0672182,0.0669193,0.785818,7,0.00370685,11,5.25864e-05,-3.10468,0.238778,0.247091,7.56258,0.06691929,
2,1,0,1,0,8476.23,0.0747092,0.0744005,0.845211,7,0.0043276,11,6.28841e-05,-3.07304,0.270181,0.218372,7.1967,0.07440047,
2,1,0,1,0,8476.98,0.0822001,0.0819018,0.89112,7,0.00499021,11,7.29843e-05,-3.05006,0.36203,0.16297,5.7054,0.0819018,
2,1,0,1,0,8477.72,0.0896911,0.0893723,0.947053,7,0.00568999,11,8.46403e-05,-3.02363,0.29882,0.197443,7.30285,0.0893723,
2,1,0,1,0,8478.47,0.097182,0.0968673,1.00215,7,0.00642957,11,9.70755e-05,-2.99907,0.216035,0.273104,10.6946,0.0968673,
2,1,0,1,0,8479.22,0.104673,0.10441,1.09235,7,0.00722118,11,0.000114052,-2.96164,0.184532,0.319727,13.583,0.10441,
2,1,0,1,0,8479.97,0.112164,0.111866,1.20976,7,0.00808997,11,0.000135331,-2.9173,0.167255,0.352756,16.619,0.111866,
2,1,0,1,0,8480.72,0.119655,0.119369,1.34693,7,0.00905674,11,0.000160781,-2.87066,0.198817,0.296756,15.5917,0.119369,
2,1,0,1,0,8481.47,0.127146,0.126852,1.46108,7,0.0101219,11,0.000185342,-2.83532,0.237212,0.248723,14.2525,0.126852,
2,1,0,1,0,8482.22,0.134637,0.134346,1.56194,7,0.0112703,11,0.000209841,-2.80634,0.397766,0.148329,9.06629,0.134346,
2,1,0,1,0,8482.97,0.142127,0.141802,1.58974,7,0.0124687,11,0.000225429,-2.79867,-0.961944,-0.0613341,-3.78516,0.141802,
2,1,0,1,0,8483.72,0.149619,0.149361,1.46027,7,0.013632,11,0.000218107,-2.83557,-0.112438,-0.524732,-29.7561,0.149361,
2,1,0,1,0,8484.47,0.157109,0.1568,1.18855,7,0.0146371,11,0.000186364,-2.92498,-0.0712612,-0.82794,-38.333,0.1568,
2,1,0,1,0,8485.22,0.164601,0.164304,0.937746,7,0.015437,11,0.000154075,-3.02791,-0.0774813,-0.761474,-27.877,0.164304,
2,1,0,1,0,8485.96,0.172091,0.171803,0.773404,7,0.0160829,11,0.000132873,-3.11159,-0.11302,-0.52203,-15.8857,0.171803,
2,1,0,1,0,8486.71,0.179582,0.179315,0.684257,7,0.0166374,11,0.000122698,-3.16478,-0.180492,-0.326883,-8.76848,0.179315,
2,1,0,1,0,8487.46,0.187074,0.186802,0.632654,7,0.0171389,11,0.000118181,-3.19883,-0.274745,-0.214745,-5.28375,0.1868016,
2,1,0,1,0,8488.21,0.194564,0.19428,0.595429,7,0.0176074,11,0.00011568,-3.22517,-0.36608,-0.161167,-3.75153,0.19428,
2,1,0,1,0,8488.96,0.202056,0.201779,0.571556,7,0.0180541,11,0.000115328,-3.24294,-0.413369,-0.142729,-3.1742,0.201779,
2,1,0,1,0,8489.71,0.209546,0.209256,0.553426,7,0.0184854,11,0.000115807,-3.25694,-0.617598,-0.0955313,-2.06613,0.209256,
2,1,0,1,0,8490.46,0.217038,0.21673,0.538692,7,0.0189046,11,0.000116751,-3.26866,-0.846581,-0.0696921,-1.47004,0.21673,
2,1,0,1,0,8491.21,0.224528,0.224233,0.530122,7,0.019315,11,0.000118871,-3.27562,-1.02652,-0.0574756,-1.18605,0.224233,
2,1,0,1,0,8491.96,0.232019,0.231758,0.520596,7,0.0197178,11,0.000120652,-3.2835,-0.921908,-0.0639977,-1.29874,0.231758,
2,1,0,1,0,8492.71,0.23951,0.239214,0.512839,7,0.0201146,11,0.000122678,-3.29002,-1.67928,-0.0351341,-0.704116,0.239214,
2,1,0,1,0,8493.46,0.247001,0.246708,0.506739,7,0.0205059,11,0.000125017,-3.29522,-0.994566,-0.0593224,-1.16895,0.246708,
2,1,0,1,0,8494.2,0.254492,0.254238,0.499584,7,0.0208925,11,0.000127013,-3.30139,-1.53018,-0.0385575,-0.752801,0.254238,
2,1,0,1,0,8494.95,0.261983,0.261704,0.49394,7,0.0212747,11,0.000129266,-3.30633,-1.61736,-0.0364791,-0.702846,0.261704,
2,1,0,1,0,8495.7,0.269474,0.269152,0.489711,7,0.0216533,11,0.000131807,-3.31006,-8.12163,-0.00726455,-0.138549,0.269152,
2,1,0,1,0,8496.45,0.276965,0.276666,0.48347,7,0.0220281,11,0.00013376,-3.31563,-1.07988,-0.0546358,-1.03342,0.2766656,
2,1,0,1,0,8497.2,0.284456,0.284145,0.481015,7,0.0223996,11,0.000136678,-3.31784,-1.43486,-0.0411189,-0.771308,0.284145,
2,1,0,1,0,8497.95,0.291947,0.291652,0.474136,7,0.0227676,11,0.000138283,-3.3241,-1.69943,-0.0347176,-0.644417,0.291652,
2,1,0,1,0,8498.7,0.299437,0.299161,0.47064,7,0.0231324,11,0.000140797,-3.32731,-0.000730449,-80.7722,-267.585,0.299161,
2,0,0,1,0,8499.38,0.293745,0.293455,-0.107838,7,0.0231206,11,-3.16456e-05,-3.96723,-0.0243536,-2.42264,9.7967,0.293455,
2,0,0,1,0,8500.13,0.286253,0.285936,-0.155727,7,0.0230099,11,-4.45278e-05,-3.80764,-0.0689588,-0.855583,5.23902,0.285936,
2,0,0,1,0,8500.88,0.278763,0.278496,-0.189141,7,0.022869,11,-5.26749e-05,-3.72321,-0.112794,-0.523078,3.86352,0.278496,
2,0,0,1,0,8501.63,0.271272,0.270973,-0.217699,7,0.0227064,11,-5.89907e-05,-3.66214,-0.15372,-0.383815,3.23846,0.270973,
2,0,0,1,0,8502.38,0.263781,0.26347,-0.237704,7,0.0225258,11,-6.2628e-05,-3.62396,-0.218583,-0.26992,2.51185,0.26347,
2,0,0,1,0,8503.13,0.25629,0.255974,-0.258549,7,0.0223296,11,-6.61819e-05,-3.58746,-0.281947,-0.209259,2.10615,0.255974,
2,0,0,1,0,8503.88,0.248799,0.248503,-0.276226,7,0.0221193,11,-6.86432e-05,-3.55873,-0.318144,-0.185451,1.9944,0.2485033,
2,0,0,1,0,8504.63,0.241308,0.241,-0.292646,7,0.0218959,11,-7.05277e-05,-3.53366,-0.326461,-0.180726,2.07605,0.241,
2,0,0,1,0,8505.38,0.233817,0.233514,-0.310651,7,0.0216596,11,-7.25416e-05,-3.50773,-0.265222,-0.222455,2.68312,0.233514,
2,0,0,1,0,8506.13,0.226326,0.226016,-0.329885,7,0.0214103,11,-7.45594e-05,-3.48164,-0.39484,-0.149428,1.91958,0.2260163,
2,0,0,1,0,8506.87,0.218835,0.218548,-0.345862,7,0.0211479,11,-7.55875e-05,-3.4611,-0.265521,-0.222205,2.9834,0.218548,
2,0,0,1,0,8507.62,0.211344,0.21106,-0.365687,7,0.0208716,11,-7.71821e-05,-3.43689,-0.371278,-0.158911,2.26967,0.21106,
2,0,0,1,0,8508.37,0.203854,0.20354,-0.38625,7,0.0205797,11,-7.86173e-05,-3.41313,-0.28485,-0.207127,3.13824,0.20354,
2,0,0,1,0,8509.12,0.196362,0.196062,-0.412422,7,0.0202705,11,-8.08602e-05,-3.38466,-0.249308,-0.236655,3.80918,0.196062,
2,0,0,1,0,8509.87,0.188872,0.188527,-0.445134,7,0.0199394,11,-8.39198e-05,-3.35151,-0.176271,-0.334712,5.80789,0.188527,
2,0,0,1,0,8510.62,0.18138,0.181047,-0.487439,7,0.0195803,11,-8.82491e-05,-3.31208,-0.171175,-0.344676,6.58019,0.181047,
2,0,0,1,0,8511.37,0.17389,0.173607,-0.551837,7,0.0191825,11,-9.58026e-05,-3.25819,-0.13306,-0.44341,9.53155,0.173607,
2,0,0,1,0,8512.12,0.166398,0.166075,-0.643453,7,0.0187272,11,-0.000106861,-3.19148,-0.102107,-0.577827,14.6193,0.166075,
2,0,0,1,0,8512.87,0.158907,0.158578,-0.796598,7,0.0181815,11,-0.000126323,-3.09876,-0.0731595,-0.806457,25.1688,0.158578,
2,0,0,1,0,8513.62,0.151417,0.151123,-1.0299,7,0.0174914,11,-0.000155641,-2.98721,-0.0673096,-0.876547,35.2696,0.151123,
2,0,0,1,0,8514.37,0.143925,0.143615,-1.31106,7,0.0166043,11,-0.000188287,-2.88238,-0.0795754,-0.741435,37.8133,0.143615,
2,0,0,1,0,8515.11,0.136435,0.13612,-1.53273,7,0.0155222,11,-0.000208636,-2.81453,-0.165024,-0.357524,21.2896,0.13612,
2,0,0,1,0,8515.86,0.128943,0.128639,-1.62482,7,0.0143225,11,-0.000209016,-2.78919,-1.2336,-0.0478274,3.0161,0.128639,
2,0,0,1,0,8516.61,0.121453,0.121181,-1.59467,7,0.0131017,11,-0.000193244,-2.79733,0.365224,0.161545,-10.0377,0.121181,
2,0,0,1,0,8517.36,0.113962,0.11367,-1.49325,7,0.0119307,11,-0.000169738,-2.82587,0.220349,0.267757,-15.6465,0.1136705,
2,0,0,1,0,8518.11,0.106471,0.106166,-1.3724,7,0.0108445,11,-0.000145702,-2.86252,0.19826,0.297589,-16.0053,0.106166,
2,0,0,1,0,8518.86,0.0989799,0.0986785,-1.26222,7,0.00984934,11,-0.000124554,-2.89887,0.237873,0.248031,-12.2141,0.0986785,
2,0,0,1,0,8519.61,0.0914889,0.0911761,-1.18453,7,0.0089267,11,-0.000108001,-2.92645,0.327384,0.180217,-8.31711,0.0911761,
2,0,0,1,0,8520.36,0.083998,0.0837098,-1.12506,7,0.00805415,11,-9.41787e-05,-2.94882,0.318567,0.185204,-8.12367,0.0837098,
2,0,0,1,0,8521.11,0.076507,0.0761894,-1.0805,7,0.00721833,11,-8.23225e-05,-2.96638,0.391121,0.150848,-6.35594,0.0761894,
2,0,0,1,0,8521.86,0.0690161,0.068704,-1.02879,7,0.00641723,11,-7.06817e-05,-2.98767,0.322128,0.183157,-7.39023,0.068704,
2,0,0,1,0,8522.61,0.0615251,0.0612504,-0.976267,7,0.00565338,11,-5.97967e-05,-3.01043,0.269451,0.218964,-8.36671,0.0612504,
2,0,0,1,0,8523.35,0.0540342,0.0537596,-0.918623,7,0.00493349,11,-4.93849e-05,-3.03686,0.27479,0.21471,-7.68147,0.0537596,
2,0,0,1,0,8524.1,0.0465441,0.0462253,-0.856758,7,0.00425879,11,-3.96039e-05,-3.06714,0.283646,0.208006,-6.97242,0.0462253,
2,0,0,1,0,8524.85,0.0390523,0.0387507,-0.814301,7,0.00362341,11,-3.15547e-05,-3.08922,0.286701,0.205789,-6.51547,0.03875066,
2,0,0,1,0,8525.6,0.0315618,0.0312465,-0.782743,7,0.00301763,11,-2.4458e-05,-3.10638,0.591713,0.0997105,-3.04061,0.0312465,
2,0,0,1,0,8526.35,0.0240704,0.0238435,-0.761866,7,0.00242981,11,-1.81655e-05,-3.11812,1.17784,0.0500916,-1.49863,0.0238435,
2,0,0,1,0,8527.1,0.0165796,0.0162673,-0.760869,7,0.00184955,11,-1.23773e-05,-3.11869,-1.51108,-0.039045,1.15958,0.0162673,
2,0,0,1,0,8527.85,0.00908846,0.00880796,-0.765122,7,0.00126861,11,-6.73917e-06,-3.11627,-2.17348,-0.0271454,0.811305,0.00880796,
2,0,0,1,0,8528.6,0.00159728,0.00122062,-0.788368,7,0.000678947,11,-9.62299e-07,-3.10327, , , ,0.00122062,
2,0,0,1,0,8528.74,0.000199195,-0.000153538,-0.781872,7,0.000567512,11,1.20047e-07,-3.10686, , , ,-0.000153538,