File: Figure_codes/Fig_3-5/rawdata_trumpetplot_data/before 10th/20221101_1-115_002_TrumpetPlot_ParaChange_11_CV_C01_0.csv
mode,ox/red,error,control changes,counter inc.,time/s,control/V,Ewe/V,<I>/mA,cycle number,(Q-Qo)/C,I Range,P/W,log(|I|),Tafel slope mV/dec,alpha_eff,dI/d(E-IR),E-IR/V,
2,0,0,0,0,1201.99,2.44065e-05,0.000686305,-6.24498,1,0.0000000E+000,11,-4.28596e-06,-2.20447, , , ,0.000686305,
2,1,0,1,0,1202.09,0.00978761,0.00949901,3.98623,1,0.000101274,11,3.78652e-05,-2.39944,0.0613174,0.962207,145.474,0.009499006,
2,1,0,1,0,1202.19,0.0197755,0.0194574,4.35217,1,0.00052631,11,8.46821e-05,-2.36129,2.2499,0.0262234,4.46685,0.0194574,
2,1,0,1,0,1202.29,0.0297635,0.0295181,4.44724,1,0.000965645,11,0.000131274,-2.35191,1.56806,0.0376261,6.52017,0.0295181,
2,1,0,1,0,1202.39,0.0397514,0.039458,4.56241,1,0.00141499,11,0.000180024,-2.34081,0.475495,0.124081,22.1432,0.039458,
2,1,0,1,0,1202.49,0.0497484,0.04947,4.76038,1,0.00187956,11,0.000235496,-2.32236,0.471333,0.125177,23.211,0.04947,
2,1,0,1,0,1202.59,0.0597273,0.0594579,5.05179,1,0.00236734,11,0.000300368,-2.29656,0.302458,0.195069,38.4262,0.0594579,
2,1,0,1,0,1202.69,0.0697152,0.0694513,5.48707,1,0.00289259,11,0.000381084,-2.26066,0.265735,0.222026,47.6597,0.0694513,
2,1,0,1,0,1202.79,0.0797031,0.0794558,6.0935,1,0.00347009,11,0.000484164,-2.21513,0.217337,0.271468,64.5822,0.0794558,
2,1,0,1,0,1202.89,0.0896911,0.0894066,6.78711,1,0.00411334,11,0.000606812,-2.16832,0.2062,0.28613,75.9359,0.0894066,
2,1,0,1,0,1202.99,0.099679,0.0993781,7.57783,1,0.00482967,11,0.000753071,-2.12045,0.215453,0.273841,80.8414,0.0993781,
2,1,0,1,0,1203.09,0.109667,0.109382,8.46457,1,0.00562873,11,0.000925868,-2.0724,0.19095,0.308981,102.177,0.109382,
2,1,0,1,0,1203.19,0.119655,0.119362,9.75168,1,0.00653435,11,0.00116398,-2.01092,0.14692,0.40158,153,0.1193617,
2,1,0,1,0,1203.29,0.129643,0.129353,11.6719,1,0.00759882,11,0.00150979,-1.93286,0.119085,0.495446,225.768,0.1293526,
2,1,0,1,0,1203.39,0.139631,0.139369,14.0372,1,0.00888252,11,0.00195634,-1.85272,0.135322,0.435996,238.725,0.139369,
2,1,0,1,0,1203.49,0.149619,0.149328,16.1167,1,0.0103937,11,0.00240668,-1.79272,0.224959,0.262269,164.585,0.149328,
2,1,0,1,0,1203.59,0.159607,0.159305,16.8903,1,0.0120583,11,0.00269071,-1.77236,-1.09302,-0.0539787,-35.4947,0.159305,
2,1,0,1,0,1203.69,0.169595,0.169343,14.8485,1,0.0136754,11,0.00251448,-1.82832,-0.0852057,-0.692442,-398.527,0.169343,
2,1,0,1,0,1203.79,0.179582,0.179337,9.75477,1,0.0149117,11,0.00174939,-2.01078,-0.0458684,-1.28629,-491.427,0.179337,
2,1,0,1,0,1203.89,0.18957,0.189284,6.52693,1,0.0156973,11,0.00123544,-2.18529,-0.0897694,-0.657239,-168.392,0.189284,
2,1,0,1,0,1203.99,0.199558,0.199307,5.50815,1,0.0162897,11,0.00109781,-2.25899,-0.199655,-0.29551,-63.4405,0.199307,
2,1,0,1,0,1204.09,0.209546,0.209304,4.97762,1,0.0168111,11,0.00104183,-2.30298,-0.226146,-0.260893,-50.6623,0.209304,
2,1,0,1,0,1204.19,0.219534,0.219271,4.61261,1,0.0172885,11,0.00101141,-2.33605,-0.398656,-0.147997,-26.6614,0.2192705,
2,1,0,1,0,1204.29,0.229522,0.229274,4.37637,1,0.0177377,11,0.00100339,-2.35889,-0.50193,-0.117546,-20.1237,0.229274,
2,1,0,1,0,1204.39,0.23951,0.239242,4.22601,1,0.0181679,11,0.00101104,-2.37407,-1.02768,-0.0574107,-9.4784,0.239242,
2,1,0,1,0,1204.49,0.249498,0.249238,4.11655,1,0.0185845,11,0.001026,-2.38547,-0.866797,-0.0680667,-10.9195,0.249238,
2,1,0,1,0,1204.59,0.259486,0.259221,4.02416,1,0.0189912,11,0.00104315,-2.39532,-0.680106,-0.0867512,-13.6059,0.259221,
2,1,0,1,0,1204.69,0.269474,0.269254,3.93782,1,0.0193894,11,0.00106027,-2.40474,-1.58082,-0.0373223,-5.74541,0.269254,
2,1,0,1,0,1204.78,0.279462,0.279161,3.87642,1,0.0197806,11,0.00108215,-2.41157,-1.25249,-0.047106,-7.12288,0.279161,
2,1,0,1,0,1204.88,0.28945,0.289161,3.81198,1,0.020165,11,0.00110228,-2.41885,-3.28615,-0.0179541,-2.66854,0.289161,
2,1,0,1,0,1204.98,0.299438,0.299156,3.75853,1,0.0205435,11,0.00112439,-2.42498,-0.0223665,-2.63788,-343.772,0.299156,
2,0,0,1,0,1205.07,0.291747,0.291457,-1.75471,1,0.0204989,11,-0.000511422,-2.7558,-0.0968614,-0.609117,41.528,0.291457,
2,0,0,1,0,1205.17,0.281759,0.281457,-2.07643,1,0.0203062,11,-0.000584426,-2.68268,-0.166708,-0.353913,28.602,0.281457,
2,0,0,1,0,1205.27,0.271771,0.271479,-2.32696,1,0.0200856,11,-0.00063172,-2.63321,-0.202371,-0.291544,26.3776,0.2714785,
2,0,0,1,0,1205.37,0.261783,0.261478,-2.52856,1,0.0198422,11,-0.000661163,-2.59713,-0.364794,-0.161735,15.9742,0.261478,
2,0,0,1,0,1205.47,0.251795,0.251508,-2.71084,1,0.0195796,11,-0.000681799,-2.5669,-0.330851,-0.178328,18.8711,0.251508,
2,0,0,1,0,1205.57,0.241807,0.241535,-2.88111,1,0.0192987,11,-0.000695887,-2.54044,-0.350318,-0.168418,19.0775,0.241535,
2,0,0,1,0,1205.67,0.231815,0.231546,-3.08401,1,0.0189999,11,-0.000714091,-2.51088,-0.324278,-0.181942,21.8871,0.2315461,
2,0,0,1,0,1205.77,0.221831,0.221515,-3.29215,1,0.0186816,11,-0.000729261,-2.48252,-0.327154,-0.180343,23.1477,0.2215153,
2,0,0,1,0,1205.87,0.211843,0.211517,-3.54973,1,0.01834,11,-0.000750827,-2.44981,-0.30182,-0.195481,27.0489,0.211517,
2,0,0,1,0,1205.97,0.201856,0.20156,-3.87149,1,0.0179692,11,-0.000780335,-2.41212,-0.241356,-0.244452,37.0445,0.2015595,
2,0,0,1,0,1206.07,0.191868,0.191533,-4.34456,1,0.0175592,11,-0.000832127,-2.36205,-0.175742,-0.33572,57.0631,0.191533,
2,0,0,1,0,1206.17,0.18188,0.181618,-5.04461,1,0.017093,11,-0.000916193,-2.29717,-0.127705,-0.462003,90.8595,0.181618,
2,0,0,1,0,1206.27,0.171892,0.171562,-6.1052,1,0.0165399,11,-0.00104742,-2.2143,-0.109103,-0.540772,128.802,0.171562,
2,0,0,1,0,1206.37,0.161904,0.161643,-7.73988,1,0.015853,11,-0.0012511,-2.11127,-0.087416,-0.674934,204.8,0.161643,
2,0,0,1,0,1206.47,0.151916,0.151624,-10.2309,1,0.0149592,11,-0.00155126,-1.99008,-0.0860537,-0.685619,273.842,0.151624,
2,0,0,1,0,1206.57,0.141928,0.141657,-13.1113,1,0.0137928,11,-0.00185731,-1.88235,-0.106096,-0.5561,284.311,0.141657,
2,0,0,1,0,1206.67,0.13194,0.131676,-15.5347,1,0.0123545,11,-0.00204555,-1.8087,-0.190646,-0.309474,187.299,0.1316755,
2,0,0,1,0,1206.77,0.121952,0.121679,-16.6261,1,0.0107331,11,-0.00202304,-1.77921,-4.46936,-0.013201,8.53803,0.121679,
2,0,0,1,0,1206.87,0.111964,0.111628,-15.4882,1,0.00910754,11,-0.00172892,-1.81,0.148285,0.397883,-239.702,0.111628,
2,0,0,1,0,1206.97,0.101976,0.101682,-12.4236,1,0.00770699,11,-0.00126326,-1.90575,0.0883451,0.667836,-323.688,0.101682,
2,0,0,1,0,1207.07,0.0919883,0.0916693,-9.91981,1,0.00660383,11,-0.000909342,-2.0035,0.135995,0.433839,-168.526,0.0916693,
2,0,0,1,0,1207.17,0.0820004,0.0817705,-8.71269,1,0.00568049,11,-0.000712441,-2.05985,0.235289,0.250755,-85.2914,0.0817705,
2,0,0,1,0,1207.27,0.0720124,0.0717076,-7.94471,1,0.00484962,11,-0.000569696,-2.09992,0.238501,0.247379,-76.7217,0.0717076,
2,0,0,1,0,1207.37,0.0620245,0.0617715,-7.22072,1,0.00409184,11,-0.000446035,-2.14142,0.230206,0.256293,-72.3424,0.0617715,
2,0,0,1,0,1207.47,0.0520366,0.0517201,-6.6351,1,0.00340071,11,-0.000343168,-2.17815,0.298832,0.197435,-51.1259,0.05172015,
2,0,0,1,0,1207.57,0.0420486,0.0417319,-6.27183,1,0.00275758,11,-0.000261736,-2.20261,0.676442,0.0872211,-21.3989,0.04173192,
2,0,0,1,0,1207.67,0.0320607,0.0317667,-6.1371,1,0.00213965,11,-0.000194955,-2.21204,1.77698,0.0332025,-7.93764,0.0317667,
2,0,0,1,0,1207.77,0.0220728,0.0217604,-6.11702,1,0.00152862,11,-0.000133109,-2.21346,-4.36562,-0.0135147,3.22819,0.0217604,
2,0,0,1,0,1207.87,0.0120848,0.0118051,-6.20632,1,0.00091339,11,-7.32662e-05,-2.20717,-1.71765,-0.0343492,8.32131,0.0118051,
2,0,0,1,0,1207.97,0.0020969,0.00180074,-6.42188,1,0.000286231,11,-1.15642e-05,-2.19234,-0.512884,-0.115036,28.6137,0.00180074,
2,0,0,1,0,1208.07,-0.00789103,-0.00821835,-6.54731,1,-0.000361008,11,5.38081e-05,-2.18394,-0.623858,-0.0945728,24.2343,-0.008218348,
2,0,0,1,0,1208.17,-0.017879,-0.0182545,-6.81519,1,-0.00102826,11,0.000124408,-2.16652,-0.566356,-0.104175,27.6676,-0.0182545,
2,0,0,1,0,1208.27,-0.0278669,-0.028162,-7.08303,1,-0.00172212,11,0.000199472,-2.14978,-0.622797,-0.094734,26.2331,-0.028162,
2,0,0,1,0,1208.37,-0.0378548,-0.0382452,-7.40533,1,-0.00244558,11,0.000283218,-2.13046,-0.547554,-0.107752,31.0981,-0.0382452,
2,0,0,1,0,1208.47,-0.0478428,-0.0481634,-7.75355,1,-0.00320245,11,0.000373437,-2.1105,-0.39458,-0.149526,45.3314,-0.0481634,
2,0,0,1,0,1208.57,-0.0578216,-0.0581825,-8.18918,1,-0.00399777,11,0.000476467,-2.08676,-0.393132,-0.150077,47.9437,-0.0581825,
2,0,0,1,0,1208.67,-0.0678187,-0.0681812,-8.72891,1,-0.00484181,11,0.000595147,-2.05904,-0.314541,-0.187575,63.8808,-0.0681812,
2,0,0,1,0,1208.77,-0.0778066,-0.0781535,-9.39497,1,-0.0057461,11,0.00073425,-2.0271,-0.301603,-0.195621,71.7939,-0.0781535,
2,0,0,1,0,1208.87,-0.0877945,-0.088164,-10.1846,1,-0.00672346,11,0.000897911,-1.99206,-0.286241,-0.20612,81.8967,-0.08816395,
2,0,0,1,0,1208.97,-0.0977825,-0.0981604,-10.9166,1,-0.0077788,11,0.00107158,-1.96191,-0.367623,-0.160491,68.4132,-0.0981604,
2,1,0,1,1,1209.06,-0.0927386,-0.0930902,1.21533,1,-0.00825439,11,-0.000113135,-2.91531,0.00540482,10.9162,692.195,-0.0930902,
2,1,0,1,1,1209.16,-0.0827529,-0.0831131,4.30412,1,-0.00793792,11,-0.000357729,-2.36612,0.0719038,0.820541,136.766,-0.0831131,
2,1,0,1,1,1209.26,-0.0727627,-0.0731451,5.14796,1,-0.00745893,11,-0.000376548,-2.28836,0.227686,0.259129,51.8075,-0.0731451,
2,1,0,1,1,1209.36,-0.0627748,-0.0631265,5.5367,1,-0.00692319,11,-0.000349513,-2.25675,0.423205,0.139412,30.116,-0.0631265,
2,1,0,1,1,1209.46,-0.0527868,-0.0530877,5.7518,1,-0.0063573,11,-0.00030535,-2.2402,1.18696,0.0497068,11.15,-0.05308767,
2,1,0,1,1,1209.56,-0.0427989,-0.04313,5.84993,1,-0.00577639,11,-0.000252307,-2.23285,1.16631,0.0505869,11.5576,-0.04313,
2,1,0,1,1,1209.66,-0.0328109,-0.0330544,5.88921,1,-0.00519014,11,-0.000194665,-2.22994,-33.6039,-0.00175575,-0.402677,-0.0330544,
2,1,0,1,1,1209.76,-0.022823,-0.0231841,5.85508,1,-0.0046036,11,-0.000135745,-2.23247,-3.55056,-0.0166171,-3.79441,-0.0231841,
2,1,0,1,1,1209.86,-0.0128351,-0.0131351,5.78657,1,-0.00402147,11,-7.60071e-05,-2.23758,-1.41616,-0.041662,-9.41662,-0.0131351,
2,1,0,1,1,1209.96,-0.00284713,-0.00317141,5.71159,1,-0.0034463,11,-1.81138e-05,-2.24324,-1.22489,-0.0481677,-10.7291,-0.00317141,
2,1,0,1,1,1209.99,-2.55332e-05,-0.000344411,5.68669,1,-0.00328625,11,-1.95856e-06,-2.24514, , , ,-0.000344411,