File: Figure_codes/Fig_3-5/rawdata_trumpetplot_data/before 10th/20221101_1-115_002_TrumpetPlot_ParaChange_07_CV_C01_7.csv
mode,ox/red,error,control changes,counter inc.,time/s,control/V,Ewe/V,<I>/mA,cycle number,(Q-Qo)/C,I Range,P/W,log(|I|),Tafel slope mV/dec,alpha_eff,dI/d(E-IR),E-IR/V,
2,0,0,0,0,9760.49,2.44065e-05,-0.000287149,-1.2304,8,0.0000000E+000,11,3.53307e-07,-2.90995, , , ,-0.0002871489,
2,1,0,1,0,9760.85,0.00729063,0.00701046,0.813912,8,0.000211755,11,5.70589e-06,-3.08942,0.113639,0.519189,16.4185,0.00701046,
2,1,0,1,0,9761.23,0.0147802,0.0144967,0.903768,8,0.000537831,11,1.31016e-05,-3.04394,0.198579,0.29711,10.4783,0.01449666,
2,1,0,1,0,9761.6,0.0222725,0.0219653,0.969522,8,0.000891744,11,2.12959e-05,-3.01344,0.270127,0.218416,8.24893,0.02196534,
2,1,0,1,0,9761.97,0.0297644,0.0295105,1.03439,8,0.00126937,11,3.05254e-05,-2.98532,0.282571,0.208797,8.41148,0.0295105,
2,1,0,1,0,9762.35,0.0372544,0.0369395,1.10975,8,0.00167324,11,4.09937e-05,-2.95477,0.226018,0.261041,11.3196,0.0369395,
2,1,0,1,0,9762.72,0.0447449,0.0444511,1.20463,8,0.00210916,11,5.3547e-05,-2.91915,0.200789,0.29384,13.8115,0.0444511,
2,1,0,1,0,9763.1,0.0522363,0.0519197,1.3134,8,0.00258363,11,6.81915e-05,-2.8816,0.183244,0.321974,16.5375,0.0519197,
2,1,0,1,0,9763.47,0.0597291,0.0594708,1.43671,8,0.00310203,11,8.54423e-05,-2.84263,0.193746,0.304522,17.0321,0.05947081,
2,1,0,1,0,9763.85,0.0672182,0.0668961,1.55682,8,0.00366521,11,0.000104145,-2.80776,0.227062,0.259841,15.7371,0.0668961,
2,1,0,1,0,9764.22,0.0747092,0.0744054,1.66391,8,0.00427123,11,0.000123804,-2.77887,0.299035,0.197301,12.8079,0.0744054,
2,1,0,1,0,9764.6,0.0822001,0.0818815,1.75795,8,0.00491593,11,0.000143943,-2.75499,0.337581,0.174773,12.0036,0.0818815,
2,1,0,1,0,9764.97,0.0896911,0.0893775,1.85023,8,0.00559517,11,0.000165369,-2.73278,0.331046,0.178223,12.8922,0.0893775,
2,1,0,1,0,9765.35,0.097182,0.0969106,1.95996,8,0.00631204,11,0.000189941,-2.70775,0.234769,0.251311,19.2586,0.0969106,
2,1,0,1,0,9765.72,0.104673,0.104428,2.12776,8,0.00707819,11,0.000222198,-2.67208,0.187262,0.315067,26.1191,0.104428,
2,1,0,1,0,9766.09,0.112164,0.111844,2.34482,8,0.00791669,11,0.000262253,-2.62989,0.173011,0.341019,31.1676,0.111844,
2,1,0,1,0,9766.47,0.119655,0.119329,2.58539,8,0.00884312,11,0.000308511,-2.58747,0.210319,0.280526,28.2943,0.119329,
2,1,0,1,0,9766.84,0.127146,0.126858,2.7906,8,0.00985507,11,0.000354009,-2.5543,0.250278,0.235737,25.721,0.1268577,
2,1,0,1,0,9767.22,0.134637,0.134323,2.96592,8,0.0109393,11,0.000398392,-2.52784,0.398347,0.148112,17.1575,0.134323,
2,1,0,1,0,9767.59,0.142128,0.141853,3.02634,8,0.0120709,11,0.000429297,-2.51908,-2.84822,-0.0207147,-2.4408,0.141853,
2,1,0,1,0,9767.97,0.149619,0.149352,2.82454,8,0.0131807,11,0.00042185,-2.54905,-0.127005,-0.464547,-50.9696,0.149352,
2,1,0,1,0,9768.34,0.157108,0.156833,2.31993,8,0.0141524,11,0.000363842,-2.63453,-0.0703636,-0.838502,-75.7568,0.156833,
2,1,0,1,0,9768.72,0.164601,0.164305,1.81801,8,0.0149247,11,0.000298708,-2.7404,-0.0738171,-0.799273,-56.7635,0.164305,
2,1,0,1,0,9769.09,0.172092,0.171785,1.48311,8,0.0155408,11,0.000254776,-2.82883,-0.102247,-0.577036,-33.5555,0.171785,
2,1,0,1,0,9769.47,0.179582,0.179322,1.2913,8,0.0160607,11,0.000231559,-2.88897,-0.158486,-0.372273,-18.8561,0.179322,
2,1,0,1,0,9769.84,0.187073,0.186821,1.18341,8,0.0165248,11,0.000221086,-2.92686,-0.261083,-0.225981,-10.4069,0.1868207,
2,1,0,1,0,9770.21,0.194564,0.194297,1.11146,8,0.0169559,11,0.000215952,-2.95411,-0.355263,-0.166074,-7.19643,0.194297,
2,1,0,1,0,9770.59,0.202057,0.201755,1.06334,8,0.0173654,11,0.000214533,-2.97333,-0.383252,-0.153946,-6.37381,0.201755,
2,1,0,1,0,9770.96,0.209546,0.209228,1.02923,8,0.0177603,11,0.000215344,-2.98749,-0.469331,-0.125711,-5.06498,0.209228,
2,1,0,1,0,9771.34,0.217037,0.216738,1.00185,8,0.0181438,11,0.00021714,-2.9992,-0.836521,-0.0705302,-2.77045,0.216738,
2,1,0,1,0,9771.71,0.224528,0.22427,0.983059,8,0.0185193,11,0.00022047,-3.00742,-0.841297,-0.0701298,-2.6933,0.22427,
2,1,0,1,0,9772.09,0.232019,0.231725,0.967272,8,0.0188877,11,0.000224141,-3.01445,-0.920428,-0.0641006,-2.4214,0.231725,
2,1,0,1,0,9772.46,0.23951,0.239215,0.953503,8,0.0192504,11,0.000228093,-3.02068,-1.52021,-0.0388104,-1.4446,0.239215,
2,1,0,1,0,9772.84,0.247001,0.24673,0.943329,8,0.0196081,11,0.000232748,-3.02534,-0.997904,-0.0591239,-2.16996,0.24673,
2,1,0,1,0,9773.21,0.254492,0.254205,0.92752,8,0.0199613,11,0.00023578,-3.03268,-1.44868,-0.0407268,-1.47746,0.254205,
2,1,0,1,0,9773.59,0.261983,0.261678,0.918405,8,0.0203103,11,0.000240326,-3.03697,-2.12917,-0.0277103,-0.994507,0.261678,
2,1,0,1,0,9773.96,0.269474,0.269197,0.910902,8,0.0206556,11,0.000245212,-3.04053,-23.966,-0.00246182,-0.0874248,0.269197,
2,1,0,1,0,9774.33,0.276965,0.276653,0.901086,8,0.0209974,11,0.000249288,-3.04523,-1.69248,-0.0348602,-1.22339,0.276653,
2,1,0,1,0,9774.71,0.284456,0.284161,0.891627,8,0.0213357,11,0.000253365,-3.04982,-1.71568,-0.0343888,-1.19374,0.284161,
2,1,0,1,0,9775.08,0.291947,0.291678,0.879581,8,0.0216705,11,0.000256554,-3.05572,-1.11345,-0.0529885,-1.82279,0.291678,
2,1,0,1,0,9775.46,0.299436,0.299189,0.868424,8,0.0220018,11,0.000259823,-3.06127,-0.00108113,-54.5724,-498.046,0.299189,
2,0,0,1,0,9775.8,0.293745,0.293396,-0.271322,8,0.0219774,11,-7.96048e-05,-3.56652,-0.0376529,-1.56694,16.2585,0.293396,
2,0,0,1,0,9776.17,0.286254,0.285948,-0.360601,8,0.0218542,11,-0.000103113,-3.44297,-0.0920336,-0.64107,9.04448,0.285948,
2,0,0,1,0,9776.55,0.278763,0.278428,-0.420829,8,0.0217045,11,-0.000117171,-3.37589,-0.152692,-0.386398,6.32448,0.278428,
2,0,0,1,0,9776.92,0.271272,0.270932,-0.465196,8,0.0215359,11,-0.000126037,-3.33236,-0.188465,-0.313056,5.64297,0.270932,
2,0,0,1,0,9777.3,0.263781,0.263474,-0.500462,8,0.0213519,11,-0.000131859,-3.30063,-0.214628,-0.274894,5.37565,0.263474,
2,0,0,1,0,9777.67,0.25629,0.255969,-0.536846,8,0.0211545,11,-0.000137416,-3.27015,-0.352923,-0.167175,3.4789,0.2559686,
2,0,0,1,0,9778.05,0.248799,0.248452,-0.566487,8,0.0209452,11,-0.000140745,-3.24681,-0.31849,-0.185249,4.09238,0.248452,
2,0,0,1,0,9778.42,0.241308,0.241012,-0.593837,8,0.0207248,11,-0.000143122,-3.22633,-0.373881,-0.157804,3.67157,0.241012,
2,0,0,1,0,9778.8,0.233817,0.233499,-0.624397,8,0.0204934,11,-0.000145796,-3.20454,-0.316967,-0.186139,4.53523,0.233499,
2,0,0,1,0,9779.17,0.226326,0.226028,-0.65451,8,0.0202513,11,-0.000147938,-3.18408,-0.414817,-0.142231,3.63411,0.226028,
2,0,0,1,0,9779.55,0.218835,0.218482,-0.683435,8,0.0199979,11,-0.000149318,-3.1653,-0.337201,-0.17497,4.66755,0.218482,
2,0,0,1,0,9779.92,0.211344,0.211011,-0.716706,8,0.0197328,11,-0.000151233,-3.14466,-0.382493,-0.154251,4.30626,0.211011,
2,0,0,1,0,9780.29,0.203855,0.203505,-0.752672,8,0.0194545,11,-0.000153172,-3.12339,-0.309029,-0.190921,5.63683,0.203505,
2,0,0,1,0,9780.67,0.196362,0.196074,-0.796505,8,0.0191617,11,-0.000156174,-3.09881,-0.301094,-0.195952,6.08957,0.196074,
2,0,0,1,0,9781.04,0.188871,0.188557,-0.849805,8,0.0188501,11,-0.000160237,-3.07068,-0.211652,-0.278759,9.25168,0.188557,
2,0,0,1,0,9781.42,0.18138,0.181111,-0.926405,8,0.018515,11,-0.000167782,-3.0332,-0.189892,-0.310702,11.2342,0.181111,
2,0,0,1,0,9781.79,0.173891,0.173591,-1.03218,8,0.0181472,11,-0.000179177,-2.98625,-0.140896,-0.418748,16.8727,0.173591,
2,0,0,1,0,9782.17,0.166398,0.166081,-1.18834,8,0.0177308,11,-0.000197362,-2.92506,-0.11353,-0.519688,24.1932,0.166081,
2,0,0,1,0,9782.54,0.158906,0.158577,-1.43589,8,0.0172391,11,-0.0002277,-2.84288,-0.0787605,-0.749107,42.2046,0.158577,
2,0,0,1,0,9782.92,0.151417,0.151091,-1.83005,8,0.0166279,11,-0.000276503,-2.73754,-0.0683863,-0.862746,61.8473,0.151091,
2,0,0,1,0,9783.29,0.143926,0.143605,-2.33522,8,0.0158462,11,-0.000335349,-2.63167,-0.0747808,-0.788972,71.684,0.143605,
2,0,0,1,0,9783.67,0.136435,0.136117,-2.79367,8,0.0148783,11,-0.000380266,-2.55383,-0.125211,-0.471205,51.1151,0.136117,
2,0,0,1,0,9784.04,0.128942,0.128637,-3.05315,8,0.0137732,11,-0.000392746,-2.51525,-0.391492,-0.150706,17.8862,0.1286366,
2,0,0,1,0,9784.41,0.121453,0.121139,-3.08067,8,0.0126159,11,-0.000373188,-2.51135,0.692368,0.0852148,-10.2249,0.121139,
2,0,0,1,0,9784.79,0.113962,0.113628,-2.94013,8,0.011481,11,-0.000334082,-2.53163,0.253569,0.232679,-26.7121,0.113628,
2,0,0,1,0,9785.16,0.106471,0.106179,-2.71691,8,0.0104159,11,-0.000288479,-2.56592,0.200549,0.294192,-31.2628,0.106179,
2,0,0,1,0,9785.54,0.0989799,0.098689,-2.48972,8,0.00943827,11,-0.000245708,-2.60385,0.217295,0.27152,-26.3566,0.098689,
2,0,0,1,0,9785.91,0.0914889,0.091178,-2.31517,8,0.00853901,11,-0.000211093,-2.63542,0.29068,0.202972,-18.3093,0.091178,
2,0,0,1,0,9786.29,0.083998,0.0836586,-2.18789,8,0.00769534,11,-0.000183036,-2.65997,0.317021,0.186108,-15.8793,0.0836586,
2,0,0,1,0,9786.66,0.076507,0.0761723,-2.09975,8,0.00688988,11,-0.000159943,-2.67783,0.388274,0.151954,-12.4462,0.0761723,
2,0,0,1,0,9787.04,0.0690161,0.0686794,-2.01187,8,0.00611681,11,-0.000138174,-2.6964,0.38059,0.155022,-12.1942,0.0686794,
2,0,0,1,0,9787.41,0.0615251,0.0612167,-1.91642,8,0.00537645,11,-0.000117317,-2.71751,0.335843,0.175678,-13.1701,0.06121666,
2,0,0,1,0,9787.79,0.0540342,0.0536895,-1.81205,8,0.00467474,11,-9.7288e-05,-2.74183,0.300464,0.196363,-13.8424,0.0536895,
2,0,0,1,0,9788.16,0.0465432,0.0462076,-1.69259,8,0.00401576,11,-7.82105e-05,-2.77145,0.280177,0.210581,-13.9294,0.0462076,
2,0,0,1,0,9788.53,0.0390523,0.0387095,-1.59238,8,0.00339875,11,-6.16404e-05,-2.79795,0.27061,0.218026,-13.5207,0.0387095,
2,0,0,1,0,9788.91,0.0315626,0.0312519,-1.5133,8,0.00281568,11,-4.72935e-05,-2.82008,0.399746,0.147594,-8.72129,0.0312519,
2,0,0,1,0,9789.28,0.0240704,0.0237353,-1.46148,8,0.00225584,11,-3.46885e-05,-2.83521,0.789317,0.0747481,-4.2807,0.0237353,
2,0,0,1,0,9789.66,0.0165785,0.0162434,-1.44412,8,0.00170874,11,-2.34575e-05,-2.8404,12.0184,0.00490915,-0.277077,0.0162434,
2,0,0,1,0,9790.03,0.00908846,0.00876674,-1.44289,8,0.00116552,11,-1.26494e-05,-2.84077,-3.3322,-0.017706,0.997361,0.00876674,
2,0,0,1,0,9790.41,0.0015984,0.00120499,-1.48328,8,0.000618122,11,-1.78733e-06,-2.82878, , , ,0.00120499,
2,0,0,1,0,9790.48,0.000199195,-0.00021434,-1.46425,8,0.000514464,11,3.13848e-07,-2.83438, , , ,-0.00021434,