File: Figure_codes/Fig_3-5/rawdata_trumpetplot_data/before 10th/20221101_1-115_002_TrumpetPlot_ParaChange_09_CV_C01_6.csv
mode,ox/red,error,control changes,counter inc.,time/s,control/V,Ewe/V,<I>/mA,cycle number,(Q-Qo)/C,I Range,P/W,log(|I|),Tafel slope mV/dec,alpha_eff,dI/d(E-IR),E-IR/V,
2,0,0,1,0,8574.06,2.44065e-05,-0.000191712,-4.50867,7,0.0000000E+000,11,8.64368e-07,-2.34595, , , ,-0.000191712,
2,1,0,1,0,8574.18,0.007288,0.00697306,2.04914,7,5.45221e-05,11,1.42888e-05,-2.68843,0.0338068,1.74521,132.645,0.00697306,
2,1,0,1,0,8574.31,0.0147816,0.0145117,2.43693,7,0.000341467,11,3.5364e-05,-2.61316,0.173394,0.340265,32.4081,0.0145117,
2,1,0,1,0,8574.43,0.0222712,0.0219369,2.61899,7,0.000658675,11,5.74526e-05,-2.58187,0.278037,0.212202,21.7364,0.0219369,
2,1,0,1,0,8574.56,0.0297648,0.0295159,2.79278,7,0.000996902,11,8.24315e-05,-2.55396,0.311495,0.189409,20.581,0.0295159,
2,1,0,1,0,8574.68,0.0372518,0.0369276,2.98075,7,0.00135667,11,0.000110072,-2.52567,0.249464,0.236507,27.4591,0.0369276,
2,1,0,1,0,8574.81,0.0447467,0.0444509,3.20343,7,0.00174288,11,0.000142395,-2.49438,0.2091,0.282161,35.3444,0.0444509,
2,1,0,1,0,8574.93,0.052235,0.0519644,3.48099,7,0.00216053,11,0.000180887,-2.4583,0.19396,0.304186,41.4151,0.05196438,
2,1,0,1,0,8575.05,0.0597299,0.0594451,3.80532,7,0.00261612,11,0.000226207,-2.41961,0.202406,0.291493,43.2487,0.0594451,
2,1,0,1,0,8575.18,0.0672156,0.0669612,4.15011,7,0.00311221,11,0.000277897,-2.38194,0.207082,0.284911,45.9721,0.0669612,
2,1,0,1,0,8575.3,0.0747105,0.0744461,4.46398,7,0.00365019,11,0.000332326,-2.35028,0.239994,0.245839,42.8049,0.0744461,
2,1,0,1,0,8575.43,0.0821988,0.0819126,4.74928,7,0.00422649,11,0.000389026,-2.32337,0.312501,0.188799,35.063,0.0819126,
2,1,0,1,0,8575.55,0.0896937,0.0893818,5.02805,7,0.00483808,11,0.000449416,-2.2986,0.340991,0.173025,33.9426,0.0893818,
2,1,0,1,0,8575.68,0.0971794,0.0969025,5.30052,7,0.00548326,11,0.000513633,-2.27568,0.299755,0.196827,40.7397,0.0969025,
2,1,0,1,0,8575.8,0.104674,0.104385,5.65278,7,0.00616679,11,0.000590063,-2.24774,0.22676,0.260187,57.4701,0.1043846,
2,1,0,1,0,8575.93,0.112163,0.111899,6.13231,7,0.00690147,11,0.0006862,-2.21238,0.190975,0.308941,74.0499,0.111899,
2,1,0,1,0,8576.05,0.119657,0.119347,6.7646,7,0.00770642,11,0.000807333,-2.16976,0.189107,0.311993,82.2982,0.119347,
2,1,0,1,0,8576.18,0.127143,0.126867,7.40066,7,0.00859081,11,0.0009389,-2.13073,0.212536,0.2776,80.0553,0.126867,
2,1,0,1,0,8576.3,0.134638,0.134334,7.96272,7,0.0095521,11,0.00106966,-2.09894,0.267997,0.220151,68.4418,0.134334,
2,1,0,1,0,8576.43,0.142126,0.141839,8.38289,7,0.0105753,11,0.00118902,-2.07661,0.416894,0.141523,46.3071,0.141839,
2,1,0,1,0,8576.55,0.149621,0.149326,8.50917,7,0.0116365,11,0.00127064,-2.07011,-0.864014,-0.068286,-22.6084,0.149326,
2,1,0,1,0,8576.68,0.157107,0.156801,7.94017,7,0.0126724,11,0.00124503,-2.10017,-0.127313,-0.463423,-142.758,0.156801,
2,1,0,1,0,8576.8,0.164602,0.164289,6.49136,7,0.0135801,11,0.00106646,-2.18766,-0.0670608,-0.879799,-222.413,0.164289,
2,1,0,1,0,8576.93,0.17209,0.171774,4.98211,7,0.0142918,11,0.000855799,-2.30259,-0.0720683,-0.818668,-160.33,0.171774,
2,1,0,1,0,8577.05,0.179585,0.179282,4.09429,7,0.0148544,11,0.000734033,-2.38782,-0.10336,-0.57082,-91.564,0.179282,
2,1,0,1,0,8577.18,0.187072,0.186798,3.58152,7,0.0153311,11,0.000669019,-2.44593,-0.153361,-0.384713,-53.6571,0.186798,
2,1,0,1,0,8577.3,0.194566,0.194276,3.248,7,0.0157558,11,0.000631008,-2.48838,-0.22873,-0.257946,-32.6851,0.1942758,
2,1,0,1,0,8577.43,0.202055,0.201764,3.02138,7,0.0161464,11,0.000609605,-2.51979,-0.295462,-0.199687,-23.5864,0.2017637,
2,1,0,1,0,8577.55,0.209549,0.209285,2.8837,7,0.0165155,11,0.000603513,-2.54005,-0.291923,-0.202108,-22.7666,0.209285,
2,1,0,1,0,8577.68,0.217036,0.216713,2.77761,7,0.0168688,11,0.000601944,-2.55633,-0.532994,-0.110695,-12.0195,0.216713,
2,1,0,1,0,8577.8,0.224529,0.224276,2.70464,7,0.0172119,11,0.000606585,-2.56789,-0.803642,-0.0734157,-7.7556,0.224276,
2,1,0,1,0,8577.93,0.232019,0.231725,2.64734,7,0.0175464,11,0.000613455,-2.57719,-1.43297,-0.0411733,-4.25807,0.231725,
2,1,0,1,0,8578.05,0.239513,0.239258,2.60189,7,0.0178749,11,0.000622524,-2.58471,-0.732838,-0.0805089,-8.18121,0.239258,
2,1,0,1,0,8578.18,0.247001,0.246768,2.57131,7,0.0181977,11,0.000634516,-2.58985,-0.827234,-0.071322,-7.11315,0.246768,
2,1,0,1,0,8578.3,0.254493,0.254236,2.52553,7,0.0185159,11,0.000642082,-2.59765,-2.02817,-0.0290903,-2.86729,0.254236,
2,1,0,1,0,8578.43,0.261983,0.261702,2.48491,7,0.0188296,11,0.000650306,-2.60469,-1.91851,-0.0307531,-2.9975,0.261702,
2,1,0,1,0,8578.55,0.269477,0.269162,2.46045,7,0.0191395,11,0.000662258,-2.60899,-1.34033,-0.0440189,-4.23186,0.269162,
2,1,0,1,0,8578.68,0.276965,0.276691,2.43576,7,0.0194455,11,0.000673952,-2.61337,-1.71371,-0.0344283,-3.26531,0.276691,
2,1,0,1,0,8578.8,0.284457,0.284198,2.41099,7,0.0197481,11,0.000685198,-2.6178,-3.18113,-0.0185469,-1.73892,0.284198,
2,1,0,1,0,8578.93,0.291947,0.29167,2.36962,7,0.0200469,11,0.000691146,-2.62532,-1.83059,-0.0322301,-2.99257,0.29167,
2,1,0,1,0,8579.05,0.29944,0.299155,2.34427,7,0.0203425,11,0.000701301,-2.62999,-0.00370046,-15.944,-887.571,0.299155,
2,0,0,1,0,8579.16,0.293742,0.293426,-0.826881,7,0.0203406,11,-0.000242628,-3.08256,-0.0363937,-1.62116,50.0094,0.293426,
2,0,0,1,0,8579.29,0.286254,0.285955,-1.07093,7,0.0202206,11,-0.000306237,-2.97024,-0.0895599,-0.658777,27.3694,0.285955,
2,0,0,1,0,8579.41,0.278761,0.278452,-1.22353,7,0.020076,11,-0.000340693,-2.91239,-0.141132,-0.41805,20.072,0.278452,
2,0,0,1,0,8579.54,0.271272,0.270972,-1.3453,7,0.0199146,11,-0.000364538,-2.87118,-0.189713,-0.310996,16.3741,0.270972,
2,0,0,1,0,8579.66,0.263778,0.263492,-1.45296,7,0.0197391,11,-0.000382844,-2.83775,-0.300307,-0.196466,11.0884,0.263492,
2,0,0,1,0,8579.79,0.25629,0.255993,-1.54489,7,0.0195522,11,-0.00039548,-2.8111,-0.312001,-0.189102,11.3125,0.255993,
2,0,0,1,0,8579.91,0.248797,0.24845,-1.61228,7,0.0193546,11,-0.000400571,-2.79256,-0.316634,-0.186335,11.7844,0.24845,
2,0,0,1,0,8580.04,0.241308,0.24102,-1.6818,7,0.0191476,11,-0.000405347,-2.77423,-0.413149,-0.142806,9.45256,0.24102,
2,0,0,1,0,8580.16,0.233814,0.233495,-1.76761,7,0.0189312,11,-0.000412728,-2.75261,-0.471291,-0.125188,8.63497,0.233495,
2,0,0,1,0,8580.29,0.226326,0.226062,-1.84779,7,0.0187055,11,-0.000417714,-2.73335,-0.357036,-0.165249,11.8535,0.226062,
2,0,0,1,0,8580.41,0.218834,0.218524,-1.92272,7,0.0184701,11,-0.00042016,-2.71608,-0.31197,-0.189121,14.1914,0.218524,
2,0,0,1,0,8580.54,0.211344,0.21103,-2.00224,7,0.0182248,11,-0.000422533,-2.69848,-0.471743,-0.125068,9.79901,0.2110298,
2,0,0,1,0,8580.66,0.203856,0.20352,-2.10365,7,0.0179679,11,-0.000428135,-2.67703,-0.461424,-0.127865,10.5194,0.20352,
2,0,0,1,0,8580.79,0.196362,0.196042,-2.22289,7,0.017698,11,-0.000435779,-2.65308,-0.281678,-0.209459,18.1238,0.196042,
2,0,0,1,0,8580.91,0.18887,0.188555,-2.35924,7,0.0174118,11,-0.000444847,-2.62723,-0.207864,-0.28384,26.2248,0.188555,
2,0,0,1,0,8581.04,0.18138,0.181067,-2.55353,7,0.017105,11,-0.000462358,-2.59286,-0.193082,-0.305569,30.5453,0.181067,
2,0,0,1,0,8581.16,0.173892,0.173598,-2.83294,7,0.0167693,11,-0.000491794,-2.54776,-0.148903,-0.39623,43.779,0.173598,
2,0,0,1,0,8581.29,0.166398,0.16609,-3.23875,7,0.0163919,11,-0.000537924,-2.48962,-0.117879,-0.500513,63.1574,0.16609,
2,0,0,1,0,8581.41,0.158905,0.158588,-3.83888,7,0.0159526,11,-0.000608799,-2.4158,-0.0879421,-0.670896,100.708,0.158588,
2,0,0,1,0,8581.54,0.151417,0.151085,-4.73183,7,0.0154199,11,-0.000714906,-2.32497,-0.0788229,-0.748514,138.69,0.151085,
2,0,0,1,0,8581.66,0.143927,0.143652,-5.89665,7,0.0147575,11,-0.000847066,-2.22939,-0.0824722,-0.715392,164.329,0.143652,
2,0,0,1,0,8581.79,0.136435,0.136118,-7.09434,7,0.013945,11,-0.000965664,-2.14909,-0.108824,-0.542162,149.704,0.136118,
2,0,0,1,0,8581.91,0.128941,0.12864,-8.028,7,0.0129967,11,-0.00103273,-2.09539,-0.182555,-0.323191,100.986,0.12864,
2,0,0,1,0,8582.04,0.121453,0.121198,-8.53828,7,0.0119577,11,-0.00103482,-2.06863,-0.573389,-0.102897,34.2283,0.1211982,
2,0,0,1,0,8582.16,0.113963,0.113671,-8.57751,7,0.0108843,11,-0.000975018,-2.06664,0.697357,0.0846052,-28.279,0.113671,
2,0,0,1,0,8582.28,0.106471,0.10617,-8.20353,7,0.00983205,11,-0.000870965,-2.086,0.259442,0.227411,-72.7025,0.10617,
2,0,0,1,0,8582.41,0.0989825,0.0986685,-7.54681,7,0.00884699,11,-0.000744633,-2.12224,0.190725,0.309346,-91.0846,0.0986685,
2,0,0,1,0,8582.53,0.0914889,0.0911429,-6.87328,7,0.0079475,11,-0.000626451,-2.16284,0.207334,0.284564,-76.456,0.0911429,
2,0,0,1,0,8582.66,0.0839993,0.0836888,-6.38291,7,0.00712192,11,-0.000534178,-2.19498,0.260369,0.226602,-56.4726,0.0836888,
2,0,0,1,0,8582.78,0.076507,0.0761972,-6.06097,7,0.00634606,11,-0.000461829,-2.21746,0.367868,0.160383,-37.8842,0.0761972,
2,0,0,1,0,8582.91,0.0690187,0.0686773,-5.79255,7,0.00560626,11,-0.000397817,-2.23713,0.417191,0.141422,-32.0122,0.0686773,
2,0,0,1,0,8583.03,0.0615251,0.0612137,-5.53621,7,0.00489693,11,-0.000338892,-2.25679,0.357179,0.165183,-35.7896,0.0612137,
2,0,0,1,0,8583.16,0.0540355,0.053714,-5.24824,7,0.00422239,11,-0.000281904,-2.27999,0.278266,0.212028,-43.416,0.053714,
2,0,0,1,0,8583.28,0.0465432,0.0462354,-4.90809,7,0.00358747,11,-0.000226927,-2.30909,0.239857,0.24598,-47.0345,0.0462354,
2,0,0,1,0,8583.41,0.0390549,0.0387123,-4.56084,7,0.00299724,11,-0.00017656,-2.34096,0.245345,0.240478,-42.7265,0.0387123,
2,0,0,1,0,8583.53,0.0315613,0.0312577,-4.27286,7,0.00244631,11,-0.00013356,-2.36928,0.308441,0.191285,-31.957,0.0312577,
2,0,0,1,0,8583.66,0.0240717,0.0237464,-4.08069,7,0.00192493,11,-9.69016e-05,-2.38927,0.446849,0.132036,-21.0936,0.02374636,
2,0,0,1,0,8583.78,0.0165781,0.0162342,-3.99369,7,0.00142089,11,-6.48343e-05,-2.39863,1.13519,0.0519735,-8.09254,0.01623418,
2,0,0,1,0,8583.91,0.00909108,0.00877079,-3.9518,7,0.000925469,11,-3.46604e-05,-2.40321,-3.82916,-0.0154081,2.3776,0.00877079,
2,0,0,1,0,8584.03,0.00159616,0.00123674,-4.01012,7,0.000430259,11,-4.95948e-06,-2.39684, , , ,0.00123674,
2,0,0,0,0,8584.06,0.000199195,-0.000161173,-3.99119,7,0.000336863,11,6.43271e-07,-2.3989, , , ,-0.0001611726,