File: Figure_codes/Fig_3-5/rawdata_trumpetplot_data/before 10th/20221101_1-115_002_TrumpetPlot_ParaChange_10_CV_C01_5.csv
mode,ox/red,error,control changes,counter inc.,time/s,control/V,Ewe/V,<I>/mA,cycle number,(Q-Qo)/C,I Range,P/W,log(|I|),Tafel slope mV/dec,alpha_eff,dI/d(E-IR),E-IR/V,
2,0,0,0,0,7352.53,2.44065e-05,0.000190034,-5.84459,6,0.0000000E+000,11,-1.11067e-06,-2.23325, , , ,0.000190034,
2,1,0,1,0,7352.62,0.0072942,0.00695035,2.60678,6,1.13848e-05,11,1.81181e-05,-2.5839,0.0225217,2.61969,247.568,0.00695035,
2,1,0,1,0,7352.72,0.0147816,0.0144933,3.30243,6,0.000298404,11,4.7863e-05,-2.48117,0.186922,0.31564,40.6191,0.0144933,
2,1,0,1,0,7352.81,0.0222707,0.0219765,3.50648,6,0.000618344,11,7.70602e-05,-2.45513,0.415858,0.141876,19.4147,0.0219765,
2,1,0,1,0,7352.9,0.0297581,0.0294761,3.68949,6,0.000954924,11,0.000108752,-2.43303,0.352808,0.16723,24.0266,0.0294761,
2,1,0,1,0,7353,0.0372544,0.0369575,3.88681,6,0.00130961,11,0.000143647,-2.41041,0.295536,0.199637,30.3236,0.0369575,
2,1,0,1,0,7353.09,0.0447507,0.0444726,4.14925,6,0.00168626,11,0.000184528,-2.38203,0.25768,0.228966,37.1582,0.0444726,
2,1,0,1,0,7353.18,0.0522381,0.0519538,4.48931,6,0.00209028,11,0.000233237,-2.34782,0.206066,0.286316,50.1296,0.0519538,
2,1,0,1,0,7353.28,0.0597273,0.0594865,4.87936,6,0.00252845,11,0.000290256,-2.31164,0.189196,0.311846,59.3771,0.05948649,
2,1,0,1,0,7353.37,0.0672147,0.0669438,5.31603,6,0.00300577,11,0.000355876,-2.27441,0.211592,0.278839,57.8341,0.0669438,
2,1,0,1,0,7353.47,0.0747038,0.0744182,5.76929,6,0.00352442,11,0.000429341,-2.23888,0.235467,0.250566,56.2723,0.0744182,
2,1,0,1,0,7353.56,0.0822055,0.0819223,6.17127,6,0.00408464,11,0.000505565,-2.20963,0.260958,0.22609,54.4373,0.08192227,
2,1,0,1,0,7353.65,0.0896946,0.0894123,6.54311,6,0.00468076,11,0.000585035,-2.18422,0.325269,0.181388,46.3861,0.0894123,
2,1,0,1,0,7353.75,0.097182,0.0969072,6.9289,6,0.00531158,11,0.00067146,-2.15934,0.308068,0.191516,51.7656,0.0969072,
2,1,0,1,0,7353.84,0.104671,0.10441,7.34712,6,0.00597924,11,0.000767114,-2.13388,0.235788,0.250224,71.8899,0.10441,
2,1,0,1,0,7353.93,0.112159,0.111854,7.93899,6,0.0066942,11,0.000888005,-2.10023,0.202222,0.291759,90.5155,0.111854,
2,1,0,1,0,7354.03,0.119655,0.119333,8.74137,6,0.00747444,11,0.00104313,-2.05842,0.179682,0.328359,111.944,0.119333,
2,1,0,1,0,7354.12,0.127149,0.126835,9.62252,6,0.00833462,11,0.00122047,-2.01671,0.183743,0.3211,120.612,0.126835,
2,1,0,1,0,7354.21,0.134639,0.134308,10.4808,6,0.00927724,11,0.00140766,-1.9796,0.228864,0.257794,105.502,0.134308,
2,1,0,1,0,7354.31,0.142126,0.141777,11.1959,6,0.0102942,11,0.00158733,-1.95094,0.319554,0.184632,80.6244,0.141777,
2,1,0,1,0,7354.4,0.149615,0.149309,11.6012,6,0.011365,11,0.00173216,-1.9355,1.31483,0.0448728,20.2612,0.149309,
2,1,0,1,0,7354.5,0.157103,0.15684,11.2845,6,0.0124436,11,0.00176986,-1.94752,-0.23011,-0.256399,-112.419,0.15684,
2,1,0,1,0,7354.59,0.164606,0.164328,9.77831,6,0.0134416,11,0.00160685,-2.00974,-0.0780164,-0.756251,-287.183,0.164328,
2,1,0,1,0,7354.68,0.172095,0.171802,7.48488,6,0.0142499,11,0.00128592,-2.12581,-0.0596445,-0.989194,-289.393,0.171802,
2,1,0,1,0,7354.78,0.179582,0.179301,5.76402,6,0.0148626,11,0.0010335,-2.23927,-0.0816703,-0.722417,-163.626,0.179301,
2,1,0,1,0,7354.87,0.18707,0.186797,4.88835,6,0.0153575,11,0.000913127,-2.31084,-0.128252,-0.460033,-87.9586,0.186797,
2,1,0,1,0,7354.96,0.194559,0.194295,4.39399,6,0.0157897,11,0.000853731,-2.35714,-0.190265,-0.310093,-53.1005,0.194295,
2,1,0,1,0,7355.06,0.202062,0.201787,4.04347,6,0.0161839,11,0.000815919,-2.39325,-0.256055,-0.23042,-36.3443,0.201787,
2,1,0,1,0,7355.15,0.20955,0.209275,3.81331,6,0.0165512,11,0.000798031,-2.4187,-0.28033,-0.210466,-31.3571,0.209275,
2,1,0,1,0,7355.24,0.217039,0.216762,3.65041,6,0.0169001,11,0.00079127,-2.43766,-0.456793,-0.129161,-18.4185,0.216762,
2,1,0,1,0,7355.34,0.224526,0.224232,3.53451,6,0.0172363,11,0.000792549,-2.45167,-0.678558,-0.086949,-11.9947,0.224232,
2,1,0,1,0,7355.43,0.232016,0.231762,3.44687,6,0.0175631,11,0.000798853,-2.46258,-0.817503,-0.072171,-9.70647,0.2317618,
2,1,0,1,0,7355.53,0.23951,0.239247,3.387,6,0.0178831,11,0.000810331,-2.47018,-0.822183,-0.0717602,-9.45899,0.239247,
2,1,0,1,0,7355.62,0.247006,0.246728,3.33006,6,0.0181973,11,0.000821618,-2.47755,-1.41366,-0.0417356,-5.41094,0.246728,
2,1,0,1,0,7355.71,0.254494,0.254209,3.26986,6,0.0185063,11,0.000831228,-2.48547,-1.09709,-0.0537786,-6.87671,0.254209,
2,1,0,1,0,7355.81,0.261983,0.261685,3.2322,6,0.0188109,11,0.00084582,-2.4905,-1.00101,-0.0589406,-7.43524,0.261685,
2,1,0,1,0,7355.9,0.26947,0.269197,3.19423,6,0.0191115,11,0.000859877,-2.49563,-12.8625,-0.00458698,-0.571314,0.269197,
2,1,0,1,0,7355.99,0.276959,0.276681,3.14653,6,0.0194086,11,0.000870585,-2.50217,-2.19831,-0.0268387,-3.30133,0.276681,
2,1,0,1,0,7356.09,0.284461,0.284175,3.11987,6,0.0197027,11,0.00088659,-2.50586,-1.15687,-0.0509997,-6.19716,0.284175,
2,1,0,1,0,7356.18,0.29195,0.291676,3.08323,6,0.0199928,11,0.000899304,-2.51099,-1.53297,-0.0384873,-4.62135,0.291676,
2,1,0,1,0,7356.27,0.299438,0.299167,3.03466,6,0.0202796,11,0.000907869,-2.51789,-0.0200316,-2.94535,-307.67,0.299167,
2,0,0,1,0,7356.35,0.29424,0.29392,-1.18318,6,0.0202852,11,-0.00034776,-2.92695,-0.0274776,-2.1472,92.0127,0.29392,
2,0,0,1,0,7356.45,0.286753,0.286467,-1.48434,6,0.020158,11,-0.000425215,-2.82847,-0.109157,-0.540505,31.4336,0.2864674,
2,0,0,1,0,7356.54,0.279264,0.278968,-1.68287,6,0.0200087,11,-0.000469467,-2.77395,-0.199635,-0.29554,19.4585,0.278968,
2,0,0,1,0,7356.63,0.271776,0.271448,-1.84253,6,0.0198435,11,-0.00050015,-2.73459,-0.211628,-0.278791,19.9882,0.271448,
2,0,0,1,0,7356.73,0.26428,0.263976,-1.96851,6,0.0196652,11,-0.00051964,-2.70586,-0.233436,-0.252746,19.3416,0.263976,
2,0,0,1,0,7356.82,0.256786,0.256503,-2.07064,6,0.0194758,11,-0.000531126,-2.6839,-0.383836,-0.153712,12.4341,0.256503,
2,0,0,1,0,7356.92,0.249296,0.249003,-2.18318,6,0.0192767,11,-0.00054362,-2.66091,-0.477865,-0.123466,10.4918,0.249003,
2,0,0,1,0,7357.01,0.241809,0.241492,-2.2635,6,0.0190682,11,-0.000546618,-2.64522,-0.378663,-0.155811,13.8164,0.241492,
2,0,0,1,0,7357.1,0.23432,0.234009,-2.3655,6,0.0188509,11,-0.000553548,-2.62608,-0.477356,-0.123597,11.4469,0.234009,
2,0,0,1,0,7357.2,0.226833,0.226535,-2.47041,6,0.0186246,11,-0.000559634,-2.60723,-0.373584,-0.15793,15.1858,0.226535,
2,0,0,1,0,7357.29,0.219329,0.219008,-2.57721,6,0.0183884,11,-0.000564429,-2.58885,-0.328823,-0.179428,17.9682,0.219008,
2,0,0,1,0,7357.38,0.21184,0.211537,-2.67749,6,0.0181427,11,-0.000566389,-2.57227,-0.425248,-0.138742,14.5118,0.211537,
2,0,0,1,0,7357.48,0.204353,0.204052,-2.81925,6,0.0178854,11,-0.000575273,-2.54987,-0.533603,-0.110569,12.16,0.204052,
2,0,0,1,0,7357.57,0.196863,0.196568,-2.96583,6,0.0176149,11,-0.000582986,-2.52785,-0.283419,-0.208172,24.1442,0.196568,
2,0,0,1,0,7357.66,0.189376,0.189076,-3.1635,6,0.0173279,11,-0.000598141,-2.49983,-0.240828,-0.244988,30.3629,0.189076,
2,0,0,1,0,7357.76,0.18188,0.181583,-3.44494,6,0.0170188,11,-0.000625542,-2.46282,-0.186945,-0.315601,42.3761,0.181583,
2,0,0,1,0,7357.85,0.174385,0.174097,-3.81878,6,0.0166798,11,-0.00066484,-2.41808,-0.139513,-0.422899,63.0543,0.174097,
2,0,0,1,0,7357.95,0.166896,0.16657,-4.35918,6,0.0162986,11,-0.000726107,-2.3606,-0.111797,-0.52774,89.9072,0.16657,
2,0,0,1,0,7358.04,0.159409,0.159088,-5.18026,6,0.0158544,11,-0.000824118,-2.28565,-0.0956106,-0.617087,124.832,0.159088,
2,0,0,1,0,7358.13,0.151919,0.151611,-6.35088,6,0.0153176,11,-0.000962862,-2.19717,-0.0812362,-0.726277,180.167,0.151611,
2,0,0,1,0,7358.23,0.144425,0.144175,-7.82319,6,0.014655,11,-0.00112791,-2.10662,-0.0849825,-0.694261,212.378,0.144175,
2,0,0,1,0,7358.32,0.136929,0.136655,-9.40172,6,0.0138462,11,-0.0012848,-2.02679,-0.109772,-0.53748,196.836,0.136655,
2,0,0,1,0,7358.41,0.129441,0.129137,-10.6997,6,0.0129026,11,-0.00138173,-1.97063,-0.16222,-0.363704,151.527,0.129137,
2,0,0,1,0,7358.51,0.121952,0.121632,-11.5021,6,0.0118587,11,-0.00139903,-1.93922,-0.403868,-0.146087,65.4378,0.121632,
2,0,0,1,0,7358.6,0.114465,0.114138,-11.6902,6,0.0107682,11,-0.0013343,-1.93218,1.29369,0.0456061,-20.7768,0.114138,
2,0,0,1,0,7358.69,0.106976,0.106657,-11.2719,6,0.00968895,11,-0.00120223,-1.948,0.271552,0.21727,-95.4574,0.106657,
2,0,0,1,0,7358.79,0.0994721,0.0991561,-10.3574,6,0.00867155,11,-0.001027,-1.98475,0.171661,0.343701,-138.967,0.0991561,
2,0,0,1,0,7358.88,0.0919847,0.0916905,-9.31855,6,0.00775118,11,-0.000854423,-2.03065,0.17203,0.342964,-124.942,0.09169054,
2,0,0,1,0,7358.98,0.0844973,0.084225,-8.53789,6,0.00691781,11,-0.000719104,-2.06865,0.232745,0.253496,-84.5124,0.084225,
2,0,0,1,0,7359.07,0.0770082,0.0766954,-8.01916,6,0.00614484,11,-0.000615032,-2.09587,0.334206,0.176538,-55.2626,0.0766954,
2,0,0,1,0,7359.16,0.0695208,0.0691586,-7.63703,6,0.00541224,11,-0.000528167,-2.11708,0.360182,0.163806,-48.8676,0.0691586,
2,0,0,1,0,7359.26,0.0620245,0.0616999,-7.29189,6,0.00471252,11,-0.000449909,-2.13716,0.324671,0.181723,-51.6658,0.0616999,
2,0,0,1,0,7359.35,0.0545282,0.0541945,-6.87447,6,0.00404851,11,-0.000372559,-2.16276,0.294738,0.200178,-53.6822,0.0541945,
2,0,0,1,0,7359.44,0.0470408,0.046728,-6.38554,6,0.00342719,11,-0.000298383,-2.1948,0.220447,0.267638,-66.7336,0.046728,
2,0,0,1,0,7359.54,0.0395517,0.0392539,-5.92931,6,0.00285167,11,-0.000232749,-2.227,0.22762,0.259204,-59.8308,0.0392539,
2,0,0,1,0,7359.63,0.0320643,0.0317383,-5.54142,6,0.00231657,11,-0.000175875,-2.25638,0.323969,0.182116,-39.3881,0.0317383,
2,0,0,1,0,7359.72,0.0245751,0.0242806,-5.2922,6,0.0018101,11,-0.000128498,-2.27636,0.482216,0.122352,-25.3299,0.0242806,
2,0,0,1,0,7359.82,0.0170735,0.0167548,-5.1737,6,0.00131956,11,-8.66841e-05,-2.2862,1.01493,0.0581319,-11.754,0.0167548,
2,0,0,1,0,7359.91,0.00958429,0.00924219,-5.13994,6,0.000837137,11,-4.75043e-05,-2.28904,-2.42127,-0.0243674,4.88688,0.00924219,
2,0,0,1,0,7360.01,0.0020969,0.00172384,-5.22317,6,0.000355192,11,-9.00389e-06,-2.28207,-0.783776,-0.0752766,15.2061,0.00172384,
2,0,0,1,0,7360.03,0.000199195,-0.000187895,-5.20626,6,0.000231474,11,9.7823e-07,-2.28347, , , ,-0.000187895,