File: Figure_codes/Fig_3-5/rawdata_trumpetplot_data/before 10th/20221101_1-115_002_TrumpetPlot_ParaChange_18_CV_C01.mpt
EC-Lab ASCII FILE
Nb header lines : 67

Cyclic Voltammetry

Run on channel : 1 (SN 65296)
User :
CE vs. WE compliance from -10 V to 10 V
Electrode connection : standard
Potential control : Ewe
Ewe ctrl range : min = -1.00 V, max = 1.00 V
Safety Limits :
	Do not start on E overload
Acquisition started on : 11/08/2022 17:30:03.488
Loaded Setting File :  NONE
Saved on :
	File : 20221101_1-115_002_TrumpetPlot_ParaChange_18_CV_C01.mpr
	Directory : C:\Users\NakamuraT\Documents\EC-Lab\Data\Yatsuzuka\20221108_1-115_001_TrumpetPlot\
	Host : 192.109.209.100
Device : SP-50e (SN .003219)
Address : 192.109.209.128
EC-Lab for windows v11.43 (software)
Internet server v11.40 (firmware)
Command interpretor v11.40 (firmware)
Electrode material : Au/Pd
Initial state :
Electrolyte : NaCl (0.2M)
Comments : Fe(CN)63-/Fe(CN)64- 5.10-3 M
Reference electrode : SCE Saturated Calomel Electrode (0.241 V)
Electrode surface area : 0.001 cm2
Characteristic mass : 0.001 g
Equivalent Weight : 0.000 g/eq.
Density : 0.000 g/cm3
Volume (V) : 0.001 cm3
Cycle Definition : Charge/Discharge alternance
Ei (V)              0.000
vs.                 Ref
dE/dt               5.000
dE/dt unit          mV/s
E1 (V)              0.850
vs.                 Ref
Step percent        50
N                   10
E range min (V)     -1.000
E range max (V)     1.000
I Range             100 mA
I Range min         Unset
I Range max         Unset
I Range init        Unset
Bandwidth           5
E2 (V)              0.000
vs.                 Ref
nc cycles           0
Reverse Scan        0
Ef (V)              0.000
vs.                 Eoc

Number of loops : 7
Loop 0 from point number 0 to 3406
Loop 1 from point number 3407 to 6813
Loop 2 from point number 6814 to 10220
Loop 3 from point number 10221 to 13627
Loop 4 from point number 13628 to 17034
Loop 5 from point number 17035 to 20441
Loop 6 from point number 20442 to 23848

mode	ox/red	error	control changes	counter inc.	time/s	control/V	Ewe/V	<I>/mA	cycle number	(Q-Qo)/C	I Range	P/W
2	1	0	1	0	1250.29	2.44065e-05	-0.000363498	0.120037	1	0.0000000E+000	10	-4.36332e-08
2	1	0	1	0	1267.12	0.0841973	0.0839235	0.426794	1	0.0055586	10	3.5818e-05
2	1	0	0	0	1284	0.168596	0.168301	0.585399	1	0.0181645	10	9.85229e-05
2	1	0	0	0	1300.88	0.252994	0.252707	0.279024	1	0.0244341	10	7.05113e-05
2	1	0	0	0	1317.76	0.337392	0.337115	0.257689	1	0.0293666	10	8.68709e-05
2	1	0	0	0	1334.64	0.42179	0.421528	0.246364	1	0.0340155	10	0.000103849
2	1	0	0	0	1351.52	0.506188	0.505896	0.25693	1	0.0386072	10	0.00012998
2	1	0	0	0	1368.4	0.590586	0.59032	0.441232	1	0.0443219	10	0.000260468
2	1	0	0	0	1385.28	0.674984	0.67474	5.05114	1	0.0728824	10	0.0034082
2	1	0	0	0	1402.16	0.759382	0.759116	32.7208	1	0.360722	10	0.0248388
2	1	0	1	0	1419.04	0.84378	0.843579	62.4629	1	1.20485	10	0.0526924
2	1	0	1	0	1435.82	0.772316	0.772082	34.3273	1	2.06377	10	0.0265035
2	1	0	1	0	1452.7	0.687918	0.687696	4.48635	1	2.34985	10	0.00308525
2	1	0	1	0	1469.58	0.60352	0.603258	0.0632145	1	2.3705	10	3.81346e-05
2	0	0	1	0	1486.46	0.519122	0.518832	-0.0879148	1	2.36934	10	-4.5613e-05
2	0	0	1	0	1503.34	0.434724	0.434433	-0.120489	1	2.36719	10	-5.23444e-05
2	0	0	1	0	1520.22	0.350327	0.350067	-0.169649	1	2.36436	10	-5.93886e-05
2	0	0	1	0	1537.1	0.265928	0.26563	-0.226397	1	2.3606	10	-6.01379e-05
2	0	0	0	0	1553.98	0.18153	0.181266	-0.371595	1	2.35558	10	-6.73576e-05
2	0	0	0	0	1570.86	0.0971321	0.0968524	-0.663947	1	2.34234	10	-6.43049e-05
2	0	0	0	0	1587.74	0.0127341	0.0124091	-0.483518	1	2.33292	10	-6.00002e-06
2	1	0	1	0	2496.06	0.070714	0.0704282	0.38871	2	0.00451233	10	2.73762e-05
2	1	0	1	0	2512.94	0.155112	0.154805	0.84751	2	0.0162934	10	0.000131199
2	1	0	1	0	2529.82	0.23951	0.239252	0.284806	2	0.0235645	10	6.81405e-05
2	1	0	1	0	2546.69	0.323908	0.323634	0.260291	2	0.0285517	10	8.42391e-05
2	1	0	1	0	2563.57	0.408307	0.408013	0.245453	2	0.0332353	10	0.000100148
2	1	0	1	0	2580.45	0.492704	0.492448	0.250798	2	0.0378115	10	0.000123505
2	1	0	1	0	2597.33	0.577102	0.576858	0.359001	2	0.0430502	10	0.000207093
2	1	0	1	0	2614.21	0.6615	0.661275	2.79887	2	0.0600352	10	0.00185082
2	1	0	1	0	2631.09	0.745898	0.745629	25.8736	2	0.266368	10	0.0192921
2	1	0	1	0	2647.97	0.830296	0.830046	58.9478	2	1.00656	10	0.0489294
2	1	0	1	0	2664.75	0.7858	0.78556	36.8799	2	1.8877	10	0.0289714
2	1	0	1	0	2681.63	0.701402	0.701181	6.13895	2	2.21935	10	0.00430451
2	1	0	1	0	2698.51	0.617004	0.61673	0.134278	2	2.24977	10	8.28136e-05
2	0	0	1	0	2715.39	0.532606	0.532322	-0.0837067	2	2.24898	10	-4.45589e-05
2	0	0	1	0	2732.27	0.448208	0.447955	-0.11534	2	2.24693	10	-5.16674e-05
2	0	0	1	0	2749.15	0.36381	0.363545	-0.163359	2	2.24423	10	-5.93884e-05
2	0	0	1	0	2766.03	0.279412	0.279158	-0.219055	2	2.24065	10	-6.11508e-05
2	0	0	1	0	2782.91	0.195014	0.194718	-0.311378	2	2.236	10	-6.06311e-05
2	0	0	1	0	2799.79	0.110616	0.110322	-0.780749	2	2.22408	10	-8.61336e-05
2	0	0	1	0	2816.67	0.0262178	0.0258964	-0.477416	2	2.21385	10	-1.23634e-05
2	1	0	1	0	3724.99	0.0572306	0.0569687	0.346676	3	0.00344828	10	1.97497e-05
2	1	0	1	0	3741.87	0.141629	0.141353	0.949467	3	0.0136742	10	0.00013421
2	1	0	1	0	3758.75	0.226026	0.225743	0.297382	3	0.0223837	10	6.71318e-05
2	1	0	1	0	3775.63	0.310424	0.310165	0.265857	3	0.0274376	10	8.24594e-05
2	1	0	1	0	3792.51	0.394822	0.394542	0.250208	3	0.032135	10	9.87176e-05
2	1	0	1	0	3809.39	0.47922	0.478958	0.250226	3	0.0366656	10	0.000119848
2	1	0	1	0	3826.27	0.563618	0.563297	0.313506	3	0.0415701	10	0.000176597
2	1	0	1	0	3843.14	0.648016	0.647754	1.53515	3	0.0525156	10	0.000994398
2	1	0	1	0	3860.02	0.732414	0.732211	18.3022	3	0.184764	10	0.0134011
2	1	0	0	0	3876.9	0.816813	0.816557	51.6134	3	0.780094	10	0.0421453
2	1	0	1	0	3893.68	0.799284	0.799046	42.6056	3	1.67458	10	0.0340439
2	1	0	1	0	3910.56	0.714886	0.714622	8.8203	3	2.08394	10	0.00630318
2	1	0	1	0	3927.44	0.630488	0.630235	0.255104	3	2.13109	10	0.000160775
2	0	0	1	0	3944.32	0.54609	0.545836	-0.0771889	3	2.13087	10	-4.21325e-05
2	0	0	1	0	3961.2	0.461692	0.461414	-0.110508	3	2.12891	10	-5.09901e-05
2	0	0	1	0	3978.08	0.377294	0.377066	-0.154006	3	2.12635	10	-5.80705e-05
2	0	0	1	0	3994.96	0.292895	0.292627	-0.207356	3	2.12294	10	-6.06781e-05
2	0	0	1	0	4011.84	0.208497	0.208226	-0.278057	3	2.11854	10	-5.78986e-05
2	0	0	1	0	4028.72	0.124099	0.123804	-0.943032	3	2.10849	10	-0.000116751
2	0	0	1	0	4045.6	0.0397015	0.0394049	-0.490198	3	2.09709	10	-1.93162e-05
2	1	0	1	0	4953.92	0.0437465	0.0434439	0.309827	4	0.00253314	10	1.34601e-05
2	1	0	1	0	4970.8	0.128144	0.127854	0.821507	4	0.0113736	10	0.000105033
2	1	0	1	0	4987.68	0.212542	0.212268	0.308681	4	0.0213903	10	6.55231e-05
2	1	0	0	0	5004.56	0.296941	0.296681	0.268598	4	0.0265362	10	7.96877e-05
2	1	0	0	0	5021.44	0.381339	0.381088	0.251827	4	0.0312915	10	9.59681e-05
2	1	0	0	0	5038.32	0.465737	0.465488	0.249078	4	0.0358448	10	0.000115943
2	1	0	0	0	5055.2	0.550135	0.549843	0.288282	4	0.0406063	10	0.00015851
2	1	0	0	0	5072.08	0.634533	0.634291	0.931989	4	0.0487071	10	0.000591152
2	1	0	0	0	5088.96	0.718931	0.718687	13.3959	4	0.135109	10	0.00962748
2	1	0	0	0	5105.84	0.803329	0.803104	46.4018	4	0.62407	10	0.0372655
2	1	0	1	0	5122.62	0.812767	0.812543	47.3602	4	1.53418	10	0.0384821
2	1	0	1	0	5139.5	0.728369	0.72813	11.7878	4	2.01196	10	0.00858308
2	1	0	1	0	5156.38	0.643971	0.643707	0.4808	4	2.08191	10	0.000309494
2	0	0	1	0	5173.25	0.559573	0.559299	-0.0718032	4	2.08273	10	-4.01594e-05
2	0	0	1	0	5190.13	0.475175	0.474895	-0.10734	4	2.08085	10	-5.09752e-05
2	0	0	1	0	5207.01	0.390777	0.390501	-0.147487	4	2.07841	10	-5.75939e-05
2	0	0	1	0	5223.89	0.306379	0.306072	-0.199603	4	2.07516	10	-6.10929e-05
2	0	0	1	0	5240.77	0.221981	0.221674	-0.26207	4	2.07096	10	-5.80942e-05
2	0	0	1	0	5257.65	0.137584	0.13725	-0.938628	4	2.06308	10	-0.000128827
2	0	0	1	0	5274.53	0.0531856	0.0528578	-0.537897	4	2.05034	10	-2.8432e-05
2	1	0	0	0	6182.85	0.0302629	0.029997	0.286428	5	0.00167128	10	8.592e-06
2	1	0	0	0	6199.73	0.114661	0.114314	0.660053	5	0.00945381	10	7.54534e-05
2	1	0	0	0	6216.61	0.199059	0.198789	0.323943	5	0.0202938	10	6.43963e-05
2	1	0	0	0	6233.49	0.283457	0.283193	0.272655	5	0.0255229	10	7.72141e-05
2	1	0	0	0	6250.37	0.367855	0.367563	0.254324	5	0.0303102	10	9.34798e-05
2	1	0	0	0	6267.25	0.452253	0.451972	0.248565	5	0.0348719	10	0.000112344
2	1	0	1	0	6284.13	0.536652	0.536323	0.27313	5	0.0395263	10	0.000146486
2	1	0	1	0	6301.01	0.621049	0.620789	0.622303	5	0.0461182	10	0.000386319
2	1	0	1	0	6317.89	0.705447	0.70516	9.0869	5	0.099654	10	0.00640772
2	1	0	1	0	6334.77	0.789845	0.789585	38.8756	5	0.481335	10	0.0306956
2	1	0	1	0	6351.55	0.826251	0.826007	51.0046	5	1.35418	10	0.0421301
2	1	0	1	0	6368.43	0.741853	0.741558	15.6446	5	1.91269	10	0.0116014
2	1	0	1	0	6385.31	0.657455	0.657202	0.872734	5	2.01399	10	0.000573563
2	0	0	1	0	6402.19	0.573057	0.572818	-0.0606493	5	2.01651	10	-3.47411e-05
2	0	0	1	0	6419.07	0.488659	0.48837	-0.102342	5	2.01472	10	-4.99807e-05
2	0	0	0	0	6435.95	0.404261	0.404004	-0.139759	5	2.01238	10	-5.64631e-05
2	0	0	0	0	6452.83	0.319863	0.319589	-0.190993	5	2.00927	10	-6.10392e-05
2	0	0	0	0	6469.7	0.235465	0.235173	-0.247133	5	2.00523	10	-5.8119e-05
2	0	0	0	0	6486.58	0.151067	0.150771	-0.668644	5	1.99909	10	-0.000100812
2	0	0	0	0	6503.46	0.0666689	0.0663594	-0.602594	5	1.98572	10	-3.99878e-05
2	1	0	0	0	7411.78	0.0167792	0.0165108	0.264566	6	0.000871645	10	4.36819e-06
2	1	0	0	0	7428.66	0.101177	0.100878	0.559762	6	0.00789833	10	5.64676e-05
2	1	0	1	0	7445.54	0.185576	0.1853	0.352032	6	0.0191876	10	6.52316e-05
2	1	0	1	0	7462.42	0.269973	0.269719	0.275471	6	0.0245662	10	7.42997e-05
2	1	0	1	0	7479.3	0.354372	0.354084	0.255567	6	0.0294023	10	9.0492e-05
2	1	0	1	0	7496.18	0.438769	0.438497	0.248441	6	0.0339879	10	0.000108941
2	1	0	1	0	7513.06	0.523167	0.522894	0.263263	6	0.038592	10	0.000137659
2	1	0	1	0	7529.94	0.607565	0.607307	0.463551	6	0.0443764	10	0.000281517
2	1	0	1	0	7546.82	0.691963	0.69171	5.80806	6	0.0771234	10	0.00401749
2	1	0	1	0	7563.7	0.776361	0.776111	31.4701	6	0.367513	10	0.0244243
2	1	0	1	0	7580.48	0.839735	0.83954	54.1455	6	1.16665	10	0.0454573
2	1	0	0	0	7597.36	0.755337	0.755091	19.6031	6	1.7942	10	0.0148022
2	1	0	0	0	7614.24	0.670939	0.670642	1.49665	6	1.93281	10	0.00100372
2	0	0	0	0	7631.12	0.586541	0.586287	-0.0432878	6	1.93823	10	-2.53791e-05
2	0	0	0	0	7648	0.502143	0.501858	-0.0978938	6	1.93658	10	-4.91288e-05
2	0	0	0	0	7664.88	0.417745	0.417473	-0.132312	6	1.93435	10	-5.52365e-05
2	0	0	0	0	7681.76	0.333347	0.333012	-0.180859	6	1.93139	10	-6.02283e-05
2	0	0	0	0	7698.64	0.248949	0.248625	-0.237712	6	1.92753	10	-5.91013e-05
2	0	0	1	0	7715.52	0.16455	0.164242	-0.427612	6	1.92231	10	-7.02318e-05
2	0	0	1	0	7732.4	0.0801523	0.0798716	-0.654517	6	1.9094	10	-5.22774e-05
2	1	0	1	0	8640.71	0.00329557	0.00298437	0.21975	7	0.000142608	10	6.55815e-07
2	1	0	1	0	8657.59	0.0876935	0.0873726	0.506085	7	0.00644137	10	4.42179e-05
2	1	0	1	0	8674.47	0.172091	0.17182	0.411296	7	0.0178357	10	7.06688e-05
2	1	0	1	0	8691.35	0.256489	0.256207	0.280198	7	0.0234629	10	7.17887e-05
2	1	0	1	0	8708.23	0.340887	0.340588	0.260129	7	0.0283414	10	8.85968e-05
2	1	0	1	0	8725.11	0.425286	0.425026	0.248096	7	0.0329389	10	0.000105447
2	1	0	1	0	8741.99	0.509684	0.509406	0.259337	7	0.0374903	10	0.000132108
2	1	0	1	0	8758.87	0.594082	0.593835	0.375457	7	0.042783	10	0.000222959
2	1	0	1	0	8775.75	0.67848	0.678252	3.35249	7	0.0625369	10	0.00227383
2	1	0	1	0	8792.63	0.762878	0.762609	24.3383	7	0.267469	10	0.0185606
2	1	0	1	0	8809.51	0.847276	0.847076	57.1755	7	0.96678	10	0.048432
2	1	0	0	0	8826.29	0.768821	0.768548	23.0939	7	1.65689	10	0.0177487
2	1	0	0	0	8843.17	0.684423	0.684217	2.38919	7	1.83429	10	0.00163473
2	1	0	0	0	8860.05	0.600025	0.59974	-0.0141941	7	1.84433	10	-8.51278e-06
2	0	0	1	0	8876.93	0.515626	0.515332	-0.09251	7	1.84286	10	-4.76733e-05
2	0	0	1	0	8893.81	0.431228	0.430964	-0.125738	7	1.84073	10	-5.41887e-05
2	0	0	1	0	8910.69	0.34683	0.346528	-0.172369	7	1.83791	10	-5.97308e-05
2	0	0	1	0	8927.57	0.262432	0.262171	-0.227096	7	1.83421	10	-5.95381e-05
2	0	0	1	0	8944.45	0.178034	0.177718	-0.331444	7	1.8294	10	-5.89036e-05
2	0	0	1	0	8961.33	0.0936365	0.0933248	-0.698833	7	1.81747	10	-6.52185e-05
2	0	0	1	0	8978.21	0.00923861	0.00890686	-0.480347	7	1.80759	10	-4.27839e-06
2	0	0	1	0	8980.05	2.44065e-05	-0.000287149	-0.484083	7	1.80665	10	1.39004e-07