File: Figure_codes/Fig_3-5/rawdata_trumpetplot_data/before 10th/20221101_1-115_002_TrumpetPlot_ParaChange_05_CV_C01.mpt
EC-Lab ASCII FILE
Nb header lines : 68

Cyclic Voltammetry

Run on channel : 1 (SN 65296)
User :
CE vs. WE compliance from -10 V to 10 V
Electrode connection : standard
Potential control : Ewe
Ewe ctrl range : min = -1.00 V, max = 1.00 V
Safety Limits :
	Do not start on E overload
Acquisition started on : 11/08/2022 17:30:03.488
Loaded Setting File :  NONE
Saved on :
	File : 20221101_1-115_002_TrumpetPlot_ParaChange_05_CV_C01.mpr
	Directory : C:\Users\NakamuraT\Documents\EC-Lab\Data\Yatsuzuka\20221108_1-115_001_TrumpetPlot\
	Host : 192.109.209.100
Device : SP-50e (SN .003219)
Address : 192.109.209.128
EC-Lab for windows v11.43 (software)
Internet server v11.40 (firmware)
Command interpretor v11.40 (firmware)
Electrode material : Au/Pd
Initial state :
Electrolyte : NaCl (0.2M)
Comments : Fe(CN)63-/Fe(CN)64- 5.10-3 M
Reference electrode : SCE Saturated Calomel Electrode (0.241 V)
Electrode surface area : 0.001 cm2
Characteristic mass : 0.001 g
Equivalent Weight : 0.000 g/eq.
Density : 0.000 g/cm3
Volume (V) : 0.001 cm3
Cycle Definition : Charge/Discharge alternance
Ei (V)              0.000
vs.                 Ref
dE/dt               5.000
dE/dt unit          mV/s
E1 (V)              0.300
vs.                 Ref
Step percent        50
N                   10
E range min (V)     -1.000
E range max (V)     1.000
I Range             10 mA
I Range min         Unset
I Range max         Unset
I Range init        Unset
Bandwidth           5
E2 (V)              0.000
vs.                 Ref
nc cycles           0
Reverse Scan        0
Ef (V)              0.000
vs.                 Eoc

Number of loops : 8
Loop 0 from point number 0 to 1204
Loop 1 from point number 1205 to 2409
Loop 2 from point number 2410 to 3614
Loop 3 from point number 3615 to 4819
Loop 4 from point number 4820 to 6024
Loop 5 from point number 6025 to 7229
Loop 6 from point number 7230 to 8434
Loop 7 from point number 8435 to 9639

mode	ox/red	error	control changes	counter inc.	time/s	control/V	Ewe/V	<I>/mA	cycle number	(Q-Qo)/C	I Range	P/W
2	1	0	0	0	958.886	2.44065e-05	-0.000401673	0.0161509	1	0.0000000E+000	11	-6.48739e-09
2	1	0	0	0	965.933	0.0352568	0.0349936	0.254069	1	0.00173563	11	8.8908e-06
2	1	0	1	0	973.024	0.070714	0.0704101	0.330666	1	0.00389219	11	2.32823e-05
2	1	0	0	0	980.116	0.106171	0.105919	0.502998	1	0.00693859	11	5.3277e-05
2	1	0	1	0	987.207	0.141629	0.141316	0.990396	1	0.0123404	11	0.000139958
2	1	0	1	0	994.299	0.177085	0.176799	0.440308	1	0.0177566	11	7.78462e-05
2	1	0	1	0	1001.39	0.212542	0.212218	0.301549	1	0.0203826	11	6.39941e-05
2	1	0	1	0	1008.48	0.248	0.24772	0.269547	1	0.0225265	11	6.67722e-05
2	1	0	0	0	1015.57	0.283457	0.283156	0.257959	1	0.0245323	11	7.30426e-05
2	0	0	1	0	1022.54	0.281759	0.281458	-0.0716636	1	0.0252316	11	-2.01703e-05
2	0	0	0	0	1029.63	0.246302	0.245984	-0.13451	1	0.0243295	11	-3.30872e-05
2	0	0	1	0	1036.72	0.210845	0.210524	-0.196875	1	0.0230198	11	-4.14468e-05
2	0	0	1	0	1043.81	0.175387	0.175105	-0.348182	1	0.0210718	11	-6.09684e-05
2	0	0	1	0	1050.9	0.13993	0.139635	-0.968988	1	0.0163951	11	-0.000135305
2	0	0	1	0	1057.99	0.104474	0.104183	-0.613359	1	0.0103757	11	-6.39017e-05
2	0	0	0	0	1065.08	0.069016	0.0687252	-0.441119	1	0.00657026	11	-3.0316e-05
2	0	0	1	0	1072.18	0.0335589	0.0332864	-0.391729	1	0.00355354	11	-1.30392e-05
2	1	0	1	0	2190.67	0.000798582	0.000448967	0.164855	2	2.63108e-05	11	7.40145e-08
2	1	0	1	0	2197.76	0.0362554	0.0359573	0.259455	2	0.00181484	11	9.32928e-06
2	1	0	1	0	2204.85	0.0717128	0.071426	0.359352	2	0.00408483	11	2.56671e-05
2	1	0	0	0	2211.94	0.10717	0.106884	0.534585	2	0.00735405	11	5.71385e-05
2	1	0	1	0	2219.04	0.142627	0.142345	0.965811	2	0.0128936	11	0.000137478
2	1	0	1	0	2226.13	0.178085	0.177768	0.415864	2	0.0180155	11	7.39274e-05
2	1	0	1	0	2233.22	0.213541	0.21323	0.296101	2	0.0205718	11	6.31376e-05
2	1	0	1	0	2240.31	0.248998	0.248701	0.267616	2	0.0227032	11	6.65564e-05
2	1	0	0	0	2247.4	0.284456	0.284181	0.256138	2	0.0247082	11	7.27896e-05
2	0	0	1	0	2254.36	0.28076	0.280451	-0.0733543	2	0.0253352	11	-2.05723e-05
2	0	0	0	0	2261.45	0.245303	0.24499	-0.136434	2	0.0244261	11	-3.3425e-05
2	0	0	1	0	2268.55	0.209846	0.209572	-0.191265	2	0.0231201	11	-4.00837e-05
2	0	0	0	0	2275.64	0.174389	0.174094	-0.342373	2	0.0211942	11	-5.9605e-05
2	0	0	1	0	2282.73	0.138931	0.138602	-0.950735	2	0.0165678	11	-0.000131773
2	0	0	1	0	2289.82	0.103474	0.103205	-0.622953	2	0.0106011	11	-6.42921e-05
2	0	0	1	0	2296.91	0.0680176	0.0677106	-0.460656	2	0.00666124	11	-3.11913e-05
2	0	0	1	0	2304	0.0325601	0.032297	-0.393217	2	0.00358236	11	-1.26997e-05
2	1	0	1	0	3422.5	0.00179771	0.00141955	0.173259	3	5.89956e-05	11	2.4595e-07
2	1	0	1	0	3429.59	0.0372545	0.0369821	0.263707	3	0.00185582	11	9.75245e-06
2	1	0	1	0	3436.68	0.0727114	0.0724173	0.386531	3	0.00421804	11	2.79916e-05
2	1	0	1	0	3443.77	0.108169	0.107888	0.551895	3	0.00763775	11	5.95429e-05
2	1	0	0	0	3450.86	0.143626	0.143348	0.934439	3	0.0132114	11	0.00013395
2	1	0	1	0	3457.95	0.179083	0.178785	0.403702	3	0.0180352	11	7.21758e-05
2	1	0	1	0	3465.05	0.214541	0.214274	0.295057	3	0.020541	11	6.32229e-05
2	1	0	1	0	3472.14	0.249997	0.249732	0.27146	3	0.0226698	11	6.77924e-05
2	1	0	1	0	3479.23	0.285454	0.285176	0.25846	3	0.0246774	11	7.37066e-05
2	0	0	1	0	3486.19	0.279761	0.279447	-0.0770992	3	0.0252431	11	-2.15451e-05
2	0	0	1	0	3493.28	0.244304	0.244014	-0.13727	3	0.0243366	11	-3.34957e-05
2	0	0	1	0	3500.37	0.208848	0.208556	-0.193832	3	0.0230406	11	-4.04249e-05
2	0	0	1	0	3507.47	0.17339	0.173094	-0.33568	3	0.0211477	11	-5.81041e-05
2	0	0	0	0	3514.56	0.137933	0.137616	-0.922596	3	0.0166517	11	-0.000126964
2	0	0	1	0	3521.65	0.102475	0.102146	-0.633474	3	0.0107552	11	-6.47066e-05
2	0	0	1	0	3528.74	0.0670183	0.0667336	-0.479027	3	0.00670789	11	-3.19672e-05
2	0	0	1	0	3535.83	0.0315615	0.0312413	-0.398184	3	0.00356868	11	-1.24398e-05
2	1	0	0	0	4654.33	0.00279606	0.0025049	0.187601	4	9.89879e-05	11	4.69921e-07
2	1	0	1	0	4661.42	0.0382532	0.0379607	0.273028	4	0.00191963	11	1.03643e-05
2	1	0	1	0	4668.51	0.0737106	0.0734219	0.405934	4	0.00438335	11	2.98045e-05
2	1	0	1	0	4675.6	0.109167	0.108855	0.574024	4	0.00792627	11	6.24854e-05
2	1	0	1	0	4682.69	0.144624	0.144341	0.899616	4	0.0135364	11	0.000129852
2	1	0	0	0	4689.78	0.180082	0.179768	0.383776	4	0.0180645	11	6.89905e-05
2	1	0	1	0	4696.87	0.215539	0.215247	0.293768	4	0.0205121	11	6.32326e-05
2	1	0	1	0	4703.97	0.250997	0.250726	0.269839	4	0.0226283	11	6.76558e-05
2	1	0	1	0	4711.06	0.286453	0.286161	0.257984	4	0.0246324	11	7.3825e-05
2	0	0	0	0	4718.02	0.278763	0.278484	-0.0787034	4	0.0251246	11	-2.19176e-05
2	0	0	1	0	4725.11	0.243305	0.243041	-0.137015	4	0.0242101	11	-3.33002e-05
2	0	0	1	0	4732.2	0.207848	0.207558	-0.192967	4	0.0229151	11	-4.00519e-05
2	0	0	1	0	4739.29	0.172392	0.172076	-0.329756	4	0.0210446	11	-5.67432e-05
2	0	0	1	0	4746.39	0.136934	0.136593	-0.898575	4	0.0166502	11	-0.000122739
2	0	0	0	0	4753.48	0.101477	0.101164	-0.636998	4	0.0108175	11	-6.44413e-05
2	0	0	1	0	4760.57	0.0660192	0.0657406	-0.494079	4	0.00670977	11	-3.24811e-05
2	0	0	1	0	4767.66	0.0305624	0.0302769	-0.398137	4	0.00352487	11	-1.20543e-05
2	1	0	1	0	5886.15	0.00379485	0.00352819	0.192506	5	0.000139572	11	6.79198e-07
2	1	0	0	0	5893.25	0.039252	0.0389182	0.279633	5	0.0019903	11	1.08828e-05
2	1	0	1	0	5900.34	0.0747092	0.0744386	0.421122	5	0.00455606	11	3.13477e-05
2	1	0	1	0	5907.43	0.110167	0.109892	0.598723	5	0.00820449	11	6.57951e-05
2	1	0	1	0	5914.52	0.145623	0.145333	0.866493	5	0.0138391	11	0.00012593
2	1	0	1	0	5921.61	0.18108	0.180764	0.36741	5	0.0180781	11	6.64146e-05
2	1	0	0	0	5928.7	0.216538	0.216258	0.287838	5	0.0204663	11	6.22473e-05
2	1	0	1	0	5935.79	0.251995	0.251709	0.269045	5	0.0225675	11	6.77211e-05
2	1	0	0	0	5942.89	0.287452	0.287169	0.259262	5	0.0245662	11	7.4452e-05
2	0	0	1	0	5949.85	0.277764	0.277508	-0.0801742	5	0.0249821	11	-2.22489e-05
2	0	0	0	0	5956.94	0.242307	0.241999	-0.13805	5	0.0240582	11	-3.34079e-05
2	0	0	1	0	5964.03	0.206849	0.206551	-0.195827	5	0.0227619	11	-4.04484e-05
2	0	0	1	0	5971.12	0.171392	0.171084	-0.321011	5	0.0209099	11	-5.49198e-05
2	0	0	1	0	5978.21	0.135936	0.135608	-0.87733	5	0.016601	11	-0.000118973
2	0	0	1	0	5985.3	0.100478	0.100199	-0.642015	5	0.0108386	11	-6.43293e-05
2	0	0	0	0	5992.4	0.0650209	0.0646755	-0.497857	5	0.00669344	11	-3.21991e-05
2	0	0	1	0	5999.49	0.0295637	0.029259	-0.40201	5	0.00346759	11	-1.17624e-05
2	1	0	1	0	7117.98	0.00479342	0.00451418	0.198968	6	0.00018225	11	8.98177e-07
2	1	0	1	0	7125.07	0.0402508	0.0399563	0.286148	6	0.00205533	11	1.14334e-05
2	1	0	0	0	7132.17	0.075708	0.0754174	0.432322	6	0.00471292	11	3.26046e-05
2	1	0	1	0	7139.26	0.111165	0.110883	0.616112	6	0.00844442	11	6.83162e-05
2	1	0	1	0	7146.35	0.146623	0.146355	0.815253	6	0.0140536	11	0.000119316
2	1	0	1	0	7153.44	0.182079	0.181796	0.352568	6	0.0179806	11	6.40956e-05
2	1	0	1	0	7160.53	0.217536	0.217241	0.28698	6	0.0203121	11	6.23437e-05
2	1	0	0	0	7167.62	0.252994	0.252722	0.268773	6	0.0223997	11	6.79247e-05
2	1	0	1	0	7174.71	0.288451	0.288148	0.258145	6	0.024392	11	7.43839e-05
2	0	0	0	0	7181.68	0.276765	0.276444	-0.0808139	6	0.024735	11	-2.23405e-05
2	0	0	1	0	7188.77	0.241308	0.241041	-0.138119	6	0.0238078	11	-3.32923e-05
2	0	0	0	0	7195.86	0.205851	0.20553	-0.191187	6	0.0225147	11	-3.92946e-05
2	0	0	1	0	7202.95	0.170393	0.170112	-0.317111	6	0.0206865	11	-5.39444e-05
2	0	0	1	0	7210.04	0.134936	0.13464	-0.856156	6	0.0164852	11	-0.000115273
2	0	0	1	0	7217.13	0.0994796	0.0991656	-0.642059	6	0.0108228	11	-6.36702e-05
2	0	0	1	0	7224.22	0.0640221	0.0637306	-0.503134	6	0.00666353	11	-3.2065e-05
2	0	0	0	0	7231.32	0.0285649	0.0282495	-0.403834	6	0.00340457	11	-1.14081e-05
2	1	0	1	0	8349.81	0.00579255	0.00546789	0.197965	7	0.000218299	11	1.08245e-06
2	1	0	1	0	8356.9	0.0412494	0.0409613	0.296097	7	0.00211012	11	1.21285e-05
2	1	0	1	0	8363.99	0.0767068	0.076393	0.442941	7	0.00484367	11	3.38376e-05
2	1	0	0	0	8371.08	0.112164	0.111897	0.626366	7	0.00863081	11	7.00888e-05
2	1	0	1	0	8378.18	0.147621	0.147339	0.769987	7	0.0141485	11	0.00011345
2	1	0	1	0	8385.27	0.183079	0.18278	0.345537	7	0.0178286	11	6.31571e-05
2	1	0	1	0	8392.36	0.218535	0.218271	0.287324	7	0.0201432	11	6.27146e-05
2	1	0	1	0	8399.45	0.253992	0.253733	0.268288	7	0.0222292	11	6.80735e-05
2	1	0	0	0	8406.54	0.28945	0.289162	0.257903	7	0.0242203	11	7.4576e-05
2	0	0	1	0	8413.5	0.275766	0.275433	-0.0831227	7	0.0244974	11	-2.28948e-05
2	0	0	1	0	8420.6	0.24031	0.23998	-0.140445	7	0.0235676	11	-3.37041e-05
2	0	0	1	0	8427.69	0.204852	0.204519	-0.191012	7	0.0222769	11	-3.90656e-05
2	0	0	0	0	8434.78	0.169395	0.169077	-0.312404	7	0.0204683	11	-5.28203e-05
2	0	0	1	0	8441.87	0.133937	0.133659	-0.828365	7	0.0163914	11	-0.000110718
2	0	0	1	0	8448.96	0.0984804	0.0981938	-0.643578	7	0.0108211	11	-6.31954e-05
2	0	0	1	0	8456.05	0.0630235	0.0627277	-0.50738	7	0.00664211	11	-3.18268e-05
2	0	0	1	0	8463.14	0.0275661	0.0272654	-0.407253	7	0.00334633	11	-1.11039e-05
2	1	0	1	0	9581.64	0.00679123	0.00648673	0.20666	8	0.000267431	11	1.34055e-06
2	1	0	1	0	9588.73	0.0422486	0.0419586	0.305855	8	0.00221182	11	1.28333e-05
2	1	0	1	0	9595.82	0.0777054	0.0773886	0.452673	8	0.00503525	11	3.50318e-05
2	1	0	1	0	9602.91	0.113162	0.112893	0.644078	8	0.00890736	11	7.27117e-05
2	1	0	0	0	9610	0.14862	0.148329	0.730358	8	0.0144064	11	0.000108333
2	1	0	1	0	9617.1	0.184077	0.183794	0.332722	8	0.017868	11	6.11523e-05
2	1	0	1	0	9624.19	0.219535	0.219262	0.284409	8	0.0201381	11	6.23602e-05
2	1	0	1	0	9631.28	0.254991	0.254705	0.265446	8	0.02221	11	6.76103e-05
2	1	0	1	0	9638.37	0.290448	0.290155	0.258103	8	0.0241981	11	7.48898e-05
2	0	0	1	0	9645.33	0.274767	0.27446	-0.0860471	8	0.0243934	11	-2.36165e-05
2	0	0	1	0	9652.42	0.23931	0.238973	-0.140495	8	0.0234494	11	-3.35747e-05
2	0	0	1	0	9659.51	0.203854	0.203516	-0.191082	8	0.022151	11	-3.88882e-05
2	0	0	1	0	9666.61	0.168396	0.168128	-0.311586	8	0.0203436	11	-5.23862e-05
2	0	0	0	0	9673.7	0.132939	0.132615	-0.815908	8	0.0162962	11	-0.000108201
2	0	0	1	0	9680.79	0.0974812	0.0971701	-0.643295	8	0.0107817	11	-6.2509e-05
2	0	0	1	0	9687.88	0.0620244	0.0616913	-0.512566	8	0.00660184	11	-3.16209e-05
2	0	0	1	0	9694.97	0.0265676	0.0262496	-0.41048	8	0.00327578	11	-1.07749e-05
2	0	0	1	0	9700.28	2.44065e-05	-0.000306236	-0.417126	8	0.00099941	11	1.27739e-07