File: Figure_codes/Fig_3-5/rawdata_trumpetplot_data/before 10th/20221101_1-115_002_TrumpetPlot_ParaChange_09_CV_C01_1.csv
mode,ox/red,error,control changes,counter inc.,time/s,control/V,Ewe/V,<I>/mA,cycle number,(Q-Qo)/C,I Range,P/W,log(|I|),Tafel slope mV/dec,alpha_eff,dI/d(E-IR),E-IR/V,
2,0,0,1,0,2415.92,2.44065e-05,-0.000172625,-3.81375,2,0.0000000E+000,11,6.58349e-07,-2.41865, , , ,-0.000172625,
2,1,0,1,0,2416.04,0.007288,0.00698637,2.4968,2,0.000135147,11,1.74436e-05,-2.60262,0.0936642,0.62991,59.9973,0.00698637,
2,1,0,1,0,2416.16,0.0147816,0.0145357,2.63494,2,0.000458531,11,3.83006e-05,-2.57923,0.526002,0.112167,11.5192,0.0145357,
2,1,0,1,0,2416.29,0.0222712,0.0219911,2.71109,2,0.000792358,11,5.96199e-05,-2.56686,0.495412,0.119093,12.5764,0.0219911,
2,1,0,1,0,2416.41,0.0297648,0.0295094,2.78302,2,0.00113567,11,8.21253e-05,-2.55548,0.658047,0.0896593,9.72277,0.0295094,
2,1,0,1,0,2416.54,0.0372518,0.0369801,2.85882,2,0.00148834,11,0.000105719,-2.54381,0.814156,0.0724676,8.11652,0.0369801,
2,1,0,1,0,2416.66,0.0447467,0.0444605,2.97033,2,0.00185302,11,0.000132062,-2.52719,0.477877,0.123463,14.3428,0.0444605,
2,1,0,1,0,2416.79,0.052235,0.0519592,3.12635,2,0.0022333,11,0.000162443,-2.50496,0.26656,0.221338,26.9666,0.0519592,
2,1,0,1,0,2416.91,0.0597299,0.0594293,3.334,2,0.00263638,11,0.000198137,-2.47703,0.207878,0.28382,36.91,0.0594293,
2,1,0,1,0,2417.04,0.0672156,0.0669617,3.60308,2,0.00306903,11,0.000241268,-2.44333,0.212023,0.278271,39.1367,0.0669617,
2,1,0,1,0,2417.16,0.0747105,0.074443,3.92982,2,0.00353929,11,0.000292547,-2.40563,0.217352,0.271449,41.5696,0.07444305,
2,1,0,1,0,2417.29,0.0821988,0.0819426,4.27726,2,0.00405162,11,0.00035049,-2.36883,0.218022,0.270615,45.1425,0.0819426,
2,1,0,1,0,2417.41,0.0896937,0.0894175,4.63027,2,0.00460805,11,0.000414027,-2.33439,0.215405,0.273902,49.4727,0.0894175,
2,1,0,1,0,2417.54,0.0971794,0.0968758,4.96119,2,0.0052077,11,0.00048062,-2.30441,0.225269,0.261909,50.8593,0.0968758,
2,1,0,1,0,2417.66,0.104674,0.104424,5.3627,2,0.00585297,11,0.000559996,-2.27062,0.220114,0.268043,56.0805,0.104424,
2,1,0,1,0,2417.79,0.112163,0.111862,5.87783,2,0.00655178,11,0.000657507,-2.23078,0.167803,0.351602,80.5084,0.111862,
2,1,0,1,0,2417.91,0.119657,0.11937,6.61149,2,0.00732844,11,0.000789212,-2.1797,0.132138,0.446502,115.228,0.11937,
2,1,0,1,0,2418.04,0.127143,0.126846,7.5865,2,0.00821273,11,0.000962315,-2.11996,0.118309,0.498693,147.93,0.126846,
2,1,0,1,0,2418.16,0.134638,0.134384,8.7288,2,0.00923354,11,0.00117301,-2.05905,0.139926,0.42165,143.793,0.134384,
2,1,0,1,0,2418.29,0.142126,0.141823,9.73248,2,0.0103896,11,0.00138028,-2.01178,0.198069,0.297876,112.916,0.141823,
2,1,0,1,0,2418.41,0.149621,0.14934,10.2876,2,0.0116467,11,0.00153634,-1.98769,0.728609,0.0809763,32.3934,0.14934,
2,1,0,1,0,2418.54,0.157107,0.156826,10.0179,2,0.0129251,11,0.00157106,-1.99923,-0.206352,-0.285919,-111.263,0.156826,
2,1,0,1,0,2418.66,0.164602,0.164322,8.49956,2,0.0140963,11,0.00139666,-2.0706,-0.0676679,-0.871905,-287.858,0.164322,
2,1,0,1,0,2418.79,0.17209,0.171831,6.18641,2,0.0150133,11,0.00106301,-2.20856,-0.0494994,-1.19193,-288.85,0.171831,
2,1,0,1,0,2418.91,0.179585,0.179322,4.64216,2,0.0156778,11,0.000832443,-2.33328,-0.0794662,-0.742454,-135.147,0.1793225,
2,1,0,1,0,2419.04,0.187072,0.186827,3.92953,2,0.0162079,11,0.000734143,-2.40566,-0.13847,-0.426086,-65.3645,0.186827,
2,1,0,1,0,2419.16,0.194566,0.194322,3.50496,2,0.0166708,11,0.000681091,-2.45532,-0.166547,-0.354254,-48.5914,0.194322,
2,1,0,1,0,2419.29,0.202055,0.20178,3.22705,2,0.01709,11,0.000651155,-2.49119,-0.21213,-0.278132,-34.937,0.20178,
2,1,0,1,0,2419.41,0.209549,0.209296,3.03867,2,0.0174801,11,0.00063598,-2.51732,-0.2663,-0.221555,-26.1858,0.209296,
2,1,0,1,0,2419.53,0.217036,0.216759,2.87438,2,0.0178489,11,0.000623047,-2.54146,-0.489218,-0.120601,-13.611,0.216759,
2,1,0,1,0,2419.66,0.224529,0.224274,2.77762,2,0.0182034,11,0.00062295,-2.55633,-0.477328,-0.123605,-13.458,0.224274,
2,1,0,1,0,2419.78,0.232019,0.23177,2.71554,2,0.0185465,11,0.000629382,-2.56614,-0.706229,-0.0835424,-8.83479,0.23177,
2,1,0,1,0,2419.91,0.239513,0.239197,2.6559,2,0.0188815,11,0.000635283,-2.57579,-0.941691,-0.0626533,-6.47183,0.239197,
2,1,0,1,0,2420.03,0.247001,0.246721,2.60337,2,0.0192094,11,0.000642306,-2.58446,-0.990547,-0.059563,-6.03024,0.246721,
2,1,0,1,0,2420.16,0.254493,0.254193,2.54592,2,0.0195317,11,0.000647153,-2.59416,-0.838765,-0.0703415,-7.03367,0.254193,
2,1,0,1,0,2420.28,0.261983,0.261746,2.51249,2,0.0198487,11,0.000657633,-2.5999,-0.790917,-0.0745969,-7.34706,0.261746,
2,1,0,1,0,2420.41,0.269477,0.269194,2.48788,2,0.0201615,11,0.00066972,-2.60417,-1.89808,-0.031084,-3.01187,0.269194,
2,1,0,1,0,2420.53,0.276965,0.276709,2.44971,2,0.0204699,11,0.000677855,-2.61089,-2.38431,-0.0247451,-2.36574,0.276709,
2,1,0,1,0,2420.66,0.284457,0.284216,2.4169,2,0.0207746,11,0.000686924,-2.61674,-1.33307,-0.0442587,-4.18811,0.284216,
2,1,0,1,0,2420.78,0.291947,0.291717,2.3924,2,0.0210754,11,0.000697904,-2.62117,-0.644177,-0.0915897,-8.54677,0.291717,
2,1,0,1,0,2420.91,0.29944,0.299182,2.369,2,0.0213729,11,0.000708762,-2.62544,-0.0021852,-26.9998,-1136.82,0.299182,
2,0,0,1,0,2421.02,0.293742,0.293446,-0.979272,2,0.0213409,11,-0.000287363,-3.0091,-0.0812902,-0.725795,27.3883,0.293446,
2,0,0,1,0,2421.15,0.286254,0.285918,-1.15584,2,0.0212069,11,-0.000330474,-2.9371,-0.111119,-0.530964,24.2,0.285918,
2,0,0,1,0,2421.27,0.278761,0.278469,-1.30005,2,0.0210518,11,-0.000362022,-2.88604,-0.200181,-0.294733,15.1043,0.278469,
2,0,0,1,0,2421.4,0.271272,0.271015,-1.42838,2,0.0208806,11,-0.000387112,-2.84516,-0.258552,-0.228194,12.6796,0.271015,
2,0,0,1,0,2421.52,0.263778,0.263461,-1.53161,2,0.0206958,11,-0.00040352,-2.81485,-0.268474,-0.219761,13.0244,0.263461,
2,0,0,1,0,2421.65,0.25629,0.255986,-1.61873,2,0.0204993,11,-0.000414373,-2.79082,-0.285314,-0.20679,12.9985,0.255986,
2,0,0,1,0,2421.77,0.248797,0.248506,-1.69485,2,0.0202919,11,-0.000421181,-2.77087,-0.356937,-0.165295,10.9999,0.248506,
2,0,0,1,0,2421.9,0.241308,0.241007,-1.77834,2,0.020074,11,-0.000428591,-2.74999,-0.504341,-0.116984,8.15718,0.2410067,
2,0,0,1,0,2422.02,0.233814,0.233512,-1.87805,2,0.0198455,11,-0.000438549,-2.72629,-0.319894,-0.184436,13.4459,0.233512,
2,0,0,1,0,2422.15,0.226326,0.226053,-1.96622,2,0.0196061,11,-0.00044447,-2.70637,-0.285104,-0.206942,15.8207,0.226053,
2,0,0,1,0,2422.27,0.218834,0.218539,-2.05903,2,0.0193543,11,-0.000449978,-2.68634,-0.293842,-0.200788,16.1907,0.218539,
2,0,0,1,0,2422.4,0.211344,0.211066,-2.18302,2,0.0190892,11,-0.000460761,-2.66094,-0.38572,-0.152961,13.0441,0.211066,
2,0,0,1,0,2422.52,0.203856,0.203561,-2.33428,2,0.0188072,11,-0.000475169,-2.63185,-0.294761,-0.200162,18.2287,0.203561,
2,0,0,1,0,2422.64,0.196362,0.196071,-2.51395,2,0.0185049,11,-0.000492913,-2.59964,-0.194647,-0.303112,29.7246,0.196071,
2,0,0,1,0,2422.77,0.18887,0.188571,-2.75446,2,0.0181758,11,-0.000519411,-2.55996,-0.150974,-0.390797,42.1458,0.188571,
2,0,0,1,0,2422.89,0.18138,0.181066,-3.10192,2,0.0178106,11,-0.000561651,-2.50837,-0.136276,-0.432945,52.5875,0.181066,
2,0,0,1,0,2423.02,0.173892,0.173612,-3.59893,2,0.0173941,11,-0.000624816,-2.44383,-0.104017,-0.567218,79.5958,0.173612,
2,0,0,1,0,2423.14,0.166398,0.166058,-4.32692,2,0.0169026,11,-0.000718519,-2.36382,-0.0861983,-0.684468,115.512,0.1660578,
2,0,0,1,0,2423.27,0.158905,0.158588,-5.36343,2,0.0163006,11,-0.000850578,-2.27056,-0.0745928,-0.790961,166.155,0.158588,
2,0,0,1,0,2423.39,0.151417,0.151126,-6.76789,2,0.0155452,11,-0.00102281,-2.16955,-0.077677,-0.759556,200.799,0.151126,
2,0,0,1,0,2423.52,0.143927,0.143649,-8.27058,2,0.0146051,11,-0.00118806,-2.08246,-0.0994601,-0.593203,191.045,0.143649,
2,0,0,1,0,2423.64,0.136435,0.136135,-9.53107,2,0.0134893,11,-0.00129751,-2.02086,-0.157887,-0.373684,138.359,0.136135,
2,0,0,1,0,2423.77,0.128941,0.128671,-10.1934,2,0.0122505,11,-0.00131159,-1.99168,-0.562245,-0.104937,41.6191,0.128671,
2,0,0,1,0,2423.89,0.121453,0.121178,-10.0619,2,0.0109768,11,-0.00121928,-1.99732,0.287902,0.204931,-80.252,0.121178,
2,0,0,1,0,2424.02,0.113963,0.113661,-9.07227,2,0.00977417,11,-0.00103116,-2.04228,0.116665,0.505723,-178.585,0.113661,
2,0,0,1,0,2424.14,0.106471,0.106152,-7.66428,2,0.00872916,11,-0.000813581,-2.11553,0.101769,0.579744,-173.671,0.106152,
2,0,0,1,0,2424.27,0.0989825,0.0986954,-6.59943,2,0.00784389,11,-0.000651334,-2.18049,0.148177,0.398172,-102.813,0.0986954,
2,0,0,1,0,2424.39,0.0914889,0.0911922,-6.00396,2,0.00706019,11,-0.000547514,-2.22156,0.238372,0.247513,-58.0766,0.0911922,
2,0,0,1,0,2424.52,0.0839993,0.0836589,-5.63279,2,0.00633514,11,-0.000471233,-2.24928,0.270178,0.218374,-47.9344,0.0836589,
2,0,0,1,0,2424.64,0.076507,0.0761641,-5.32308,2,0.0056515,11,-0.000405427,-2.27384,0.27594,0.213815,-44.2746,0.0761641,
2,0,0,1,0,2424.77,0.0690187,0.06872,-4.97261,2,0.00500873,11,-0.000341718,-2.30342,0.252025,0.234104,-45.4904,0.06872002,
2,0,0,1,0,2424.89,0.0615251,0.0611699,-4.62104,2,0.00440848,11,-0.000282669,-2.33526,0.230931,0.255488,-46.203,0.0611699,
2,0,0,1,0,2425.02,0.0540355,0.0537253,-4.31871,2,0.00385067,11,-0.000232024,-2.36465,0.271814,0.21706,-36.6024,0.0537253,
2,0,0,1,0,2425.14,0.0465432,0.0462427,-4.09929,2,0.00332594,11,-0.000189562,-2.38729,0.396366,0.148852,-23.7797,0.0462427,
2,0,0,1,0,2425.27,0.0390549,0.0387313,-3.96263,2,0.00282435,11,-0.000153478,-2.40202,0.631622,0.0934103,-14.4223,0.03873134,
2,0,0,1,0,2425.39,0.0315613,0.0312183,-3.87919,2,0.00233517,11,-0.000121102,-2.41126,1.75067,0.0337014,-5.11498,0.0312183,
2,0,0,1,0,2425.52,0.0240717,0.0237856,-3.85594,2,0.00185151,11,-9.17157e-05,-2.41387,2.21339,0.026656,-4.02944,0.0237856,
2,0,0,1,0,2425.64,0.0165781,0.016295,-3.89739,2,0.00136699,11,-6.35078e-05,-2.40923,-1.42227,-0.041483,6.30329,0.016295,
2,0,0,1,0,2425.77,0.00909108,0.0087954,-3.94558,2,0.000877739,11,-3.4703e-05,-2.40389,-0.670478,-0.0879969,13.5355,0.0087954,
2,0,0,1,0,2425.89,0.00159616,0.00123597,-4.07574,2,0.000379528,11,-5.03748e-06,-2.38979, , , ,0.00123597,
2,0,0,0,0,2425.91,0.000199195,-0.00014972,-4.05207,2,0.000284632,11,6.06676e-07,-2.39232, , , ,-0.0001497202,