File: Figure_codes/Fig_3-5/rawdata_trumpetplot_data/before 10th/20221101_1-115_002_TrumpetPlot_ParaChange_08_CV_C01_2.csv
mode,ox/red,error,control changes,counter inc.,time/s,control/V,Ewe/V,<I>/mA,cycle number,(Q-Qo)/C,I Range,P/W,log(|I|),Tafel slope mV/dec,alpha_eff,dI/d(E-IR),E-IR/V,
2,0,0,0,0,3632.45,2.44065e-05,-0.000344411,-2.26478,3,0.0000000E+000,11,7.80016e-07,-2.64497, , , ,-0.000344411,
2,1,0,1,0,3632.63,0.00729063,0.00704221,1.63869,3,0.000177687,11,1.154e-05,-2.7855,0.129141,0.456865,28.91,0.00704221,
2,1,0,1,0,3632.82,0.014778,0.0145258,1.75986,3,0.000497987,11,2.55634e-05,-2.75452,0.293145,0.201266,13.8445,0.0145258,
2,1,0,1,0,3633,0.0222743,0.0220447,1.84232,3,0.000836614,11,4.06134e-05,-2.73463,0.449939,0.131129,9.38233,0.0220447,
2,1,0,1,0,3633.19,0.0297626,0.0294649,1.90546,3,0.00118755,11,5.61442e-05,-2.72,0.528993,0.111533,8.27413,0.0294649,
2,1,0,1,0,3633.38,0.0372544,0.0370029,1.96715,3,0.00155117,11,7.27904e-05,-2.70616,0.501282,0.117698,9.08318,0.03700294,
2,1,0,1,0,3633.56,0.0447472,0.0444946,2.06589,3,0.00192998,11,9.1921e-05,-2.68489,0.322115,0.183165,14.7441,0.0444946,
2,1,0,1,0,3633.75,0.0522345,0.0519584,2.19174,3,0.00232903,11,0.000113879,-2.65921,0.230519,0.255944,21.96,0.0519584,
2,1,0,1,0,3633.94,0.0597309,0.0594543,2.36537,3,0.00275674,11,0.000140631,-2.6261,0.202628,0.291174,26.9139,0.0594543,
2,1,0,1,0,3634.13,0.0672182,0.0669697,2.58949,3,0.00322011,11,0.000173418,-2.58679,0.193854,0.304353,30.5795,0.0669697,
2,1,0,1,0,3634.31,0.0747074,0.0744353,2.81686,3,0.00372604,11,0.000209673,-2.55024,0.211701,0.278695,30.6756,0.0744353,
2,1,0,1,0,3634.5,0.0822019,0.0819218,3.05484,3,0.00427795,11,0.000250258,-2.51501,0.24254,0.243259,29.0195,0.0819218,
2,1,0,1,0,3634.69,0.0896911,0.0893992,3.28664,3,0.00487281,11,0.000293823,-2.48325,0.255801,0.230648,29.5961,0.0893992,
2,1,0,1,0,3634.88,0.097182,0.0968963,3.49684,3,0.00550982,11,0.000338831,-2.45632,0.243469,0.242331,33.1827,0.0968963,
2,1,0,1,0,3635.06,0.104675,0.104357,3.76093,3,0.00618987,11,0.000392478,-2.4247,0.221539,0.266318,39.0007,0.1043565,
2,1,0,1,0,3635.25,0.112162,0.11185,4.10037,3,0.00692382,11,0.000458626,-2.38718,0.173605,0.339853,54.4112,0.11185,
2,1,0,1,0,3635.44,0.119655,0.119386,4.61267,3,0.00773749,11,0.000550691,-2.33605,0.137529,0.429001,77.3285,0.119386,
2,1,0,1,0,3635.62,0.127146,0.126887,5.26308,3,0.00866191,11,0.000667815,-2.27876,0.131274,0.44944,92.3275,0.126887,
2,1,0,1,0,3635.81,0.134635,0.134376,5.95284,3,0.00971473,11,0.000799919,-2.22528,0.159857,0.369079,85.7934,0.134376,
2,1,0,1,0,3636,0.14213,0.141846,6.49576,3,0.0108866,11,0.000921396,-2.18737,0.262792,0.224513,56.8082,0.141846,
2,1,0,1,0,3636.19,0.149619,0.149374,6.69609,3,0.0121293,11,0.00100022,-2.17418,-2.16855,-0.0272072,-7.07945,0.149374,
2,1,0,1,0,3636.37,0.157106,0.156858,6.28355,3,0.0133566,11,0.000985627,-2.20179,-0.132665,-0.44473,-108.572,0.156858,
2,1,0,1,0,3636.56,0.164602,0.164325,5.1466,3,0.0144374,11,0.000845717,-2.28848,-0.063544,-0.92849,-185.777,0.164325,
2,1,0,1,0,3636.75,0.172091,0.171838,3.87108,3,0.0152762,11,0.000665197,-2.41217,-0.0643706,-0.916567,-139.062,0.171838,
2,1,0,1,0,3636.94,0.179582,0.179311,3.08517,3,0.0159217,11,0.000553204,-2.51072,-0.0950646,-0.62063,-75.267,0.179311,
2,1,0,1,0,3637.12,0.187074,0.186811,2.64497,3,0.0164559,11,0.000494109,-2.57758,-0.133161,-0.443074,-45.6532,0.186811,
2,1,0,1,0,3637.31,0.194563,0.194297,2.36861,3,0.0169231,11,0.000460214,-2.62551,-0.190099,-0.310365,-28.6644,0.194297,
2,1,0,1,0,3637.5,0.202059,0.201774,2.18287,3,0.0173488,11,0.000440446,-2.66097,-0.246204,-0.239638,-20.4315,0.201774,
2,1,0,1,0,3637.68,0.209546,0.209278,2.071,3,0.0177468,11,0.000433415,-2.68382,-0.31244,-0.188836,-15.2236,0.209278,
2,1,0,1,0,3637.87,0.217035,0.21673,1.97318,3,0.0181256,11,0.000427646,-2.70483,-0.492269,-0.119853,-9.28883,0.21673,
2,1,0,1,0,3638.06,0.22453,0.224285,1.91739,3,0.0184915,11,0.000430043,-2.71729,-0.594825,-0.0991888,-7.42797,0.2242852,
2,1,0,1,0,3638.25,0.232019,0.231747,1.8726,3,0.0188466,11,0.000433971,-2.72755,-0.87172,-0.0676823,-4.93346,0.231747,
2,1,0,1,0,3638.43,0.23951,0.239287,1.82791,3,0.0191941,11,0.000437395,-2.73804,-1.10107,-0.0535841,-3.84017,0.239287,
2,1,0,1,0,3638.62,0.247003,0.246765,1.80562,3,0.019535,11,0.000445562,-2.74337,-0.865098,-0.0682004,-4.77711,0.246765,
2,1,0,1,0,3638.81,0.25449,0.254207,1.77116,3,0.01987,11,0.00045024,-2.75174,-0.912843,-0.0646333,-4.47274,0.2542066,
2,1,0,1,0,3639,0.261983,0.261719,1.74451,3,0.0202004,11,0.000456574,-2.75833,-1.00219,-0.0588709,-4.02627,0.261719,
2,1,0,1,0,3639.18,0.269474,0.269257,1.72402,3,0.0205263,11,0.000464204,-2.76346,-1.50374,-0.0392355,-2.63405,0.2692568,
2,1,0,1,0,3639.37,0.276963,0.276727,1.70116,3,0.020848,11,0.000470757,-2.76926,-1.52056,-0.0388014,-2.58216,0.276727,
2,1,0,1,0,3639.56,0.284458,0.284167,1.68337,3,0.0211661,11,0.000478359,-2.77382,-2.01743,-0.0292452,-1.92281,0.284167,
2,1,0,1,0,3639.74,0.291947,0.291668,1.66631,3,0.0214802,11,0.00048601,-2.77824,-1.2272,-0.0480771,-3.11459,0.291668,
2,1,0,1,0,3639.93,0.299434,0.299175,1.63823,3,0.0217908,11,0.000490118,-2.78562,-0.00739658,-7.97666,-371.81,0.299175,
2,0,0,1,0,3640.09,0.294196,0.293913,-0.560009,3,0.0217749,11,-0.000164594,-3.25181,-0.0440598,-1.33909,28.7837,0.293913,
2,0,0,1,0,3640.28,0.286701,0.286369,-0.722397,3,0.0216522,11,-0.000206872,-3.14122,-0.0898605,-0.656574,18.519,0.286369,
2,0,0,1,0,3640.47,0.279212,0.278901,-0.833892,3,0.0215047,11,-0.000232573,-3.07889,-0.158762,-0.371625,12.1797,0.278901,
2,0,0,1,0,3640.65,0.271725,0.271419,-0.923905,3,0.0213393,11,-0.000250765,-3.03437,-0.147977,-0.39871,14.2369,0.2714186,
2,0,0,1,0,3640.84,0.264228,0.263962,-0.99351,3,0.0211588,11,-0.000262249,-3.00283,-0.272702,-0.216354,8.38735,0.263962,
2,0,0,1,0,3641.03,0.256741,0.256425,-1.05525,3,0.0209659,11,-0.000270591,-2.97665,-0.382603,-0.154207,6.3649,0.256425,
2,0,0,1,0,3641.21,0.249248,0.248961,-1.12114,3,0.0207612,11,-0.00027912,-2.95034,-0.39013,-0.151232,6.59156,0.248961,
2,0,0,1,0,3641.4,0.241756,0.241456,-1.1665,3,0.0205455,11,-0.000281659,-2.93311,-0.3338,-0.176753,8.13366,0.241456,
2,0,0,1,0,3641.59,0.234268,0.233981,-1.23394,3,0.0203191,11,-0.00028872,-2.90871,-0.339076,-0.174002,8.39761,0.233981,
2,0,0,1,0,3641.78,0.226772,0.226465,-1.30234,3,0.0200811,11,-0.000294934,-2.88528,-0.269311,-0.219078,11.052,0.226465,
2,0,0,1,0,3641.96,0.219284,0.218997,-1.36615,3,0.0198314,11,-0.000299183,-2.8645,-0.330793,-0.178359,9.51442,0.218997,
2,0,0,1,0,3642.15,0.211796,0.211523,-1.44233,3,0.0195684,11,-0.000305087,-2.84093,-0.345141,-0.170945,9.5789,0.211523,
2,0,0,1,0,3642.34,0.204301,0.20398,-1.53069,3,0.0192892,11,-0.000312231,-2.81511,-0.338698,-0.174197,10.4255,0.20398,
2,0,0,1,0,3642.53,0.196812,0.196526,-1.6397,3,0.0189916,11,-0.000322244,-2.78524,-0.222098,-0.265648,17.1189,0.196526,
2,0,0,1,0,3642.71,0.189321,0.189005,-1.79801,3,0.0186691,11,-0.000339833,-2.74521,-0.181154,-0.32569,22.8374,0.189005,
2,0,0,1,0,3642.9,0.181828,0.181562,-2.00634,3,0.0183135,11,-0.000364274,-2.6976,-0.130703,-0.451404,35.3761,0.181562,
2,0,0,1,0,3643.09,0.174341,0.174082,-2.30246,3,0.0179111,11,-0.000400816,-2.63781,-0.109366,-0.539471,48.6022,0.174082,
2,0,0,1,0,3643.27,0.166848,0.166541,-2.76094,3,0.0174395,11,-0.000459809,-2.55894,-0.0884915,-0.66673,71.6136,0.166541,
2,0,0,1,0,3643.46,0.159357,0.159021,-3.43094,3,0.0168634,11,-0.000545592,-2.46459,-0.0739039,-0.798334,107.138,0.159021,
2,0,0,1,0,3643.65,0.151868,0.151551,-4.35573,3,0.0161363,11,-0.000660117,-2.36094,-0.0748547,-0.788194,134.022,0.151551,
2,0,0,1,0,3643.84,0.144373,0.144074,-5.37237,3,0.0152233,11,-0.000774017,-2.26983,-0.0970557,-0.607898,127.248,0.144074,
2,0,0,1,0,3644.02,0.136884,0.136586,-6.19909,3,0.0141341,11,-0.000846708,-2.20767,-0.15959,-0.369696,89.3395,0.136586,
2,0,0,1,0,3644.21,0.129393,0.12906,-6.6479,3,0.0129227,11,-0.000857977,-2.17732,-0.55195,-0.106894,27.617,0.1290599,
2,0,0,1,0,3644.4,0.1219,0.121576,-6.57276,3,0.0116765,11,-0.000799092,-2.18225,0.321737,0.18338,-46.8509,0.121576,
2,0,0,1,0,3644.59,0.114413,0.114103,-6.00502,3,0.0104925,11,-0.000685193,-2.22149,0.137986,0.427579,-100.136,0.114103,
2,0,0,1,0,3644.77,0.10692,0.106609,-5.23224,3,0.00943981,11,-0.000557805,-2.28131,0.124152,0.475224,-97.1195,0.1066092,
2,0,0,1,0,3644.96,0.0994284,0.0991075,-4.62188,3,0.00851972,11,-0.000458063,-2.33518,0.168337,0.350488,-63.3819,0.0991075,
2,0,0,1,0,3645.15,0.0919401,0.0916367,-4.24432,3,0.00769173,11,-0.000388935,-2.37219,0.25551,0.230911,-38.3285,0.0916367,
2,0,0,1,0,3645.33,0.0844447,0.0841299,-4.00209,3,0.00691973,11,-0.000336696,-2.39771,0.350849,0.168163,-26.2327,0.0841299,
2,0,0,1,0,3645.52,0.0769565,0.0766209,-3.78792,3,0.00618991,11,-0.000290234,-2.4216,0.293446,0.201059,-29.7575,0.0766209,
2,0,0,1,0,3645.71,0.0694682,0.069144,-3.56951,3,0.00549953,11,-0.00024681,-2.44739,0.265182,0.222489,-30.9853,0.069144,
2,0,0,1,0,3645.9,0.0619728,0.0616452,-3.32648,3,0.00485195,11,-0.000205062,-2.47801,0.222508,0.265159,-34.4368,0.0616452,
2,0,0,1,0,3646.08,0.0544836,0.0541586,-3.08746,3,0.00425087,11,-0.000167212,-2.5104,0.27262,0.216418,-26.1568,0.0541586,
2,0,0,1,0,3646.27,0.0469927,0.0466968,-2.90811,3,0.00368951,11,-0.0001358,-2.53639,0.309747,0.190478,-21.5576,0.0466968,
2,0,0,1,0,3646.46,0.0394999,0.0391674,-2.78109,3,0.00315794,11,-0.000108928,-2.55578,0.499703,0.11807,-12.7937,0.0391674,
2,0,0,1,0,3646.65,0.0320125,0.0316902,-2.70154,3,0.00264482,11,-8.56124e-05,-2.56839,0.874477,0.0674689,-7.13097,0.0316902,
2,0,0,1,0,3646.83,0.0245198,0.0241893,-2.6765,3,0.00214065,11,-6.47428e-05,-2.57243,1.96295,0.0300569,-3.13569,0.0241893,
2,0,0,1,0,3647.02,0.0170289,0.0167147,-2.6737,3,0.00163879,11,-4.46901e-05,-2.57289,-1.67661,-0.0351901,3.69168,0.0167147,
2,0,0,1,0,3647.21,0.0095397,0.00924339,-2.70828,3,0.00113374,11,-2.50337e-05,-2.56731,-0.990969,-0.0595377,6.28806,0.00924339,
2,0,0,1,0,3647.39,0.00204518,0.00170032,-2.82287,3,0.000621015,11,-4.79977e-06,-2.54931,-0.594391,-0.0992613,10.6796,0.00170032,
2,0,0,1,0,3647.44,0.000177222,-0.000181023,-2.77784,3,0.000490294,11,5.02853e-07,-2.55629, , , ,-0.0001810234,