File: Figure_codes/Fig_3-5/rawdata_trumpetplot_data/before 10th/20221101_1-115_002_TrumpetPlot_ParaChange_16_CV_C01_1.csv
mode,ox/red,error,control changes,counter inc.,time/s,control/V,Ewe/V,<I>/mA,cycle number,(Q-Qo)/C,I Range,P/W,log(|I|),Tafel slope mV/dec,alpha_eff,dI/d(E-IR),E-IR/V,
2,1,0,1,0,2450.71,2.44065e-05,-0.00168052,58.7768,2,0.0000000E+000,10,-9.87758e-05,-1.23079, , , ,-0.00168052,
2,1,0,1,0,2450.72,0.0131086,0.0127389,56.6027,2,0.00075118,10,0.000721056,-1.24716,-8.00253,-0.00737267,-16.4145,0.0127389,
2,1,0,1,0,2450.73,0.0271416,0.0267787,57.1386,2,0.00154706,10,0.00153009,-1.24307,3.47068,0.0169995,37.849,0.0267787,
2,1,0,1,0,2450.75,0.0411248,0.040775,57.4191,2,0.00234954,10,0.00234126,-1.24094,85.1392,0.000692983,1.55042,0.040775,
2,1,0,1,0,2450.76,0.0551079,0.0547681,57.4829,2,0.00315324,10,0.00314823,-1.24046,5.49696,0.0107332,24.1193,0.0547681,
2,1,0,1,0,2450.78,0.0691409,0.0688248,57.9285,2,0.00396114,10,0.00398692,-1.23711,3.39809,0.0173627,39.2705,0.0688248,
2,1,0,1,0,2450.79,0.083124,0.0828148,58.7553,2,0.00477682,10,0.00486581,-1.23095,1.43816,0.0410245,94.3164,0.0828148,
2,1,0,1,0,2450.8,0.0971071,0.0968206,60.6152,2,0.00561122,10,0.0058688,-1.21742,0.759491,0.0776836,184.546,0.09682063,
2,1,0,1,0,2450.82,0.11114,0.110805,63.8382,2,0.0064814,10,0.00707361,-1.19492,0.540155,0.109228,272.728,0.110805,
2,1,0,1,0,2450.83,0.125123,0.124797,68.217,2,0.00740473,10,0.0085133,-1.16611,0.443477,0.13304,354.85,0.124797,
2,1,0,1,0,2450.85,0.139106,0.138769,73.6911,2,0.00839734,10,0.0102261,-1.13259,0.388413,0.1519,437.928,0.138769,
2,1,0,1,0,2450.86,0.153139,0.152801,80.3698,2,0.00947547,10,0.0122805,-1.09491,0.360684,0.163578,513.919,0.152801,
2,1,0,1,0,2450.87,0.167123,0.166762,88.2028,2,0.0106548,10,0.0147089,-1.05452,0.337781,0.174669,601.934,0.166762,
2,1,0,1,0,2450.89,0.181106,0.180753,97.1546,2,0.0119522,10,0.017561,-1.01254,0.336095,0.175545,665.807,0.180753,
2,1,0,1,0,2450.9,0.195139,0.19477,106.572,2,0.0133799,10,0.0207571,-0.972356,0.382294,0.154331,640.333,0.19477,
2,1,0,1,0,2450.92,0.209122,0.208756,114.719,2,0.0149323,10,0.0239483,-0.940365,0.561053,0.105159,467.944,0.208756,
2,1,0,1,0,2450.93,0.223105,0.222811,118.856,2,0.0165742,10,0.0264825,-0.924977,5.07677,0.0116216,53.3403,0.222811,
2,1,0,1,0,2450.94,0.237138,0.236939,115.204,2,0.0182239,10,0.0272962,-0.938533,-0.41352,-0.142677,-631.487,0.236939,
2,1,0,1,0,2450.96,0.251121,0.250984,101.23,2,0.0197488,10,0.0254071,-0.994691,-0.177021,-0.333295,-1296.28,0.2509836,
2,1,0,1,0,2450.97,0.265104,0.264997,80.1647,2,0.0210207,10,0.0212434,-1.09602,-0.118059,-0.49975,-1551.79,0.264997,
2,1,0,1,0,2450.99,0.279137,0.279006,59.1793,2,0.0219901,10,0.0165114,-1.22783,-0.10329,-0.571208,-1328.61,0.279006,
2,1,0,1,0,2451,0.29312,0.292884,44.0833,2,0.0227029,10,0.0129113,-1.35573,-0.124208,-0.47501,-841.004,0.2928845,
2,1,0,1,0,2451.01,0.298714,0.298794,34.1123,2,0.0230354,10,0.0101926,-1.46709,0.0111638,5.28496,4034.39,0.298794,
2,0,0,1,0,2451.02,0.28473,0.284642,-4.51487,2,0.0231961,10,-0.00128512,-2.34535,-0.321722,-0.183388,1697.93,0.284642,
2,0,0,1,0,2451.04,0.270747,0.270551,-19.1161,2,0.0230133,10,-0.00517189,-1.7186,-0.0603076,-0.978318,658.644,0.270551,
2,0,0,1,0,2451.05,0.256714,0.256481,-24.9111,2,0.0226981,10,-0.00638921,-1.60361,-0.210098,-0.280822,267.08,0.256481,
2,0,0,1,0,2451.06,0.242731,0.242482,-27.4811,2,0.0223293,10,-0.00666368,-1.56097,-0.454945,-0.129686,138.159,0.242482,
2,0,0,1,0,2451.08,0.228748,0.228527,-29.0803,2,0.0219329,10,-0.00664565,-1.5364,-0.594894,-0.0991773,112.655,0.228527,
2,0,0,1,0,2451.09,0.214715,0.214436,-30.6844,2,0.021514,10,-0.00657982,-1.51308,-0.586115,-0.100663,120.854,0.214436,
2,0,0,1,0,2451.11,0.200732,0.200493,-32.6723,2,0.0210711,10,-0.00655058,-1.48582,-0.451941,-0.130548,166.902,0.200493,
2,0,0,1,0,2451.12,0.186735,0.186501,-35.4823,2,0.0205954,10,-0.00661749,-1.44999,-0.331119,-0.178183,247.986,0.186501,
2,0,0,1,0,2451.13,0.172716,0.172491,-39.6169,2,0.0200706,10,-0.00683356,-1.40212,-0.260417,-0.22656,352.48,0.172491,
2,0,0,1,0,2451.15,0.158733,0.158507,-45.5298,2,0.0194764,10,-0.00721677,-1.3417,-0.211651,-0.278761,498.019,0.158507,
2,0,0,1,0,2451.16,0.144719,0.144524,-53.6703,2,0.018784,10,-0.00775665,-1.27027,-0.187588,-0.31452,660.782,0.144524,
2,0,0,1,0,2451.18,0.130717,0.130534,-63.9218,2,0.017962,10,-0.00834398,-1.19435,-0.185811,-0.317527,792.453,0.130534,
2,0,0,1,0,2451.19,0.116733,0.116651,-75.4022,2,0.0169855,10,-0.00879577,-1.12262,-0.205261,-0.287438,844.985,0.1166513,
2,0,0,1,0,2451.2,0.102703,0.102612,-87.358,2,0.0158453,10,-0.00896394,-1.0587,-0.243386,-0.242414,822.511,0.102612,
2,0,0,1,0,2451.22,0.0887173,0.0885579,-98.3218,2,0.0145435,10,-0.00870718,-1.00735,-0.315126,-0.187227,714.477,0.0885579,
2,0,0,1,0,2451.23,0.0747341,0.0745309,-106.944,2,0.013102,10,-0.00797063,-0.970843,-0.50125,-0.117706,488.159,0.0745309,
2,0,0,1,0,2451.25,0.0607011,0.0604837,-111.815,2,0.0115656,10,-0.006763,-0.951499,-1.49422,-0.0394854,170.905,0.0604837,
2,0,0,1,0,2451.26,0.046718,0.0464556,-111.543,2,0.00999627,10,-0.00518179,-0.952558,1.3277,0.0444378,-192.109,0.0464556,
2,0,0,1,0,2451.27,0.0327349,0.0324455,-106.717,2,0.00846467,10,-0.00346249,-0.971765,0.536625,0.109946,-455.966,0.0324455,
2,0,0,1,0,2451.29,0.0187018,0.0184184,-99.3797,2,0.00702134,10,-0.00183042,-1.0027,0.398523,0.148047,-572.555,0.01841842,
2,0,0,1,0,2451.3,0.00471873,0.00441787,-90.8748,2,0.00568972,10,-0.000401473,-1.04156,0.337434,0.174849,-619.287,0.00441787,
2,0,0,1,0,2451.32,-0.00926438,-0.00960495,-82.0624,2,0.00447957,10,0.000788205,-1.08586,0.303384,0.194473,-622.922,-0.00960495,
2,0,0,1,0,2451.33,-0.0232974,-0.0236235,-73.9149,2,0.00339036,10,0.00174613,-1.13127,0.330517,0.178508,-516.641,-0.0236235,
2,0,0,1,0,2451.34,-0.0372805,-0.0375817,-67.8361,2,0.002402,10,0.00254939,-1.16854,0.467755,0.126134,-335.902,-0.03758166,
2,0,0,1,0,2451.36,-0.0512636,-0.0515981,-64.4493,2,0.00147933,10,0.00332546,-1.19078,0.922899,0.063929,-161.578,-0.0515981,
2,0,0,1,0,2451.37,-0.0652967,-0.0655446,-63.2171,2,0.000588064,10,0.00414354,-1.19917,4.12618,0.0142989,-35.3756,-0.0655446,
2,0,0,1,0,2451.39,-0.0792798,-0.0795356,-63.2535,2,-0.000296003,10,0.00503091,-1.19892,-4.20781,-0.0140215,34.6793,-0.0795356,
2,0,0,1,0,2451.4,-0.0932629,-0.0935256,-64.1276,2,-0.0011868,10,0.00599757,-1.19296,-1.74046,-0.0338991,84.9348,-0.0935256,
2,0,0,1,0,2451.41,-0.107296,-0.107578,-65.6133,2,-0.0020944,10,0.00705855,-1.18301,-1.26245,-0.0467345,119.703,-0.107578,
2,0,0,1,0,2451.43,-0.121279,-0.121565,-67.3863,2,-0.00302522,10,0.00819181,-1.17143,-1.14631,-0.0514694,135.42,-0.121565,
2,0,0,1,0,2451.44,-0.135262,-0.135556,-69.4527,2,-0.0039828,10,0.00941472,-1.15831,-1.01373,-0.0582007,157.798,-0.135556,
2,0,0,1,0,2451.46,-0.149295,-0.14958,-71.8477,2,-0.00497172,10,0.010747,-1.14359,-0.93239,-0.0632783,177.393,-0.14958,
2,0,0,1,0,2451.47,-0.163278,-0.163555,-74.363,2,-0.00599534,10,0.0121624,-1.12864,-0.909587,-0.0648646,188.348,-0.163555,
2,0,0,1,0,2451.48,-0.177261,-0.177466,-77.1422,2,-0.0070558,10,0.0136901,-1.11271,-0.838931,-0.0703276,211.847,-0.1774663,
2,0,0,1,0,2451.5,-0.191295,-0.191529,-80.3963,2,-0.00815816,10,0.0153983,-1.09476,-0.742542,-0.0794568,249.325,-0.191529,
2,0,0,1,1,2451.51,-0.199984,-0.200437,-82.345,2,-0.00891678,10,0.016505,-1.08436,-0.0291291,-2.02547,5478.86,-0.2004368,
2,0,0,1,1,2451.52,-0.186686,-0.187179,-41.9124,2,-0.00970264,10,0.0078451,-1.37766,-0.0375192,-1.57253,2498.61,-0.187179,
2,0,0,1,1,2451.53,-0.172667,-0.173102,-12.3549,2,-0.0100683,10,0.00213866,-1.90816,-0.0103554,-5.69752,1814.7,-0.173102,
2,1,0,1,1,2451.55,-0.158684,-0.159188,9.43363,2,-0.0100796,10,-0.00150172,-2.02532,0.0169593,3.47892,1367.42,-0.159188,
2,1,0,1,1,2451.56,-0.14467,-0.1452,26.137,2,-0.00982471,10,-0.00379509,-1.58275,0.0538975,1.09467,1048.79,-0.1452,
2,1,0,1,1,2451.58,-0.130668,-0.131068,38.983,2,-0.0093629,10,-0.00510943,-1.40913,0.111531,0.529,786.171,-0.131068,
2,1,0,1,1,2451.59,-0.116685,-0.117079,48.4264,2,-0.00874699,10,-0.00566973,-1.31492,0.189748,0.310938,580.672,-0.117079,
2,1,0,1,1,2451.6,-0.102654,-0.103038,55.3766,2,-0.00801747,10,-0.00570592,-1.25667,0.303195,0.194594,417.345,-0.103038,
2,1,0,1,1,2451.62,-0.0886685,-0.0890146,60.2168,2,-0.00720558,10,-0.00536017,-1.22028,0.485864,0.121433,284.045,-0.0890146,
2,1,0,1,1,2451.63,-0.0746854,-0.0750564,63.4954,2,-0.00633781,10,-0.00476574,-1.19726,0.761627,0.0774657,191.318,-0.0750564,
2,1,0,1,1,2451.65,-0.0606523,-0.0609827,65.7101,2,-0.00543259,10,-0.00400718,-1.18237,1.20513,0.0489574,125.197,-0.0609827,
2,1,0,1,1,2451.66,-0.0466692,-0.0470203,66.9756,2,-0.0045028,10,-0.00314921,-1.17408,2.35687,0.0250332,65.3232,-0.0470203,
2,1,0,1,1,2451.67,-0.0326861,-0.0330664,67.5908,2,-0.00356013,10,-0.00223499,-1.17011,6.58142,0.00896463,23.6144,-0.0330664,
2,1,0,1,1,2451.69,-0.018653,-0.018962,67.7619,2,-0.00261253,10,-0.0012849,-1.16901,-24.4776,-0.00241037,-6.36219,-0.018962,
2,1,0,1,1,2451.7,-0.00466992,-0.00501338,67.3373,2,-0.00166622,10,-0.000337588,-1.17174, , , ,-0.00501338,
2,1,0,1,1,2451.71,-0.000175352,-0.000535284,67.0986,2,-0.00136369,10,-3.59168e-05,-1.17329, , , ,-0.000535284,