File: Figure_codes/Fig_3-5/rawdata_trumpetplot_data/before 10th/20221101_1-115_002_TrumpetPlot_ParaChange_06_CV_C01_2.csv
mode,ox/red,error,control changes,counter inc.,time/s,control/V,Ewe/V,<I>/mA,cycle number,(Q-Qo)/C,I Range,P/W,log(|I|),Tafel slope mV/dec,alpha_eff,dI/d(E-IR),E-IR/V,
2,0,0,1,0,3542.24,2.44065e-05,-0.0002108,-0.526313,3,0.0000000E+000,11,1.10947e-07,-3.27876, , , ,-0.0002108,
2,1,0,1,0,3542.97,0.00729063,0.00701587,0.401329,3,0.000245366,11,2.81567e-06,-3.3965,0.110098,0.535887,8.2994,0.00701587,
2,1,0,1,0,3543.72,0.0147814,0.0144682,0.444774,3,0.000574263,11,6.43508e-06,-3.35186,0.200152,0.294776,5.12469,0.0144682,
2,1,0,1,0,3544.47,0.0222725,0.0219867,0.470828,3,0.000928682,11,1.0352e-05,-3.32714,0.363632,0.162252,2.98186,0.0219867,
2,1,0,1,0,3545.22,0.0297635,0.029467,0.494202,3,0.00130063,11,1.45627e-05,-3.3061,0.379708,0.155382,2.99421,0.029467,
2,1,0,1,0,3545.97,0.0372544,0.0369501,0.517966,3,0.00168901,11,1.91389e-05,-3.2857,0.43346,0.136114,2.74946,0.0369501,
2,1,0,1,0,3546.72,0.0447458,0.0444615,0.544917,3,0.0020965,11,2.42278e-05,-3.26367,0.242829,0.242969,5.179,0.0444615,
2,1,0,1,0,3547.47,0.0522363,0.0518827,0.584814,3,0.00252916,11,3.03417e-05,-3.23298,0.202171,0.291832,6.63656,0.0518827,
2,1,0,1,0,3548.21,0.0597282,0.0594593,0.635216,3,0.00299547,11,3.77695e-05,-3.19708,0.188319,0.313298,7.76319,0.0594593,
2,1,0,1,0,3548.96,0.0672182,0.0669384,0.699277,3,0.00350408,11,4.68084e-05,-3.15535,0.180265,0.327297,8.88696,0.0669384,
2,1,0,1,0,3549.71,0.0747092,0.0744333,0.766537,3,0.00406158,11,5.70559e-05,-3.11547,0.190277,0.310074,9.25427,0.0744333,
2,1,0,1,0,3550.46,0.0822001,0.0819177,0.827376,3,0.00466997,11,6.77767e-05,-3.0823,0.21766,0.271065,8.78504,0.0819177,
2,1,0,1,0,3551.21,0.0896911,0.0894073,0.892246,3,0.0053252,11,7.97734e-05,-3.04952,0.251692,0.234413,8.16802,0.0894073,
2,1,0,1,0,3551.96,0.097182,0.0969023,0.952048,3,0.00602623,11,9.22557e-05,-3.02134,0.208089,0.283533,10.5464,0.0969023,
2,1,0,1,0,3552.71,0.104673,0.104371,1.0311,3,0.00677632,11,0.000107617,-2.9867,0.189786,0.310876,12.4658,0.104371,
2,1,0,1,0,3553.46,0.112164,0.111923,1.14308,3,0.00759662,11,0.000127937,-2.94192,0.147471,0.400079,17.8349,0.111923,
2,1,0,1,0,3554.21,0.119655,0.119353,1.31276,3,0.00852292,11,0.000156682,-2.88182,0.129772,0.454644,23.3305,0.1193532,
2,1,0,1,0,3554.96,0.127146,0.126858,1.51411,3,0.00959355,11,0.000192076,-2.81984,0.122579,0.481321,28.5382,0.1268577,
2,1,0,1,0,3555.71,0.134637,0.134345,1.70844,3,0.0108165,11,0.00022952,-2.7674,0.19349,0.304926,20.3169,0.134345,
2,1,0,1,0,3556.45,0.142127,0.141871,1.80571,3,0.0121504,11,0.000256179,-2.74335,0.69212,0.0852453,5.98284,0.141871,
2,1,0,1,0,3557.2,0.149619,0.149349,1.7426,3,0.0135015,11,0.000260256,-2.7588,-0.183981,-0.320685,-21.6937,0.149349,
2,1,0,1,0,3557.95,0.157109,0.156806,1.49062,3,0.014732,11,0.000233738,-2.82663,-0.0756941,-0.779453,-45.08,0.156806,
2,1,0,1,0,3558.7,0.164601,0.164344,1.16125,3,0.0157321,11,0.000190844,-2.93507,-0.0669301,-0.881517,-39.9202,0.164344,
2,1,0,1,0,3559.45,0.172091,0.171822,0.913967,3,0.0165122,11,0.000157039,-3.03907,-0.0869699,-0.678395,-24.3522,0.171822,
2,1,0,1,0,3560.2,0.179582,0.179317,0.77347,3,0.0171504,11,0.000138696,-3.11156,-0.125197,-0.471258,-14.2843,0.179317,
2,1,0,1,0,3560.95,0.187074,0.186792,0.690272,3,0.0177064,11,0.000128937,-3.16098,-0.204428,-0.28861,-7.76438,0.1867919,
2,1,0,1,0,3561.7,0.194564,0.194291,0.635777,3,0.0182117,11,0.000123526,-3.1967,-0.25438,-0.231937,-5.76921,0.194291,
2,1,0,1,0,3562.45,0.202056,0.201798,0.599891,3,0.0186838,11,0.000121057,-3.22193,-0.351898,-0.167662,-3.9182,0.201798,
2,1,0,1,0,3563.2,0.209546,0.209275,0.575723,3,0.0191333,11,0.000120484,-3.23979,-0.431059,-0.136872,-3.07111,0.209275,
2,1,0,1,0,3563.95,0.217038,0.216794,0.553363,3,0.0195658,11,0.000119966,-3.25699,-0.695278,-0.0848581,-1.83948,0.216794,
2,1,0,1,0,3564.69,0.224528,0.22426,0.540106,3,0.0199862,11,0.000121124,-3.26752,-0.734341,-0.0803441,-1.69228,0.22426,
2,1,0,1,0,3565.44,0.232019,0.231775,0.529208,3,0.0203967,11,0.000122657,-3.27637,-0.862124,-0.0684356,-1.41133,0.231775,
2,1,0,1,0,3566.19,0.23951,0.239246,0.518667,3,0.0207995,11,0.000124089,-3.28511,-1.2969,-0.0454931,-0.921192,0.239246,
2,1,0,1,0,3566.94,0.247001,0.246726,0.511091,3,0.0211957,11,0.000126099,-3.2915,-0.704769,-0.0837153,-1.66959,0.246726,
2,1,0,1,0,3567.69,0.254492,0.254205,0.503528,3,0.0215861,11,0.000127999,-3.29798,-1.18715,-0.0496989,-0.980049,0.254205,
2,1,0,1,0,3568.44,0.261983,0.2617,0.498277,3,0.0219715,11,0.000130399,-3.30253,-1.51193,-0.0390229,-0.7584,0.2617,
2,1,0,1,0,3569.19,0.269474,0.269171,0.489903,3,0.0223525,11,0.000131868,-3.30989,-248.662,-0.00023727,-0.00454388,0.269171,
2,1,0,1,0,3569.94,0.276965,0.276688,0.487336,3,0.0227294,11,0.00013484,-3.31217,-0.761038,-0.0775257,-1.47878,0.276688,
2,1,0,1,0,3570.69,0.284456,0.284186,0.482691,3,0.0231025,11,0.000137174,-3.31633,-4.89959,-0.0120418,-0.226011,0.284186,
2,1,0,1,0,3571.44,0.291947,0.291688,0.477649,3,0.023472,11,0.000139325,-3.32089,-1.16257,-0.0507498,-0.947683,0.291688,
2,1,0,1,0,3572.19,0.299437,0.299189,0.471231,3,0.0238382,11,0.000140987,-3.32677,-0.00117591,-50.174,-281.223,0.299189,
2,0,0,1,0,3572.87,0.293745,0.29348,-0.112282,3,0.0238208,11,-3.29526e-05,-3.94969,-0.026248,-2.24779,9.51252,0.29348,
2,0,0,1,0,3573.62,0.286253,0.285943,-0.159382,3,0.0237065,11,-4.55741e-05,-3.79756,-0.0688225,-0.857278,5.37926,0.285943,
2,0,0,1,0,3574.37,0.278763,0.278464,-0.195022,3,0.0235621,11,-5.43066e-05,-3.70992,-0.108341,-0.544578,4.11873,0.278464,
2,0,0,1,0,3575.12,0.271272,0.270995,-0.221591,3,0.0233958,11,-6.005e-05,-3.65445,-0.153159,-0.38522,3.30706,0.270995,
2,0,0,1,0,3575.87,0.263781,0.263445,-0.242397,3,0.0232112,11,-6.38585e-05,-3.61547,-0.205109,-0.287652,2.74389,0.263445,
2,0,0,1,0,3576.62,0.25629,0.255998,-0.264123,3,0.0230107,11,-6.76151e-05,-3.57819,-0.276892,-0.213079,2.18645,0.255998,
2,0,0,1,0,3577.36,0.248799,0.248499,-0.282724,3,0.0227955,11,-7.02567e-05,-3.54864,-0.312386,-0.188869,2.08582,0.248499,
2,0,0,1,0,3578.11,0.241308,0.240979,-0.302301,3,0.0225662,11,-7.2848e-05,-3.51956,-0.271567,-0.217258,2.56068,0.240979,
2,0,0,1,0,3578.86,0.233817,0.233504,-0.320384,3,0.0223232,11,-7.4811e-05,-3.49433,-0.250864,-0.235188,2.92071,0.233504,
2,0,0,1,0,3579.61,0.226326,0.226052,-0.340228,3,0.0220659,11,-7.69093e-05,-3.46823,-0.347044,-0.170007,2.26244,0.226052,
2,0,0,1,0,3580.36,0.218835,0.21852,-0.361525,3,0.0217935,11,-7.90006e-05,-3.44186,-0.245879,-0.239955,3.37251,0.21852,
2,0,0,1,0,3581.11,0.211344,0.211045,-0.383031,3,0.0215049,11,-8.08369e-05,-3.41677,-0.291282,-0.202553,3.04221,0.211045,
2,0,0,1,0,3581.86,0.203854,0.203518,-0.411647,3,0.0211967,11,-8.37776e-05,-3.38548,-0.238701,-0.247171,3.99241,0.203518,
2,0,0,1,0,3582.61,0.196362,0.196077,-0.445631,3,0.0208658,11,-8.73779e-05,-3.35102,-0.198128,-0.297787,5.17039,0.196077,
2,0,0,1,0,3583.36,0.188872,0.188552,-0.490969,3,0.020505,11,-9.25734e-05,-3.30895,-0.14527,-0.406141,7.7877,0.188552,
2,0,0,1,0,3584.11,0.18138,0.181085,-0.556411,3,0.0201042,11,-0.000100758,-3.2546,-0.130474,-0.452196,9.81836,0.181085,
2,0,0,1,0,3584.86,0.17389,0.173567,-0.647082,3,0.0196465,11,-0.000112312,-3.18904,-0.0984291,-0.599417,15.1577,0.173567,
2,0,0,1,0,3585.6,0.166398,0.166085,-0.789997,3,0.0191019,11,-0.000131207,-3.10237,-0.0827635,-0.712874,22.0937,0.166085,
2,0,0,1,0,3586.35,0.158907,0.158621,-1.01214,3,0.0184209,11,-0.000160547,-2.99476,-0.0650868,-0.906481,35.9601,0.158621,
2,0,0,1,0,3587.1,0.151417,0.151128,-1.31949,3,0.0175379,11,-0.000199412,-2.8796,-0.071958,-0.819923,42.2286,0.151128,
2,0,0,1,0,3587.85,0.143925,0.143657,-1.61389,3,0.0164233,11,-0.000231847,-2.79213,-0.104122,-0.566641,35.5416,0.143657,
2,0,0,1,0,3588.6,0.136435,0.136136,-1.79186,3,0.0151278,11,-0.000243937,-2.7467,-0.322647,-0.182862,12.7258,0.136136,
2,0,0,1,0,3589.35,0.128943,0.128675,-1.80375,3,0.0137628,11,-0.000232098,-2.74382,0.40015,0.147445,-10.3164,0.1286754,
2,0,0,1,0,3590.1,0.121453,0.121146,-1.66332,3,0.0124481,11,-0.000201505,-2.77902,0.153404,0.384606,-24.9476,0.121146,
2,0,0,1,0,3590.85,0.113962,0.113641,-1.46213,3,0.0112648,11,-0.000166158,-2.83501,0.128551,0.458963,-26.3056,0.1136408,
2,0,0,1,0,3591.6,0.106471,0.106181,-1.29776,3,0.0102226,11,-0.000137798,-2.8868,0.17,0.34706,-17.6707,0.106181,
2,0,0,1,0,3592.35,0.0989798,0.0987071,-1.19054,3,0.0092836,11,-0.000117515,-2.92425,0.254656,0.231685,-10.7434,0.09870708,
2,0,0,1,0,3593.1,0.0914889,0.0911655,-1.1218,3,0.00841124,11,-0.00010227,-2.95008,0.361402,0.163253,-7.11872,0.0911655,
2,0,0,1,0,3593.84,0.083998,0.0836705,-1.06336,3,0.0075852,11,-8.89717e-05,-2.97332,0.287401,0.205288,-8.4983,0.0836705,
2,0,0,1,0,3594.59,0.076507,0.0761809,-1.00639,3,0.0068001,11,-7.66679e-05,-2.99723,0.266503,0.221385,-8.68467,0.0761809,
2,0,0,1,0,3595.34,0.069016,0.0687315,-0.938936,3,0.0060599,11,-6.45345e-05,-3.02736,0.25546,0.230956,-8.52672,0.0687315,
2,0,0,1,0,3596.09,0.0615251,0.0612175,-0.878775,3,0.00536696,11,-5.37964e-05,-3.05612,0.275282,0.214326,-7.37183,0.0612175,
2,0,0,1,0,3596.84,0.0540341,0.0537649,-0.827438,3,0.00471891,11,-4.44872e-05,-3.08226,0.294363,0.200433,-6.46008,0.0537649,
2,0,0,1,0,3597.59,0.0465441,0.0462412,-0.783997,3,0.0041058,11,-3.6253e-05,-3.10569,0.438228,0.134633,-4.13343,0.0462412,
2,0,0,1,0,3598.34,0.0390523,0.0387358,-0.763459,3,0.00351624,11,-2.95732e-05,-3.11721,0.445637,0.132395,-3.93262,0.0387358,
2,0,0,1,0,3599.09,0.0315618,0.0312687,-0.752955,3,0.0029398,11,-2.3544e-05,-3.12323,4.49459,0.0131269,-0.385347,0.0312687,
2,0,0,1,0,3599.84,0.0240704,0.0237798,-0.749035,3,0.00236759,11,-1.78119e-05,-3.1255,24.2783,0.00243015,-0.0714013,0.0237798,
2,0,0,1,0,3600.59,0.0165796,0.0163317,-0.75881,3,0.00179286,11,-1.23926e-05,-3.11987,-0.908922,-0.0649121,1.92236,0.0163317,
2,0,0,1,0,3601.34,0.00908845,0.00879735,-0.76947,3,0.00121032,11,-6.7693e-06,-3.11381,-0.888359,-0.0664146,1.99751,0.00879735,
2,0,0,1,0,3602.08,0.00159728,0.00129467,-0.798608,3,0.000614355,11,-1.03393e-06,-3.09767, , , ,0.00129467,
2,0,0,1,0,3602.22,0.000199195,-0.000147811,-0.791789,3,0.000501529,11,1.17036e-07,-3.10139, , , ,-0.000147811,