File: Figure_codes/Fig_3-5/rawdata_trumpetplot_data/before 10th/20221101_1-115_002_TrumpetPlot_ParaChange_11_CV_C01_4.csv
mode,ox/red,error,control changes,counter inc.,time/s,control/V,Ewe/V,<I>/mA,cycle number,(Q-Qo)/C,I Range,P/W,log(|I|),Tafel slope mV/dec,alpha_eff,dI/d(E-IR),E-IR/V,
2,0,0,1,0,6128.5,2.44065e-05,0.000686305,-7.23525,5,0.0000000E+000,11,-4.96559e-06,-2.14055, , , ,0.000686305,
2,1,0,1,0,6128.6,0.00978761,0.00950464,3.32443,5,2.08022e-05,11,3.15976e-05,-2.47828,0.0362935,1.62563,203.037,0.00950464,
2,1,0,1,0,6128.7,0.0197755,0.0195226,4.13857,5,0.000405898,11,8.07955e-05,-2.38315,0.294184,0.200554,32.4224,0.0195226,
2,1,0,1,0,6128.8,0.0297635,0.0294895,4.44125,5,0.000835322,11,0.00013097,-2.35249,0.369171,0.159818,27.6512,0.0294895,
2,1,0,1,0,6128.9,0.0397514,0.0394265,4.74933,5,0.00129408,11,0.000187249,-2.32337,0.263302,0.224077,41.645,0.0394265,
2,1,0,1,0,6129,0.0497484,0.0494566,5.18892,5,0.0017894,11,0.000256626,-2.28492,0.234804,0.251273,50.7802,0.0494566,
2,1,0,1,0,6129.1,0.0597273,0.0594123,5.74488,5,0.0023336,11,0.000341317,-2.24072,0.200178,0.294738,66.0225,0.0594123,
2,1,0,1,0,6129.2,0.0697152,0.0694359,6.41937,5,0.00294109,11,0.000445735,-2.19251,0.221289,0.26662,66.8889,0.0694359,
2,1,0,1,0,6129.3,0.0797031,0.0794649,7.14385,5,0.00361893,11,0.000567685,-2.14607,0.229693,0.256865,71.5626,0.0794649,
2,1,0,1,0,6129.4,0.0896911,0.0894307,7.81158,5,0.00436699,11,0.000698595,-2.10726,0.273135,0.21601,65.9088,0.0894307,
2,1,0,1,0,6129.5,0.099679,0.0994167,8.45685,5,0.00517886,11,0.000840752,-2.07279,0.300946,0.196048,64.6171,0.0994167,
2,1,0,1,0,6129.6,0.109667,0.109306,9.19546,5,0.0060585,11,0.00100512,-2.03643,0.24738,0.238499,85.6656,0.109306,
2,1,0,1,0,6129.7,0.119655,0.119354,10.2931,5,0.00702809,11,0.00122853,-1.98745,0.189222,0.311802,125.299,0.119354,
2,1,0,1,0,6129.8,0.129643,0.129366,11.7216,5,0.00812612,11,0.00151637,-1.93101,0.176367,0.334531,152.948,0.129366,
2,1,0,1,0,6129.9,0.139631,0.139335,13.1766,5,0.00937216,11,0.00183597,-1.8802,0.225219,0.261968,134.738,0.139335,
2,1,0,1,0,6130,0.149619,0.14932,14.291,5,0.0107481,11,0.00213394,-1.84494,0.430874,0.136931,76.2067,0.14932,
2,1,0,1,0,6130.1,0.159607,0.159332,14.3158,5,0.0121907,11,0.00228096,-1.84418,-0.338054,-0.174528,-97.2293,0.159332,
2,1,0,1,0,6130.2,0.169595,0.169299,12.0602,5,0.01353,11,0.00204177,-1.91865,-0.0796865,-0.740401,-346.859,0.169299,
2,1,0,1,0,6130.3,0.179582,0.179328,8.46884,5,0.0145505,11,0.0015187,-2.07218,-0.0649198,-0.908814,-301.58,0.179328,
2,1,0,1,0,6130.4,0.18957,0.189255,6.44375,5,0.0152809,11,0.00121951,-2.19086,-0.115347,-0.511502,-128.895,0.189255,
2,1,0,1,0,6130.5,0.199558,0.19926,5.52233,5,0.0158732,11,0.00110038,-2.25788,-0.196046,-0.30095,-64.8565,0.19926,
2,1,0,1,0,6130.6,0.209546,0.209291,4.98056,5,0.0163957,11,0.00104239,-2.30272,-0.229135,-0.25749,-50.0926,0.209291,
2,1,0,1,0,6130.7,0.219534,0.219248,4.61957,5,0.0168737,11,0.00101283,-2.3354,-0.377763,-0.156183,-28.1833,0.219248,
2,1,0,1,0,6130.8,0.229522,0.229246,4.38203,5,0.0173232,11,0.00100456,-2.35832,-0.506179,-0.11656,-19.9695,0.229246,
2,1,0,1,0,6130.9,0.23951,0.239226,4.2342,5,0.0177537,11,0.00101293,-2.37323,-0.983781,-0.0599727,-9.91398,0.239226,
2,1,0,1,0,6131,0.249498,0.249212,4.12605,5,0.0181708,11,0.00102826,-2.38447,-0.932669,-0.0632593,-10.1748,0.249212,
2,1,0,1,0,6131.1,0.259486,0.25924,4.03706,5,0.0185783,11,0.00104657,-2.39393,-0.717397,-0.0822417,-12.9398,0.25924,
2,1,0,1,0,6131.2,0.269474,0.269185,3.95643,5,0.0189775,11,0.00106501,-2.4027,-1.25248,-0.0471064,-7.27859,0.269185,
2,1,0,1,0,6131.3,0.279462,0.279194,3.8883,5,0.0193697,11,0.00108559,-2.41024,-1.30629,-0.0451661,-6.85885,0.279194,
2,1,0,1,0,6131.4,0.28945,0.289183,3.82674,5,0.0197552,11,0.00110663,-2.41717,-3.73497,-0.0157966,-2.35709,0.2891832,
2,1,0,1,0,6131.5,0.299438,0.299173,3.76759,5,0.0201345,11,0.00112716,-2.42394,-0.0250101,-2.35904,-312.919,0.299173,
2,0,0,1,0,6131.59,0.291747,0.291445,-1.55,5,0.0201206,11,-0.000451739,-2.80967,-0.0476954,-1.23702,73.6088,0.291445,
2,0,0,1,0,6131.69,0.281759,0.281469,-1.98874,5,0.0199411,11,-0.000559771,-2.70142,-0.143888,-0.410041,31.6755,0.281469,
2,0,0,1,0,6131.79,0.271771,0.271475,-2.2599,5,0.0197286,11,-0.000613505,-2.64591,-0.186436,-0.316462,27.8679,0.271475,
2,0,0,1,0,6131.89,0.261783,0.261456,-2.47185,5,0.0194921,11,-0.000646282,-2.60698,-0.349457,-0.168833,16.2511,0.261456,
2,0,0,1,0,6131.99,0.251795,0.251499,-2.64332,5,0.0192366,11,-0.000664791,-2.57785,-0.347564,-0.169753,17.5249,0.251499,
2,0,0,1,0,6132.09,0.241807,0.241532,-2.80412,5,0.0189639,11,-0.000677283,-2.5522,-0.371413,-0.158853,17.4741,0.241532,
2,0,0,1,0,6132.19,0.231815,0.231513,-2.97988,5,0.0186751,11,-0.000689881,-2.5258,-0.350708,-0.168231,19.517,0.231513,
2,0,0,1,0,6132.29,0.221831,0.221546,-3.14022,5,0.0183701,11,-0.000695701,-2.50304,-0.404704,-0.145786,17.8714,0.221546,
2,0,0,1,0,6132.39,0.211843,0.211519,-3.33825,5,0.018047,11,-0.000706104,-2.47648,-0.469314,-0.125715,16.35,0.211519,
2,0,0,1,0,6132.49,0.201856,0.201552,-3.56135,5,0.0177029,11,-0.000717797,-2.44839,-0.338331,-0.174385,24.2729,0.201552,
2,0,0,1,0,6132.59,0.191868,0.191572,-3.86947,5,0.0173325,11,-0.000741282,-2.41235,-0.247582,-0.238305,36.0585,0.191572,
2,0,0,1,0,6132.69,0.18188,0.181584,-4.32081,5,0.0169258,11,-0.000784589,-2.36444,-0.172771,-0.341493,57.4749,0.181584,
2,0,0,1,0,6132.79,0.171892,0.171622,-5.00012,5,0.0164633,11,-0.000858132,-2.30102,-0.134975,-0.437117,85.3584,0.171622,
2,0,0,1,0,6132.88,0.161904,0.161612,-6.11473,5,0.015913,11,-0.000988214,-2.21362,-0.099397,-0.593579,141.885,0.161612,
2,0,0,1,0,6132.98,0.151916,0.151595,-7.88363,5,0.0152193,11,-0.00119512,-2.10327,-0.087396,-0.675088,207.833,0.1515954,
2,0,0,1,0,6133.08,0.141928,0.141683,-10.2509,5,0.0143168,11,-0.00145238,-1.98924,-0.0942689,-0.625869,250.109,0.141683,
2,0,0,1,0,6133.18,0.13194,0.131695,-12.5472,5,0.0131759,11,-0.00165241,-1.90145,-0.142091,-0.415227,203.031,0.131695,
2,0,0,1,0,6133.28,0.121952,0.121672,-14.1119,5,0.0118359,11,-0.00171702,-1.85042,-0.33704,-0.175053,96.1978,0.1216717,
2,0,0,1,0,6133.38,0.111964,0.111651,-14.4782,5,0.0103976,11,-0.00161651,-1.83928,1.27388,0.0463153,-26.1284,0.111651,
2,0,0,1,0,6133.48,0.101976,0.101702,-13.5697,5,0.00898674,11,-0.00138007,-1.86743,0.207174,0.284785,-150.585,0.101702,
2,0,0,1,0,6133.58,0.0919883,0.0916627,-11.8835,5,0.00771431,11,-0.00108927,-1.92506,0.172154,0.342716,-159.208,0.0916627,
2,0,0,1,0,6133.68,0.0820004,0.0816481,-10.5536,5,0.00660024,11,-0.000861685,-1.9766,0.236228,0.249759,-102.894,0.0816481,
2,0,0,1,0,6133.78,0.0720124,0.0717371,-9.73691,5,0.00559032,11,-0.000698498,-2.01158,0.327089,0.180379,-68.6091,0.0717371,
2,0,0,1,0,6133.88,0.0620245,0.0617018,-9.09028,5,0.00465018,11,-0.000560887,-2.04142,0.3001,0.196601,-69.7534,0.0617018,
2,0,0,1,0,6133.98,0.0520366,0.0517371,-8.35833,5,0.0037778,11,-0.000432435,-2.07788,0.230348,0.256134,-83.4646,0.0517371,
2,0,0,1,0,6134.08,0.0420486,0.0418269,-7.52229,5,0.00298489,11,-0.000314634,-2.12365,0.223814,0.263612,-77.5862,0.0418269,
2,0,0,1,0,6134.18,0.0320607,0.0317642,-6.8797,5,0.0022686,11,-0.000218528,-2.16243,0.305192,0.193321,-51.8854,0.0317642,
2,0,0,1,0,6134.28,0.0220728,0.0217925,-6.50671,5,0.00160305,11,-0.000141798,-2.18664,0.63037,0.0935958,-23.7728,0.0217925,
2,0,0,1,0,6134.38,0.0120848,0.0117777,-6.36857,5,0.00096199,11,-7.50071e-05,-2.19596,1.9206,0.0307196,-7.6436,0.0117777,
2,0,0,1,0,6134.48,0.0020969,0.00174001,-6.44398,5,0.000326482,11,-1.12126e-05,-2.19085,-0.860342,-0.0685774,17.1249,0.00174001,
2,0,0,1,0,6134.58,-0.00789103,-0.00823868,-6.49305,5,-0.000317962,11,5.34942e-05,-2.18755,-0.864297,-0.0682636,17.3342,-0.00823868,
2,0,0,1,0,6134.68,-0.017879,-0.0181757,-6.69451,5,-0.000975525,11,0.000121678,-2.17428,-0.649002,-0.0909089,23.7253,-0.0181757,
2,0,0,1,0,6134.78,-0.0278669,-0.0282206,-6.91889,5,-0.00165484,11,0.000195255,-2.15996,-0.706309,-0.0835328,22.5885,-0.0282206,
2,0,0,1,0,6134.88,-0.0378548,-0.0382166,-7.20195,5,-0.00235959,11,0.000275234,-2.14255,-0.620972,-0.0950123,26.6848,-0.0382166,
2,0,0,1,0,6134.98,-0.0478428,-0.0481712,-7.50631,5,-0.00309382,11,0.000361588,-2.12457,-0.463966,-0.127164,37.3253,-0.0481712,
2,0,0,1,0,6135.08,-0.0578216,-0.0581738,-7.88395,5,-0.00386147,11,0.000458639,-2.10326,-0.432354,-0.136462,42.0057,-0.0581738,
2,0,0,1,0,6135.18,-0.0678187,-0.0681837,-8.34633,5,-0.00467084,11,0.000569084,-2.0785,-0.355933,-0.165762,53.9341,-0.0681837,
2,0,0,1,0,6135.28,-0.0778066,-0.0781565,-8.89956,5,-0.00553082,11,0.000695559,-2.05063,-0.348018,-0.169531,58.9213,-0.0781565,
2,0,0,1,0,6135.38,-0.0877945,-0.0881461,-9.57211,5,-0.00645228,11,0.000843744,-2.01899,-0.313959,-0.187923,70.1443,-0.0881461,
2,0,0,1,0,6135.48,-0.0977825,-0.098101,-10.2258,5,-0.00744159,11,0.00100316,-1.9903,-0.365212,-0.16155,64.5193,-0.098101,
2,1,0,1,1,6135.58,-0.0927386,-0.0930876,0.160427,5,-0.00794192,11,-1.49338e-05,-3.79472,-0.109165,-0.540467,661.967,-0.0930876,
2,1,0,1,1,6135.68,-0.0827529,-0.0831162,3.57455,5,-0.00771792,11,-0.000297103,-2.44678,0.0464622,1.26985,174.663,-0.0831162,
2,1,0,1,1,6135.78,-0.0727627,-0.0730962,4.69652,5,-0.00729662,11,-0.000343297,-2.32822,0.149881,0.393646,71.7914,-0.0730962,
2,1,0,1,1,6135.88,-0.0627748,-0.0631066,5.21821,5,-0.00679842,11,-0.000329303,-2.28248,0.301632,0.195603,39.8128,-0.0631066,
2,1,0,1,1,6135.98,-0.0527868,-0.0530972,5.50496,5,-0.00626049,11,-0.000292298,-2.25925,0.70731,0.0834146,17.9137,-0.0530972,
2,1,0,1,1,6136.08,-0.0427989,-0.0431712,5.6469,5,-0.00570165,11,-0.000243783,-2.24819,0.922772,0.0639378,14.1085,-0.0431712,
2,1,0,1,1,6136.18,-0.0328109,-0.0331473,5.71499,5,-0.00513354,11,-0.000189436,-2.24298,8.4395,0.00699093,1.55746,-0.0331473,
2,1,0,1,1,6136.28,-0.022823,-0.0231185,5.70688,5,-0.00456274,11,-0.000131935,-2.2436,-4.73554,-0.012459,-2.77358,-0.0231185,
2,1,0,1,1,6136.38,-0.0128351,-0.0131576,5.65531,5,-0.00399439,11,-7.44105e-05,-2.24754,-1.43222,-0.0411947,-9.09861,-0.0131576,
2,1,0,1,1,6136.48,-0.00284713,-0.00320377,5.60312,5,-0.00343127,11,-1.79511e-05,-2.25157,-1.55725,-0.0378873,-8.27985,-0.003203775,
2,1,0,0,1,6136.5,-2.55332e-05,-0.000401673,5.58115,5,-0.00327409,11,-2.2418e-06,-2.25328, , , ,-0.000401673,