File: Figure_codes/Fig_3-5/rawdata_trumpetplot_data/before 10th/20221101_1-115_002_TrumpetPlot_ParaChange_03_CV_C01.mpt
EC-Lab ASCII FILE
Nb header lines : 61

Cyclic Voltammetry

Run on channel : 1 (SN 65296)
User :
CE vs. WE compliance from -10 V to 10 V
Electrode connection : standard
Potential control : Ewe
Ewe ctrl range : min = -1.00 V, max = 1.00 V
Safety Limits :
	Do not start on E overload
Acquisition started on : 11/08/2022 17:30:03.488
Loaded Setting File :  NONE
Saved on :
	File : 20221101_1-115_002_TrumpetPlot_ParaChange_03_CV_C01.mpr
	Directory : C:\Users\NakamuraT\Documents\EC-Lab\Data\Yatsuzuka\20221108_1-115_001_TrumpetPlot\
	Host : 192.109.209.100
Device : SP-50e (SN .003219)
Address : 192.109.209.128
EC-Lab for windows v11.43 (software)
Internet server v11.40 (firmware)
Command interpretor v11.40 (firmware)
Electrode material : Au/Pd
Initial state :
Electrolyte : NaCl (0.2M)
Comments : Fe(CN)63-/Fe(CN)64- 5.10-3 M
Reference electrode : SCE Saturated Calomel Electrode (0.241 V)
Electrode surface area : 0.001 cm2
Characteristic mass : 0.001 g
Equivalent Weight : 0.000 g/eq.
Density : 0.000 g/cm3
Volume (V) : 0.001 cm3
Cycle Definition : Charge/Discharge alternance
Ei (V)              0.000
vs.                 Ref
dE/dt               5.000
dE/dt unit          mV/s
E1 (V)              0.850
vs.                 Ref
Step percent        50
N                   10
E range min (V)     -1.000
E range max (V)     1.000
I Range             100 mA
I Range min         Unset
I Range max         Unset
I Range init        Unset
Bandwidth           5
E2 (V)              0.000
vs.                 Ref
nc cycles           0
Reverse Scan        0
Ef (V)              0.000
vs.                 Eoc

Number of loops : 1
Loop 0 from point number 0 to 3406

mode	ox/red	error	control changes	counter inc.	time/s	control/V	Ewe/V	<I>/mA	cycle number	(Q-Qo)/C	I Range	P/W
2	1	0	0	0	18.6612	2.44065e-05	-0.000325324	0.772606	1	0.0000000E+000	10	-2.51347e-07
2	1	0	1	0	21.1133	0.0122845	0.0120092	0.234431	1	0.000610406	10	2.81532e-06
2	1	0	1	0	23.6103	0.0247695	0.0245319	0.248098	1	0.00128393	10	6.08632e-06
2	1	0	1	0	26.1073	0.0372545	0.0369936	0.26113	1	0.00199015	10	9.66013e-06
2	1	0	1	0	28.6043	0.0497397	0.049477	0.277351	1	0.00272673	10	1.37225e-05
2	1	0	1	0	31.1013	0.0622247	0.0619561	0.300012	1	0.00350772	10	1.85876e-05
2	1	0	0	0	33.5982	0.0747092	0.0744545	0.336223	1	0.00436243	10	2.50333e-05
2	1	0	1	0	36.0952	0.0871941	0.0869408	0.386545	1	0.00532841	10	3.36065e-05
2	1	0	0	0	38.5922	0.099679	0.0994091	0.449454	1	0.00643604	10	4.46798e-05
2	1	0	1	0	41.0892	0.112164	0.111864	0.549082	1	0.00773317	10	6.14222e-05
2	1	0	0	0	43.5862	0.124649	0.124375	0.751116	1	0.00939306	10	9.34203e-05
2	1	0	1	0	46.0832	0.137134	0.136863	0.993706	1	0.0116622	10	0.000136001
2	1	0	1	0	48.5801	0.149618	0.149364	1.00903	1	0.0142947	10	0.000150712
2	1	0	1	0	51.0771	0.162103	0.161805	0.731892	1	0.0165698	10	0.000118424
2	1	0	1	0	53.5741	0.174588	0.1743	0.49252	1	0.0181247	10	8.58463e-05
2	1	0	1	0	56.0711	0.187074	0.186807	0.387705	1	0.0192713	10	7.24259e-05
2	1	0	1	0	58.5681	0.199559	0.199248	0.334224	1	0.0202319	10	6.65933e-05
2	1	0	1	0	61.0651	0.212044	0.211767	0.3066	1	0.0210966	10	6.49278e-05
2	1	0	1	0	63.5621	0.224529	0.224276	0.291646	1	0.0219072	10	6.5409e-05
2	1	0	0	0	66.059	0.237013	0.236708	0.281437	1	0.0226858	10	6.66186e-05
2	1	0	1	0	68.556	0.249498	0.249266	0.272449	1	0.0234436	10	6.79122e-05
2	1	0	0	0	71.053	0.261983	0.26173	0.268739	1	0.0241867	10	7.03369e-05
2	1	0	1	0	73.55	0.274468	0.274172	0.263221	1	0.0249181	10	7.21676e-05
2	1	0	0	0	76.047	0.286953	0.286675	0.261242	1	0.0256416	10	7.48915e-05
2	1	0	1	0	78.5439	0.299437	0.299151	0.257772	1	0.026358	10	7.71129e-05
2	1	0	1	0	81.0409	0.311922	0.311636	0.255947	1	0.0270688	10	7.97624e-05
2	1	0	1	0	83.5379	0.324407	0.324132	0.256042	1	0.0277729	10	8.29915e-05
2	1	0	1	0	86.0349	0.336892	0.336574	0.25087	1	0.0284716	10	8.44365e-05
2	1	0	1	0	88.5319	0.349377	0.34912	0.249437	1	0.0291653	10	8.70836e-05
2	1	0	1	0	91.0289	0.361862	0.361605	0.247921	1	0.0298534	10	8.96494e-05
2	1	0	1	0	93.5259	0.374348	0.374062	0.245753	1	0.0305364	10	9.1927e-05
2	1	0	1	0	96.0228	0.386832	0.386578	0.244226	1	0.0312148	10	9.44124e-05
2	1	0	0	0	98.5198	0.399317	0.399058	0.242907	1	0.0318884	10	9.69341e-05
2	1	0	1	0	101.017	0.411802	0.411495	0.242641	1	0.0325587	10	9.98456e-05
2	1	0	0	0	103.514	0.424287	0.424092	0.242361	1	0.0332263	10	0.000102783
2	1	0	1	0	106.011	0.436772	0.436493	0.239573	1	0.0338932	10	0.000104572
2	1	0	0	0	108.508	0.449257	0.448983	0.240692	1	0.0345598	10	0.000108066
2	1	0	1	0	111.005	0.461741	0.461477	0.242537	1	0.0352275	10	0.000111925
2	1	0	1	0	113.502	0.474226	0.473946	0.242447	1	0.0358978	10	0.000114907
2	1	0	1	0	115.999	0.486711	0.486459	0.246183	1	0.0365725	10	0.000119758
2	1	0	1	0	118.496	0.499196	0.498929	0.248956	1	0.0372548	10	0.000124211
2	1	0	1	0	120.993	0.511681	0.511409	0.25562	1	0.0379493	10	0.000130726
2	1	0	1	0	123.49	0.524166	0.523923	0.26401	1	0.0386612	10	0.000138321
2	1	0	1	0	125.987	0.536652	0.536391	0.275895	1	0.0393977	10	0.000147988
2	1	0	1	0	128.484	0.549136	0.548879	0.292562	1	0.0401702	10	0.000160581
2	1	0	0	0	130.981	0.561621	0.561358	0.32064	1	0.0409985	10	0.000179994
2	1	0	1	0	133.478	0.574106	0.57389	0.362627	1	0.0419122	10	0.000208108
2	1	0	0	0	135.975	0.586591	0.586347	0.430949	1	0.0429624	10	0.000252686
2	1	0	1	0	138.472	0.599076	0.598785	0.541847	1	0.0442317	10	0.00032445
2	1	0	1	0	140.968	0.61156	0.611295	0.723072	1	0.0458568	10	0.00044201
2	1	0	1	0	143.465	0.624045	0.623823	1.02812	1	0.0480757	10	0.000641366
2	1	0	1	0	145.962	0.63653	0.636266	1.53081	1	0.0512795	10	0.000974
2	1	0	1	0	148.459	0.649015	0.648774	2.35975	1	0.0561167	10	0.00153094
2	1	0	1	0	150.956	0.6615	0.661283	3.68986	1	0.0636119	10	0.00244004
2	1	0	1	0	153.453	0.673985	0.673732	5.71128	1	0.0752585	10	0.00384787
2	1	0	1	0	155.95	0.68647	0.686182	8.53746	1	0.0929534	10	0.00585826
2	1	0	0	0	158.447	0.698955	0.698784	12.079	1	0.118641	10	0.0084406
2	1	0	1	0	160.944	0.71144	0.711192	16.0685	1	0.153794	10	0.0114278
2	1	0	0	0	163.441	0.723925	0.7237	20.4288	1	0.199351	10	0.0147843
2	1	0	1	0	165.938	0.73641	0.736133	25.4588	1	0.256612	10	0.0187411
2	1	0	0	0	168.435	0.748895	0.748661	31.0704	1	0.327176	10	0.0232612
2	1	0	1	0	170.932	0.76138	0.761128	36.6941	1	0.411914	10	0.0279289
2	1	0	1	0	173.429	0.773864	0.773679	42.3814	1	0.510745	10	0.0327896
2	1	0	1	0	175.926	0.786349	0.786081	47.7451	1	0.623408	10	0.0375315
2	1	0	1	0	178.423	0.798834	0.798604	52.246	1	0.748399	10	0.0417238
2	1	0	1	0	180.92	0.811319	0.811071	56.2564	1	0.88395	10	0.0456279
2	1	0	1	0	183.417	0.823804	0.823584	60.1563	1	1.02942	10	0.0495438
2	1	0	1	0	185.914	0.836289	0.836065	63.4872	1	1.18461	10	0.0530794
2	1	0	1	0	188.411	0.848774	0.848577	65.991	1	1.3466	10	0.0559985
2	1	0	1	0	190.809	0.839235	0.839	62.3936	1	1.50063	10	0.0523482
2	1	0	0	0	193.306	0.82675	0.826544	58.4163	1	1.65164	10	0.0482836
2	1	0	1	0	195.803	0.814266	0.814051	55.1311	1	1.79405	10	0.0448795
2	1	0	0	0	198.3	0.801781	0.801543	50.2467	1	1.92575	10	0.0402749
2	1	0	1	0	200.797	0.789296	0.789049	45.1034	1	2.04496	10	0.0355888
2	1	0	0	0	203.294	0.776811	0.776539	39.1066	1	2.15008	10	0.0303678
2	1	0	1	0	205.791	0.764326	0.764085	31.0991	1	2.23795	10	0.0237624
2	1	0	1	0	208.288	0.751841	0.751605	25.6529	1	2.30877	10	0.0192808
2	1	0	1	0	210.785	0.739356	0.739099	20.4063	1	2.36616	10	0.0150823
2	1	0	1	0	213.282	0.726871	0.726634	15.5695	1	2.41085	10	0.0113133
2	1	0	1	0	215.779	0.714386	0.714167	11.3689	1	2.44423	10	0.00811931
2	1	0	1	0	218.276	0.701901	0.701628	7.91015	1	2.46805	10	0.00554998
2	1	0	0	0	220.773	0.689417	0.689168	5.24831	1	2.48426	10	0.00361697
2	1	0	1	0	223.27	0.676932	0.676688	3.31665	1	2.49474	10	0.00224434
2	1	0	0	0	225.767	0.664447	0.664189	2.01618	1	2.50122	10	0.00133912
2	1	0	1	0	228.264	0.651962	0.651723	1.18423	1	2.50507	10	0.000771792
2	1	0	0	0	230.761	0.639477	0.639226	0.675023	1	2.50728	10	0.000431492
2	1	0	1	0	233.258	0.626992	0.626716	0.365681	1	2.50849	10	0.000229178
2	1	0	1	0	235.754	0.614507	0.614231	0.185202	1	2.5091	10	0.000113757
2	1	0	1	0	238.251	0.602022	0.601746	0.0769553	1	2.50936	10	4.63075e-05
2	1	0	1	0	240.748	0.589537	0.589242	0.010457	1	2.5094	10	6.1617e-06
2	0	0	1	0	243.245	0.577052	0.576726	-0.0268539	1	2.50932	10	-1.54873e-05
2	0	0	1	0	245.742	0.564567	0.564298	-0.0508341	1	2.50916	10	-2.86856e-05
2	0	0	1	0	248.239	0.552082	0.551829	-0.0663115	1	2.50896	10	-3.65926e-05
2	0	0	1	0	250.736	0.539597	0.539353	-0.0753324	1	2.50872	10	-4.06308e-05
2	0	0	0	0	253.233	0.527113	0.526861	-0.0816026	1	2.50846	10	-4.29932e-05
2	0	0	1	0	255.73	0.514628	0.514355	-0.0882149	1	2.50819	10	-4.53737e-05
2	0	0	0	0	258.227	0.502143	0.501853	-0.0914201	1	2.5079	10	-4.58795e-05
2	0	0	1	0	260.724	0.489658	0.489366	-0.0964362	1	2.50761	10	-4.71926e-05
2	0	0	0	0	263.221	0.477173	0.47688	-0.101614	1	2.5073	10	-4.84578e-05
2	0	0	1	0	265.718	0.464688	0.464393	-0.10648	1	2.50698	10	-4.94484e-05
2	0	0	1	0	268.215	0.452203	0.451915	-0.112329	1	2.50664	10	-5.07633e-05
2	0	0	1	0	270.712	0.439718	0.439456	-0.117895	1	2.5063	10	-5.18097e-05
2	0	0	1	0	273.209	0.427233	0.426959	-0.12376	1	2.50594	10	-5.28404e-05
2	0	0	1	0	275.706	0.414748	0.41451	-0.129212	1	2.50556	10	-5.35596e-05
2	0	0	1	0	278.203	0.402263	0.401973	-0.137398	1	2.50516	10	-5.52302e-05
2	0	0	1	0	280.7	0.389778	0.389525	-0.146683	1	2.50475	10	-5.71369e-05
2	0	0	1	0	283.197	0.377294	0.37703	-0.152127	1	2.50432	10	-5.73565e-05
2	0	0	0	0	285.694	0.364809	0.364549	-0.160599	1	2.50387	10	-5.85461e-05
2	0	0	1	0	288.191	0.352324	0.352039	-0.169693	1	2.5034	10	-5.97387e-05
2	0	0	0	0	290.688	0.339839	0.339566	-0.176149	1	2.50291	10	-5.98142e-05
2	0	0	1	0	293.185	0.327354	0.327061	-0.184749	1	2.5024	10	-6.04242e-05
2	0	0	0	0	295.682	0.314869	0.314544	-0.191086	1	2.50186	10	-6.01049e-05
2	0	0	1	0	298.179	0.302385	0.302117	-0.199561	1	2.50131	10	-6.02907e-05
2	0	0	1	0	300.676	0.289899	0.289643	-0.209461	1	2.50074	10	-6.06688e-05
2	0	0	1	0	303.173	0.277414	0.277156	-0.217444	1	2.50015	10	-6.02659e-05
2	0	0	1	0	305.67	0.264929	0.264651	-0.227204	1	2.49953	10	-6.01299e-05
2	0	0	1	0	308.167	0.252444	0.252197	-0.236939	1	2.49889	10	-5.97552e-05
2	0	0	1	0	310.664	0.239959	0.239659	-0.247901	1	2.49823	10	-5.94117e-05
2	0	0	1	0	313.161	0.227474	0.227157	-0.260461	1	2.49754	10	-5.91655e-05
2	0	0	1	0	315.658	0.21499	0.214709	-0.276413	1	2.49681	10	-5.93484e-05
2	0	0	0	0	318.155	0.202505	0.202222	-0.298984	1	2.49603	10	-6.04612e-05
2	0	0	1	0	320.652	0.19002	0.189704	-0.340057	1	2.49518	10	-6.45101e-05
2	0	0	0	0	323.149	0.177535	0.177229	-0.409142	1	2.49419	10	-7.25118e-05
2	0	0	1	0	325.646	0.16505	0.164758	-0.542632	1	2.49295	10	-8.94028e-05
2	0	0	0	0	328.143	0.152565	0.152262	-0.815881	1	2.4912	10	-0.000124228
2	0	0	1	0	330.64	0.140081	0.139795	-1.0489	1	2.48877	10	-0.000146631
2	0	0	1	0	333.137	0.127595	0.127321	-1.00898	1	2.48608	10	-0.000128464
2	0	0	1	0	335.634	0.11511	0.114825	-0.798502	1	2.48376	10	-9.16882e-05
2	0	0	1	0	338.131	0.102625	0.102385	-0.667377	1	2.48189	10	-6.83291e-05
2	0	0	1	0	340.628	0.0901403	0.089843	-0.60734	1	2.48025	10	-5.45652e-05
2	0	0	1	0	343.125	0.0776553	0.0773513	-0.555951	1	2.47874	10	-4.30036e-05
2	0	0	1	0	345.622	0.0651702	0.0648712	-0.520607	1	2.47734	10	-3.37724e-05
2	0	0	1	0	348.119	0.0526858	0.0523557	-0.491805	1	2.47602	10	-2.57488e-05
2	0	0	0	0	350.616	0.0402009	0.039915	-0.476664	1	2.47475	10	-1.9026e-05
2	0	0	1	0	353.113	0.0277159	0.0274414	-0.474417	1	2.47351	10	-1.30187e-05
2	0	0	0	0	355.61	0.015231	0.0149276	-0.482905	1	2.47226	10	-7.2086e-06
2	0	0	1	0	358.107	0.00274612	0.00246885	-0.494937	1	2.47098	10	-1.22192e-06
2	0	0	1	0	358.651	2.44065e-05	-0.000325324	-0.493761	1	2.47069	10	1.60632e-07