File: Figure_codes/Fig_3-5/rawdata_trumpetplot_data/before 10th/20221101_1-115_002_TrumpetPlot_ParaChange_09_CV_C01_3.csv
mode,ox/red,error,control changes,counter inc.,time/s,control/V,Ewe/V,<I>/mA,cycle number,(Q-Qo)/C,I Range,P/W,log(|I|),Tafel slope mV/dec,alpha_eff,dI/d(E-IR),E-IR/V,
2,0,0,1,0,4879.17,2.44065e-05,-0.000153538,-4.22197,4,0.0000000E+000,11,6.48231e-07,-2.37448, , , ,-0.000153538,
2,1,0,1,0,4879.3,0.007288,0.00698587,2.21372,4,8.35411e-05,11,1.54647e-05,-2.65488,0.0479192,1.23124,102.579,0.00698587,
2,1,0,1,0,4879.42,0.0147816,0.0145078,2.507,4,0.000383388,11,3.63712e-05,-2.60085,0.248249,0.237665,23.197,0.0145078,
2,1,0,1,0,4879.55,0.0222712,0.0219926,2.64331,4,0.000705353,11,5.81334e-05,-2.57785,0.350047,0.168549,17.3341,0.02199265,
2,1,0,1,0,4879.67,0.0297648,0.0294569,2.75329,4,0.0010425,11,8.11035e-05,-2.56015,0.395103,0.149328,16.038,0.0294569,
2,1,0,1,0,4879.8,0.0372518,0.0369891,2.87736,4,0.00139439,11,0.000106431,-2.54101,0.425474,0.138669,15.6156,0.0369891,
2,1,0,1,0,4879.92,0.0447467,0.0444902,3.04501,4,0.00176458,11,0.000135473,-2.51641,0.311219,0.189577,22.5508,0.0444902,
2,1,0,1,0,4880.04,0.052235,0.0519806,3.26041,4,0.00215768,11,0.000169478,-2.48673,0.211364,0.279139,35.4765,0.05198063,
2,1,0,1,0,4880.17,0.0597299,0.0594534,3.53224,4,0.00258164,11,0.000210004,-2.45195,0.185928,0.317327,43.7205,0.0594534,
2,1,0,1,0,4880.29,0.0672156,0.0669416,3.85764,4,0.00304251,11,0.000258237,-2.41368,0.191175,0.308619,46.4112,0.0669416,
2,1,0,1,0,4880.42,0.0747105,0.0744351,4.20456,4,0.00354611,11,0.000312966,-2.37628,0.221338,0.26656,43.7036,0.0744351,
2,1,0,1,0,4880.54,0.0821988,0.0819482,4.55049,4,0.00409276,11,0.000372904,-2.34194,0.249151,0.236804,41.9769,0.0819482,
2,1,0,1,0,4880.67,0.0896937,0.0893941,4.85932,4,0.00468111,11,0.000434395,-2.31342,0.261909,0.225269,42.7624,0.0893941,
2,1,0,1,0,4880.79,0.0971794,0.0968907,5.16414,4,0.00530767,11,0.000500357,-2.287,0.266873,0.221079,44.6366,0.0968907,
2,1,0,1,0,4880.92,0.104674,0.104376,5.51005,4,0.00597453,11,0.000575117,-2.25884,0.241473,0.244333,52.5956,0.104376,
2,1,0,1,0,4881.04,0.112163,0.111883,5.98694,4,0.00669072,11,0.000669839,-2.22279,0.187708,0.314318,73.3866,0.111883,
2,1,0,1,0,4881.17,0.119657,0.119392,6.64357,4,0.00747736,11,0.000793187,-2.1776,0.154349,0.38225,99.1298,0.119392,
2,1,0,1,0,4881.29,0.127143,0.126855,7.43739,4,0.00835609,11,0.000943469,-2.12858,0.151168,0.390293,113.532,0.126855,
2,1,0,1,0,4881.42,0.134638,0.134368,8.28321,4,0.00934046,11,0.001113,-2.0818,0.185589,0.317908,102.861,0.134368,
2,1,0,1,0,4881.54,0.142126,0.141845,8.98877,4,0.0104215,11,0.00127501,-2.0463,0.262437,0.224815,78.7308,0.141845,
2,1,0,1,0,4881.67,0.149621,0.149313,9.35023,4,0.0115723,11,0.00139611,-2.02918,1.50621,0.0391711,14.2495,0.1493127,
2,1,0,1,0,4881.79,0.157107,0.156798,9.03183,4,0.0127287,11,0.00141617,-2.04422,-0.20158,-0.292687,-102.71,0.156798,
2,1,0,1,0,4881.92,0.164602,0.164314,7.73027,4,0.0137861,11,0.00127019,-2.11181,-0.0760379,-0.775929,-233.083,0.164314,
2,1,0,1,0,4882.04,0.17209,0.17183,5.92195,4,0.014637,11,0.00101757,-2.22754,-0.063029,-0.936078,-217.024,0.17183,
2,1,0,1,0,4882.17,0.179585,0.179317,4.67721,4,0.0152914,11,0.000838706,-2.33001,-0.0916673,-0.643632,-117.858,0.179317,
2,1,0,1,0,4882.29,0.187072,0.186762,3.98378,4,0.0158284,11,0.000744019,-2.39971,-0.132916,-0.443888,-69.0769,0.186762,
2,1,0,1,0,4882.42,0.194566,0.194295,3.53645,4,0.0162968,11,0.000687116,-2.45143,-0.162819,-0.362365,-50.1283,0.194295,
2,1,0,1,0,4882.54,0.202055,0.201744,3.23951,4,0.0167187,11,0.000653552,-2.48952,-0.202092,-0.291946,-36.792,0.201744,
2,1,0,1,0,4882.67,0.209549,0.2093,3.03325,4,0.0171094,11,0.000634859,-2.51809,-0.265886,-0.2219,-26.2302,0.2093,
2,1,0,1,0,4882.79,0.217036,0.216756,2.87175,4,0.0174777,11,0.000622469,-2.54185,-0.447596,-0.131815,-14.8236,0.216756,
2,1,0,1,0,4882.92,0.224529,0.224241,2.76895,4,0.0178311,11,0.000620913,-2.55768,-0.505939,-0.116615,-12.6617,0.224241,
2,1,0,1,0,4883.04,0.232019,0.231735,2.70202,4,0.0181731,11,0.000626151,-2.56831,-0.690678,-0.0854233,-8.99638,0.231735,
2,1,0,1,0,4883.17,0.239513,0.239252,2.64813,4,0.0185071,11,0.000633571,-2.57706,-0.896146,-0.0658375,-6.78302,0.239252,
2,1,0,1,0,4883.29,0.247001,0.246704,2.59745,4,0.0188342,11,0.000640801,-2.58545,-1.10291,-0.0534951,-5.40979,0.246704,
2,1,0,1,0,4883.42,0.254493,0.254193,2.54351,4,0.0191558,11,0.000646545,-2.59457,-0.956636,-0.0616745,-6.14949,0.254193,
2,1,0,1,0,4883.54,0.261983,0.261706,2.50618,4,0.0194724,11,0.000655883,-2.60099,-0.847166,-0.0696439,-6.84469,0.261706,
2,1,0,1,0,4883.67,0.269477,0.269205,2.48685,4,0.0197848,11,0.000669471,-2.60435,-2.18684,-0.0269796,-2.61306,0.269205,
2,1,0,1,0,4883.79,0.276965,0.276665,2.44974,4,0.0200931,11,0.000677758,-2.61088,-3.18492,-0.0185248,-1.77197,0.2766653,
2,1,0,1,0,4883.92,0.284457,0.284158,2.41546,4,0.0203976,11,0.000686371,-2.617,-1.26086,-0.0467934,-4.42574,0.284158,
2,1,0,1,0,4884.04,0.291947,0.291675,2.38923,4,0.0206984,11,0.00069688,-2.62174,-0.660964,-0.0892635,-8.33095,0.291675,
2,1,0,1,0,4884.16,0.29944,0.299201,2.36876,4,0.0209959,11,0.000708737,-2.62548,-0.00314561,-18.7563,-971.173,0.2992014,
2,0,0,1,0,4884.28,0.293742,0.293431,-0.872738,4,0.020984,11,-0.000256088,-3.05912,-0.044184,-1.33533,44.2029,0.293431,
2,0,0,1,0,4884.4,0.286254,0.285901,-1.09473,4,0.0208593,11,-0.000312985,-2.96069,-0.0955599,-0.617414,26.6322,0.2859008,
2,0,0,1,0,4884.53,0.278761,0.278483,-1.25392,4,0.0207106,11,-0.000349195,-2.90173,-0.176229,-0.334792,16.4908,0.278483,
2,0,0,1,0,4884.65,0.271272,0.270963,-1.38403,4,0.0205452,11,-0.000375021,-2.85885,-0.200152,-0.294776,15.8601,0.270963,
2,0,0,1,0,4884.78,0.263778,0.263492,-1.48475,4,0.0203658,11,-0.000391219,-2.82835,-0.218154,-0.270451,15.5865,0.263492,
2,0,0,1,0,4884.9,0.25629,0.255948,-1.57227,4,0.0201747,11,-0.00040242,-2.80347,-0.325517,-0.18125,11.0857,0.255948,
2,0,0,1,0,4885.03,0.248797,0.248508,-1.65227,4,0.0199728,11,-0.000410602,-2.78192,-0.425109,-0.138788,8.99319,0.248508,
2,0,0,1,0,4885.15,0.241308,0.241021,-1.73183,4,0.0197608,11,-0.000417408,-2.76149,-0.457442,-0.128978,8.73567,0.241021,
2,0,0,1,0,4885.28,0.233814,0.233543,-1.82007,4,0.0195388,11,-0.000425065,-2.73991,-0.312417,-0.18885,13.3466,0.233543,
2,0,0,1,0,4885.4,0.226326,0.226034,-1.89678,4,0.0193068,11,-0.000428738,-2.72198,-0.309549,-0.1906,14.1205,0.226034,
2,0,0,1,0,4885.53,0.218834,0.218558,-1.98503,4,0.0190638,11,-0.000433844,-2.70223,-0.35061,-0.168278,13.0894,0.2185577,
2,0,0,1,0,4885.65,0.211344,0.211043,-2.09193,4,0.0188091,11,-0.000441488,-2.67945,-0.45115,-0.130777,10.6598,0.211043,
2,0,0,1,0,4885.78,0.203856,0.20357,-2.21523,4,0.0185404,11,-0.000450954,-2.65458,-0.307337,-0.191972,16.5594,0.20357,
2,0,0,1,0,4885.9,0.196362,0.196011,-2.35675,4,0.0182553,11,-0.000461947,-2.62769,-0.223912,-0.263497,24.2522,0.196011,
2,0,0,1,0,4886.03,0.18887,0.188586,-2.54587,4,0.0179488,11,-0.000480117,-2.59416,-0.186462,-0.316419,31.5738,0.188586,
2,0,0,1,0,4886.15,0.18138,0.181106,-2.81645,4,0.0176143,11,-0.000510075,-2.5503,-0.162114,-0.36394,40.0899,0.181106,
2,0,0,1,0,4886.28,0.173892,0.173618,-3.2023,4,0.0172402,11,-0.000555976,-2.49454,-0.118419,-0.49823,62.1074,0.1736179,
2,0,0,1,0,4886.4,0.166398,0.166075,-3.75112,4,0.0168083,11,-0.000622967,-2.42584,-0.0950321,-0.620843,91.0277,0.166075,
2,0,0,1,0,4886.53,0.158905,0.158633,-4.5683,4,0.0162908,11,-0.000724682,-2.34025,-0.0799732,-0.737747,132.122,0.158633,
2,0,0,1,0,4886.65,0.151417,0.151063,-5.72207,4,0.0156501,11,-0.000864395,-2.24245,-0.0803771,-0.73404,163.942,0.151063,
2,0,0,1,0,4886.78,0.143927,0.14364,-7.05912,4,0.014853,11,-0.00101397,-2.15125,-0.0908869,-0.649159,178.505,0.14364,
2,0,0,1,0,4886.9,0.136435,0.136127,-8.27654,4,0.0138921,11,-0.00112666,-2.08215,-0.130937,-0.4506,145.128,0.136127,
2,0,0,1,0,4887.03,0.128941,0.128625,-9.1187,4,0.0128004,11,-0.00117289,-2.04007,-0.264392,-0.223154,79.2212,0.128625,
2,0,0,1,0,4887.15,0.121453,0.121146,-9.39172,4,0.0116385,11,-0.00113777,-2.02725,3.09804,0.0190443,-6.96688,0.121146,
2,0,0,1,0,4887.27,0.113963,0.113657,-9.06402,4,0.0104801,11,-0.00103019,-2.04268,0.242371,0.243428,-85.8882,0.113657,
2,0,0,1,0,4887.4,0.106471,0.106146,-8.21952,4,0.00939689,11,-0.000872473,-2.08515,0.145864,0.404486,-129.677,0.106146,
2,0,0,1,0,4887.52,0.0989825,0.0986909,-7.26643,4,0.00843124,11,-0.00071713,-2.13868,0.152044,0.388045,-110.226,0.09869089,
2,0,0,1,0,4887.65,0.0914889,0.0911772,-6.577,4,0.00756968,11,-0.000599672,-2.18197,0.211022,0.279591,-71.8415,0.0911772,
2,0,0,1,0,4887.77,0.0839993,0.0836839,-6.13844,4,0.00677807,11,-0.000513689,-2.21194,0.282521,0.208834,-50.0137,0.0836839,
2,0,0,1,0,4887.9,0.076507,0.0761877,-5.83251,4,0.00603132,11,-0.000444366,-2.23414,0.349161,0.168976,-38.3826,0.0761877,
2,0,0,1,0,4888.02,0.0690187,0.0687381,-5.51854,4,0.00532239,11,-0.000379334,-2.25818,0.316307,0.186528,-40.2412,0.06873811,
2,0,0,1,0,4888.15,0.0615251,0.0612117,-5.18773,4,0.00465172,11,-0.00031755,-2.28502,0.241786,0.244017,-49.5154,0.0612117,
2,0,0,1,0,4888.27,0.0540355,0.0537413,-4.82761,4,0.00402595,11,-0.000259442,-2.31627,0.223523,0.263956,-49.6512,0.0537413,
2,0,0,1,0,4888.4,0.0465432,0.0462,-4.47919,4,0.00344543,11,-0.000206939,-2.3488,0.270984,0.217725,-38.0423,0.0462,
2,0,0,1,0,4888.52,0.0390549,0.0387384,-4.20977,4,0.00290431,11,-0.00016308,-2.37574,0.331123,0.178182,-29.2613,0.0387384,
2,0,0,1,0,4888.65,0.0315613,0.0312193,-4.03461,4,0.00239008,11,-0.000125958,-2.3942,0.47281,0.124786,-19.6827,0.0312193,
2,0,0,1,0,4888.77,0.0240717,0.0237575,-3.94068,4,0.00189228,11,-9.36206e-05,-2.40443,0.829014,0.0711688,-10.9778,0.0237575,
2,0,0,1,0,4888.9,0.0165781,0.0162716,-3.92593,4,0.00140127,11,-6.38812e-05,-2.40606,-3.64409,-0.0161906,2.47879,0.0162716,
2,0,0,1,0,4889.02,0.00909108,0.0087954,-3.93132,4,0.00091087,11,-3.45776e-05,-2.40546,-1.18839,-0.0496468,7.63337,0.0087954,
2,0,0,1,0,4889.15,0.00159616,0.00120759,-4.0347,4,0.000415254,11,-4.87228e-06,-2.39419, , , ,0.00120759,
2,0,0,0,0,4889.17,0.000199195,-0.000142085,-4.01894,4,0.000321245,11,5.71032e-07,-2.39589, , , ,-0.000142085,