File: Figure_codes/Fig_3-5/rawdata_trumpetplot_data/before 10th/20221101_1-115_002_TrumpetPlot_ParaChange_16_CV_C01_2.csv
mode,ox/red,error,control changes,counter inc.,time/s,control/V,Ewe/V,<I>/mA,cycle number,(Q-Qo)/C,I Range,P/W,log(|I|),Tafel slope mV/dec,alpha_eff,dI/d(E-IR),E-IR/V,
2,1,0,1,0,3682.34,2.44065e-05,-0.00118425,60.419,3,0.0000000E+000,10,-7.15514e-05,-1.21883, , , ,-0.00118425,
2,1,0,1,0,3682.35,0.0131086,0.012759,55.2362,3,0.000740577,10,0.000704761,-1.25778,-1.64525,-0.0358608,-78.0728,0.012759,
2,1,0,1,0,3682.36,0.0271416,0.0268009,55.2078,3,0.00151287,10,0.00147962,-1.258,12.4416,0.00474215,10.2115,0.0268009,
2,1,0,1,0,3682.38,0.0411248,0.0408025,55.3113,3,0.00228642,10,0.00225684,-1.25719,19.072,0.00309354,6.67496,0.0408025,
2,1,0,1,0,3682.39,0.0551079,0.0547363,55.3378,3,0.00306108,10,0.00302898,-1.25698,9.33009,0.00632363,13.6817,0.0547363,
2,1,0,1,0,3682.4,0.0691409,0.0688174,55.786,3,0.00383797,10,0.00383905,-1.25348,2.65631,0.0222113,48.3494,0.0688174,
2,1,0,1,0,3682.42,0.083124,0.0827999,56.6118,3,0.00462404,10,0.00468746,-1.24709,1.46897,0.0401642,88.9845,0.0827999,
2,1,0,1,0,3682.43,0.0971071,0.0968068,58.357,3,0.0054279,10,0.00564936,-1.23391,0.807244,0.0730882,167.07,0.0968068,
2,1,0,1,0,3682.45,0.11114,0.110796,61.2581,3,0.00626425,10,0.00678714,-1.21284,0.584617,0.100921,241.676,0.110796,
2,1,0,1,0,3682.46,0.125123,0.124822,65.0872,3,0.00714784,10,0.0081243,-1.1865,0.486958,0.12116,308.312,0.124822,
2,1,0,1,0,3682.47,0.139106,0.138818,69.818,3,0.0080917,10,0.009692,-1.15603,0.434617,0.135752,370.579,0.138818,
2,1,0,1,0,3682.49,0.153139,0.152801,75.433,3,0.00910822,10,0.0115262,-1.12244,0.40552,0.145492,428.822,0.152801,
2,1,0,1,0,3682.5,0.167123,0.166786,81.897,3,0.0102091,10,0.0136593,-1.08673,0.378081,0.156051,499.442,0.166786,
2,1,0,1,0,3682.52,0.181106,0.180761,89.3279,3,0.0114076,10,0.016147,-1.04901,0.366906,0.160804,561.035,0.180761,
2,1,0,1,0,3682.53,0.195139,0.194816,97.3693,3,0.0127154,10,0.0189691,-1.01158,0.400617,0.147273,558.745,0.194816,
2,1,0,1,0,3682.54,0.209122,0.208827,104.826,3,0.0141326,10,0.0218906,-0.97953,0.512891,0.115034,468.7,0.208827,
2,1,0,1,0,3682.56,0.223105,0.222814,109.927,3,0.0156407,10,0.0244934,-0.958894,1.24867,0.0472504,201.131,0.2228139,
2,1,0,1,0,3682.57,0.237138,0.236864,109.593,3,0.017186,10,0.0259588,-0.960215,-0.781193,-0.0755255,-318.807,0.236864,
2,1,0,1,0,3682.59,0.251121,0.250897,100.718,3,0.0186676,10,0.0252698,-0.996893,-0.24688,-0.238982,-925.785,0.250897,
2,1,0,1,0,3682.6,0.265104,0.264927,84.374,3,0.0199677,10,0.0223529,-1.07379,-0.149867,-0.393681,-1285.43,0.264927,
2,1,0,1,0,3682.61,0.279137,0.278994,66.0772,3,0.0210179,10,0.0184351,-1.17995,-0.125095,-0.471641,-1219.67,0.2789942,
2,1,0,1,0,3682.63,0.29312,0.292914,51.4523,3,0.0218325,10,0.0150711,-1.2886,-0.140037,-0.421316,-864.088,0.292914,
2,1,0,1,0,3682.64,0.298714,0.298801,41.5518,3,0.0222242,10,0.0124157,-1.38141,0.018136,3.25319,3761.56,0.2988005,
2,1,0,1,0,3682.65,0.28473,0.284668,5.20504,3,0.0225126,10,0.00148171,-2.28358,0.0267625,2.20458,1722,0.284668,
2,0,0,1,0,3682.66,0.270747,0.270572,-10.9392,3,0.0224562,10,-0.00295985,-1.96101,-0.0235215,-2.50834,786.971,0.270572,
2,0,0,1,0,3682.68,0.256714,0.256484,-18.5657,3,0.0222424,10,-0.0047618,-1.73129,-0.106403,-0.554493,385.403,0.256484,
2,0,0,1,0,3682.69,0.242731,0.242464,-22.5133,3,0.0219521,10,-0.00545868,-1.64756,-0.232104,-0.254196,220.724,0.242464,
2,0,0,1,0,3682.71,0.228748,0.228469,-25.034,3,0.021618,10,-0.00571949,-1.60147,-0.35906,-0.164318,160.148,0.228469,
2,0,0,1,0,3682.72,0.214715,0.214463,-27.1451,3,0.0212519,10,-0.00582162,-1.56631,-0.434079,-0.13592,143.905,0.214463,
2,0,0,1,0,3682.73,0.200732,0.20049,-29.2257,3,0.0208575,10,-0.00585946,-1.53424,-0.410223,-0.143824,164.375,0.20049,
2,0,0,1,0,3682.75,0.186735,0.186508,-31.8122,3,0.0204308,10,-0.00593322,-1.49741,-0.33994,-0.17356,216.398,0.1865077,
2,0,0,1,0,3682.76,0.172716,0.172481,-35.3404,3,0.0199613,10,-0.00609554,-1.45173,-0.279401,-0.211166,292.647,0.172481,
2,0,0,1,0,3682.78,0.158733,0.158484,-40.2115,3,0.0194339,10,-0.00637289,-1.39565,-0.225265,-0.261914,413.228,0.158484,
2,0,0,1,0,3682.79,0.144719,0.14452,-46.9581,3,0.0188255,10,-0.00678638,-1.32829,-0.196567,-0.300152,552.32,0.14452,
2,0,0,1,0,3682.8,0.130717,0.130556,-55.5912,3,0.0181083,10,-0.00725778,-1.25499,-0.190036,-0.310467,674.734,0.1305564,
2,0,0,1,0,3682.82,0.116733,0.116605,-65.6739,3,0.0172595,10,-0.00765788,-1.18261,-0.203949,-0.289287,739.67,0.116605,
2,0,0,1,0,3682.83,0.102703,0.102624,-76.0758,3,0.0162668,10,-0.00780722,-1.11875,-0.237787,-0.248121,734.572,0.102624,
2,0,0,1,0,3682.85,0.0887173,0.0886322,-85.9028,3,0.0151305,10,-0.00761375,-1.06599,-0.29926,-0.197153,658.805,0.0886322,
2,0,0,1,0,3682.86,0.0747341,0.0745616,-94.4607,3,0.0138651,10,-0.00704315,-1.02475,-0.411929,-0.143229,524.979,0.0745616,
2,0,0,1,0,3682.87,0.0607011,0.0604816,-100.395,3,0.0124973,10,-0.00607206,-0.998287,-0.772774,-0.0763483,297.16,0.0604816,
2,0,0,1,0,3682.89,0.046718,0.0464556,-102.584,3,0.0110717,10,-0.00476562,-0.988919,-14.1351,-0.004174,16.6072,0.0464556,
2,0,0,1,0,3682.9,0.0327349,0.0324699,-100.984,3,0.00964307,10,-0.00327893,-0.995749,1.05625,0.0558582,-219.192,0.0324699,
2,0,0,1,0,3682.92,0.0187018,0.0184142,-96.8948,3,0.00825679,10,-0.00178424,-1.0137,0.647792,0.0910786,-343.481,0.0184142,
2,0,0,1,0,3682.93,0.00471873,0.00443378,-91.436,3,0.00693783,10,-0.000405407,-1.03888,0.496399,0.118856,-423.337,0.00443378,
2,0,0,1,0,3682.94,-0.00926438,-0.00959964,-84.9794,3,0.00570182,10,0.000815772,-1.07069,0.388527,0.151856,-502.429,-0.00959964,
2,0,0,1,0,3682.96,-0.0232974,-0.0236225,-77.7532,3,0.00456345,10,0.00183672,-1.10928,0.352761,0.167252,-507.453,-0.0236225,
2,0,0,1,0,3682.97,-0.0372805,-0.0375742,-71.1349,3,0.00352393,10,0.00267284,-1.14792,0.411302,0.143447,-400.067,-0.0375742,
2,0,0,1,0,3682.99,-0.0512636,-0.0515822,-66.6728,3,0.00256233,10,0.00343913,-1.17605,0.637108,0.0926059,-242.113,-0.0515822,
2,0,0,1,0,3683,-0.0652967,-0.0655859,-64.3617,3,0.00164775,10,0.00422122,-1.19137,1.3585,0.0434303,-109.404,-0.0655859,
2,0,0,1,0,3683.01,-0.0792798,-0.0795791,-63.4293,3,0.00075475,10,0.00504765,-1.19771,5.7162,0.0103215,-25.6221,-0.0795791,
2,0,0,1,0,3683.03,-0.0932629,-0.0935436,-63.5304,3,-0.000133158,10,0.00594286,-1.19702,-4.34962,-0.0135644,33.6962,-0.0935436,
2,0,0,1,0,3683.04,-0.107296,-0.107599,-64.3991,3,-0.00102791,10,0.0069293,-1.19112,-1.92926,-0.0305816,76.8817,-0.107599,
2,0,0,1,0,3683.06,-0.121279,-0.121575,-65.6079,3,-0.00193757,10,0.0079763,-1.18304,-1.50222,-0.0392751,100.649,-0.121575,
2,0,0,1,0,3683.07,-0.135262,-0.135569,-67.1952,3,-0.002867,10,0.00910955,-1.17266,-1.25274,-0.0470968,123.591,-0.135569,
2,0,0,1,0,3683.08,-0.149295,-0.149614,-69.135,3,-0.00382111,10,0.0103435,-1.1603,-1.09082,-0.0540879,145.936,-0.149614,
2,0,0,1,0,3683.1,-0.163278,-0.163556,-71.2307,3,-0.00480374,10,0.0116502,-1.14733,-1.03889,-0.0567915,157.942,-0.163556,
2,0,0,1,0,3683.11,-0.177261,-0.177524,-73.5637,3,-0.00581721,10,0.0130593,-1.13334,-0.960476,-0.0614279,176.44,-0.177524,
2,0,0,1,0,3683.13,-0.191295,-0.191577,-76.2694,3,-0.00686567,10,0.0146115,-1.11765,-0.849798,-0.0694283,206.654,-0.191577,
2,0,0,1,1,3683.14,-0.199984,-0.200475,-77.8075,3,-0.00758394,10,0.0155985,-1.10898,-0.0324006,-1.82095,4737.39,-0.200475,
2,0,0,1,1,3683.15,-0.186686,-0.187101,-42.8658,3,-0.00835033,10,0.00802025,-1.36789,-0.0445831,-1.32337,2179.16,-0.187101,
2,0,0,1,1,3683.16,-0.172667,-0.173088,-16.9301,3,-0.00875708,10,0.00293039,-1.77134,-0.0204809,-2.88073,1606.37,-0.173088,
2,1,0,1,1,3683.18,-0.158684,-0.159189,2.60968,3,-0.00884919,10,-0.000415432,-2.58341,0.0914772,0.64497,1235.39,-0.159189,
2,1,0,1,1,3683.19,-0.14467,-0.145198,17.8885,3,-0.00870011,10,-0.00259738,-1.74743,0.0384078,1.53614,969.838,-0.145198,
2,1,0,1,1,3683.2,-0.130668,-0.131075,30.0716,3,-0.00835973,10,-0.00394162,-1.52184,0.0879991,0.670462,763.382,-0.131075,
2,1,0,1,1,3683.22,-0.116685,-0.117098,39.4242,3,-0.00786938,10,-0.00461651,-1.40424,0.153341,0.384764,584.165,-0.1170984,
2,1,0,1,1,3683.23,-0.102654,-0.103019,46.6711,3,-0.00726414,10,-0.00480802,-1.33095,0.23811,0.247785,447.119,-0.103019,
2,1,0,1,1,3683.25,-0.0886685,-0.0890538,52.0387,3,-0.00657087,10,-0.00463425,-1.28367,0.360261,0.16377,330.85,-0.08905381,
2,1,0,1,1,3683.26,-0.0746854,-0.0750257,55.9903,3,-0.00581267,10,-0.00420071,-1.25189,0.532012,0.1109,241.539,-0.0750257,
2,1,0,1,1,3683.27,-0.0606523,-0.0610071,58.9585,3,-0.00500711,10,-0.00359689,-1.22945,0.769328,0.0766903,175.815,-0.0610071,
2,1,0,1,1,3683.29,-0.0466692,-0.0469747,60.9589,3,-0.00416688,10,-0.00286353,-1.21496,1.17901,0.0500418,118.789,-0.0469747,
2,1,0,1,1,3683.3,-0.0326861,-0.0330081,62.273,3,-0.00330345,10,-0.00205552,-1.2057,1.91034,0.0308846,74.9646,-0.0330081,
2,1,0,1,1,3683.32,-0.018653,-0.0190458,63.1202,3,-0.00242527,10,-0.00120217,-1.19983,3.72037,0.0158586,38.9831,-0.01904575,
2,1,0,1,1,3683.33,-0.00466992,-0.0049943,63.3562,3,-0.00153948,10,-0.000316419,-1.19821, , , ,-0.0049943,
2,1,0,1,1,3683.34,-0.000175352,-0.000516197,63.299,3,-0.00125446,10,-3.26747e-05,-1.1986, , , ,-0.000516197,