File: Figure_codes/Fig_3-5/rawdata_trumpetplot_data/before 10th/20221101_1-115_002_TrumpetPlot_ParaChange_04_CV_C01_7.csv
mode,ox/red,error,control changes,counter inc.,time/s,control/V,Ewe/V,<I>/mA,cycle number,(Q-Qo)/C,I Range,P/W,log(|I|),Tafel slope mV/dec,alpha_eff,dI/d(E-IR),E-IR/V,
2,0,0,1,0,8980.2,2.44065e-05,-0.000287149,-0.396012,8,0.0000000E+000,11,1.13715e-07,-3.40229, , , ,-0.0002871489,
2,0,0,1,0,8987.47,0.00729061,0.00698722,-0.0914149,8,-0.000829284,11,-6.38736e-07,-4.03898,-0.0335568,-1.75821,6.36428,0.00698722,
2,0,0,1,0,8994.96,0.0147815,0.0144662,-0.0592275,8,-0.00125102,11,-8.56798e-07,-4.22748,-0.0453798,-1.30014,3.01755,0.0144662,
2,0,0,1,0,9002.45,0.0222725,0.0220015,-0.0410504,8,-0.0014928,11,-9.0317e-07,-4.38668,-0.0415622,-1.41956,2.27055,0.0220015,
2,0,0,1,0,9009.94,0.0297635,0.0294796,-0.0274644,8,-0.0016178,11,-8.09639e-07,-4.56123,-0.0373988,-1.57759,1.6807,0.0294796,
2,0,0,1,0,9017.43,0.0372544,0.0369533,-0.0158006,8,-0.00164903,11,-5.83885e-07,-4.80133,-0.022423,-2.63123,1.54641,0.0369533,
2,0,0,1,0,9024.92,0.0447454,0.0444737,-0.00399627,8,-0.00159441,11,-1.77729e-07,-5.39834,-0.00639842,-9.22102,1.40052,0.0444737,
2,0,0,1,0,9032.41,0.0522363,0.0519336,0.00686484,8,-0.00145448,11,3.56516e-07,-5.16337,0.00798832,7.38578,1.70343,0.0519336,
2,1,0,1,0,9039.9,0.0597273,0.0594445,0.0179117,8,-0.0012297,11,1.06475e-06,-4.74686,0.0254065,2.32224,1.59278,0.0594445,
2,1,0,1,0,9047.39,0.0672183,0.0669639,0.028995,8,-0.000922267,11,1.94162e-06,-4.53768,0.0469925,1.25552,1.3885,0.0669639,
2,1,0,1,0,9054.88,0.0747092,0.0744143,0.0376421,8,-0.000539461,11,2.80111e-06,-4.42433,0.0667065,0.884472,1.31277,0.0744143,
2,1,0,1,0,9062.38,0.0822001,0.0818933,0.0454824,8,-8.79969e-05,11,3.7247e-06,-4.34216,0.0910994,0.647644,1.17482,0.08189325,
2,1,0,1,0,9069.87,0.0896911,0.0893745,0.0543009,8,0.000425769,11,4.85311e-06,-4.26519,0.105915,0.557053,1.20228,0.0893745,
2,1,0,1,0,9077.36,0.0971821,0.0969077,0.0643277,8,0.00100731,11,6.23384e-06,-4.1916,0.0813575,0.725194,1.81968,0.09690766,
2,1,0,1,0,9084.85,0.104673,0.104359,0.0781752,8,0.00167288,11,8.15829e-06,-4.10693,0.0794065,0.743012,2.23314,0.104359,
2,1,0,1,0,9092.34,0.112164,0.111872,0.0928374,8,0.00245019,11,1.03859e-05,-4.03228,0.113504,0.519804,1.89347,0.111872,
2,1,0,1,0,9099.83,0.119655,0.11939,0.110472,8,0.00335241,11,1.31892e-05,-3.95675,0.121981,0.483681,2.07439,0.11939,
2,1,0,1,0,9107.32,0.127146,0.126813,0.12407,8,0.00437624,11,1.57337e-05,-3.90633,0.150296,0.392559,1.9275,0.126813,
2,1,0,1,0,9114.81,0.134637,0.134324,0.13717,8,0.0055076,11,1.84253e-05,-3.86274,0.314499,0.1876,1.00863,0.134324,
2,1,0,1,0,9122.3,0.142128,0.141787,0.136644,8,0.00668551,11,1.93744e-05,-3.86441,-0.185727,-0.31767,-1.66853,0.1417871,
2,1,0,1,0,9129.79,0.149619,0.149299,0.114032,8,0.00777211,11,1.70249e-05,-3.94297,-0.0726552,-0.812055,-3.61298,0.149299,
2,1,0,1,0,9137.29,0.15711,0.156804,0.0862484,8,0.00865585,11,1.35241e-05,-4.06425,-0.054144,-1.08969,-3.67818,0.156804,
2,1,0,1,0,9144.78,0.164601,0.164315,0.0675325,8,0.00935795,11,1.10966e-05,-4.17049,-0.0922544,-0.639536,-1.68644,0.164315,
2,1,0,1,0,9152.27,0.172091,0.17181,0.0569781,8,0.00995026,11,9.78943e-06,-4.24429,-0.120734,-0.488677,-1.09697,0.17181,
2,1,0,1,0,9159.76,0.179582,0.179275,0.0512378,8,0.0104831,11,9.18564e-06,-4.29041,-0.222109,-0.265635,-0.534216,0.179275,
2,1,0,1,0,9167.25,0.187073,0.186766,0.0483874,8,0.0109835,11,9.03714e-06,-4.31527,-0.939196,-0.0628197,-0.118811,0.186766,
2,1,0,1,0,9174.74,0.194564,0.194281,0.0464133,8,0.0114657,11,9.01725e-06,-4.33336,-0.990176,-0.0595854,-0.109692,0.1942815,
2,1,0,1,0,9182.23,0.202055,0.201766,0.0467842,8,0.0119387,11,9.43945e-06,-4.3299,-2.31952,-0.0254363,-0.0460839,0.201766,
2,1,0,1,0,9189.72,0.209546,0.209249,0.0460983,8,0.0124078,11,9.64603e-06,-4.33631,-1.68015,-0.0351158,-0.0634066,0.209249,
2,1,0,1,0,9197.21,0.217037,0.216756,0.0463733,8,0.0128756,11,1.00517e-05,-4.33373,0.568429,0.103795,0.186984,0.216756,
2,1,0,1,0,9204.7,0.224528,0.224228,0.0465733,8,0.0133448,11,1.0443e-05,-4.33186,2.06807,0.0285291,0.0518472,0.224228,
2,1,0,1,0,9212.19,0.232019,0.231773,0.0469373,8,0.0138172,11,1.08788e-05,-4.32848,1.33762,0.0441082,0.0809437,0.231773,
2,1,0,1,0,9219.69,0.23951,0.239216,0.047404,8,0.014293,11,1.13398e-05,-4.32418,0.877667,0.0672237,0.125116,0.239216,
2,1,0,1,0,9227.18,0.247001,0.246704,0.048707,8,0.0147735,11,1.20162e-05,-4.31241,-2.2579,-0.0261304,-0.049563,0.246704,
2,1,0,1,0,9234.67,0.254492,0.25423,0.0495043,8,0.0152583,11,1.25855e-05,-4.30536,0.608479,0.0969631,0.187304,0.25423,
2,1,0,1,0,9242.16,0.261983,0.261685,0.050057,8,0.0157483,11,1.30992e-05,-4.30054,-2.32164,-0.0254131,-0.0495047,0.261685,
2,1,0,1,0,9249.65,0.269474,0.26918,0.05039,8,0.0162428,11,1.3564e-05,-4.29766,1.08159,0.0545494,0.107493,0.26918,
2,1,0,1,0,9257.14,0.276965,0.276632,0.0512746,8,0.0167428,11,1.41842e-05,-4.2901,0.847543,0.069613,0.139638,0.276632,
2,1,0,1,0,9264.63,0.284456,0.284156,0.0522699,8,0.0172473,11,1.48528e-05,-4.28175,0.825108,0.0715058,0.144866,0.284156,
2,1,0,1,0,9272.12,0.291947,0.291662,0.0527748,8,0.0177567,11,1.53924e-05,-4.27757,1.27222,0.0463757,0.0958996,0.291662,
2,1,0,1,0,9279.61,0.299438,0.299161,0.0531394,8,0.0182703,11,1.58972e-05,-4.27458,-0.00527297,-11.1891,-16.1634,0.299161,
2,1,0,1,0,9286.46,0.293745,0.293451,0.0106922,8,0.0183215,11,3.13763e-06,-4.97093,0.0180845,3.26246,1.30028,0.293451,
2,1,0,1,0,9293.95,0.286254,0.28598,0.00185208,8,0.0182493,11,5.29659e-07,-5.73234,0.00493529,11.9547,0.869404,0.28598,
2,1,0,1,0,9301.44,0.278763,0.278455,-0.00354363,8,0.0181254,11,-9.86739e-07,-5.45055,-0.0129654,-4.55056,0.579368,0.278455,
2,1,0,1,0,9308.93,0.271272,0.270998,-0.00788898,8,0.0179625,11,-2.1379e-06,-5.10298,-0.0313999,-1.87899,0.583533,0.270998,
2,0,0,1,0,9316.42,0.263781,0.263474,-0.0123004,8,0.0177663,11,-3.24084e-06,-4.91008,-0.0488121,-1.20872,0.574697,0.263474,
2,0,0,1,0,9323.91,0.25629,0.255957,-0.0161565,8,0.0175406,11,-4.13537e-06,-4.79165,-0.0716802,-0.8231,0.515271,0.255957,
2,0,0,1,0,9331.4,0.248799,0.248425,-0.0195358,8,0.017288,11,-4.85317e-06,-4.70917,-0.0909006,-0.649061,0.491536,0.248425,
2,0,0,1,0,9338.89,0.241308,0.241025,-0.0229376,8,0.01701,11,-5.52855e-06,-4.63945,-0.126287,-0.467189,0.4129,0.2410254,
2,0,0,1,0,9346.38,0.233817,0.233497,-0.0259393,8,0.0167072,11,-6.05675e-06,-4.58604,-0.137215,-0.429983,0.431739,0.2334975,
2,0,0,1,0,9353.87,0.226326,0.226021,-0.0291693,8,0.0163799,11,-6.59286e-06,-4.53507,-0.126351,-0.466954,0.533086,0.2260205,
2,0,0,1,0,9361.37,0.218835,0.218535,-0.0325001,8,0.0160281,11,-7.10241e-06,-4.48812,-0.139515,-0.422893,0.528448,0.218535,
2,0,0,1,0,9368.86,0.211344,0.211003,-0.0355459,8,0.0156516,11,-7.50029e-06,-4.44921,-0.232582,-0.253674,0.352207,0.211003,
2,0,0,1,0,9376.35,0.203853,0.203578,-0.0393674,8,0.0152479,11,-8.01435e-06,-4.40486,-0.16958,-0.347919,0.53182,0.203578,
2,0,0,1,0,9383.84,0.196362,0.196073,-0.0434544,8,0.0148154,11,-8.52022e-06,-4.36197,-0.195949,-0.301099,0.509167,0.196073,
2,0,0,1,0,9391.33,0.188871,0.18856,-0.0476418,8,0.0143493,11,-8.98331e-06,-4.32201,-0.125652,-0.46955,0.875333,0.18856,
2,0,0,1,0,9398.82,0.18138,0.181092,-0.0536207,8,0.013843,11,-9.71028e-06,-4.27067,-0.153868,-0.383445,0.797976,0.181092,
2,0,0,1,0,9406.31,0.173889,0.173577,-0.0612527,8,0.0132849,11,-1.06321e-05,-4.21287,-0.120669,-0.488942,1.1672,0.173577,
2,0,0,1,0,9413.8,0.166398,0.166046,-0.0726196,8,0.012654,11,-1.20582e-05,-4.13895,-0.0921329,-0.64038,1.82901,0.1660461,
2,0,0,1,0,9421.29,0.158907,0.15861,-0.090889,8,0.0119136,11,-1.44159e-05,-4.04149,-0.0726793,-0.811785,2.87592,0.15861,
2,0,0,1,0,9428.78,0.151417,0.151116,-0.118315,8,0.0109996,11,-1.78793e-05,-3.92696,-0.060036,-0.982744,4.5593,0.151116,
2,0,0,1,0,9436.27,0.143926,0.143633,-0.15245,8,0.00984421,11,-2.18969e-05,-3.81687,-0.0755171,-0.78128,4.62077,0.143633,
2,0,0,1,0,9443.77,0.136435,0.136101,-0.177896,8,0.00845797,11,-2.42119e-05,-3.74983,-0.180415,-0.327024,2.25413,0.136101,
2,0,0,1,0,9451.26,0.128944,0.128621,-0.183467,8,0.00695401,11,-2.35978e-05,-3.73644,0.836602,0.0705234,-0.502752,0.128621,
2,0,0,1,0,9458.75,0.121453,0.121163,-0.179894,8,0.0054476,11,-2.17966e-05,-3.74498,0.3724,0.158432,-1.10907,0.121163,
2,0,0,1,0,9466.24,0.113962,0.113654,-0.169034,8,0.00399695,11,-1.92114e-05,-3.77202,0.296827,0.198769,-1.31761,0.113654,
2,0,0,1,0,9473.73,0.106471,0.106164,-0.158472,8,0.00262599,11,-1.6824e-05,-3.80005,0.258856,0.227926,-1.41528,0.106164,
2,0,0,1,0,9481.22,0.0989798,0.0986657,-0.148484,8,0.00133852,11,-1.46502e-05,-3.82832,0.341874,0.172578,-0.997207,0.0986657,
2,0,0,1,0,9488.71,0.0914889,0.0912217,-0.140664,8,0.00012113,11,-1.28316e-05,-3.85182,0.396388,0.148844,-0.817596,0.0912217,
2,0,0,1,0,9496.2,0.083998,0.0837045,-0.135044,8,-0.00104702,11,-1.13038e-05,-3.86952,0.319434,0.184701,-0.97182,0.0837045,
2,0,0,1,0,9503.69,0.076507,0.0762021,-0.130602,8,-0.0021772,11,-9.95216e-06,-3.88405,0.50902,0.115909,-0.589671,0.07620208,
2,0,0,1,0,9511.18,0.069016,0.0687166,-0.125481,8,-0.00327111,11,-8.62263e-06,-3.90142,0.395623,0.149132,-0.73282,0.0687166,
2,0,0,1,0,9518.68,0.0615251,0.0612207,-0.120194,8,-0.00432804,11,-7.35835e-06,-3.92012,0.430553,0.137033,-0.642438,0.0612207,
2,0,0,1,0,9526.17,0.0540342,0.0537311,-0.115373,8,-0.00534351,11,-6.1991e-06,-3.9379,0.380561,0.155034,-0.696198,0.0537311,
2,0,0,1,0,9533.66,0.0465432,0.0462424,-0.109657,8,-0.00631968,11,-5.07082e-06,-3.95996,0.468864,0.125836,-0.540162,0.0462424,
2,0,0,1,0,9541.15,0.0390522,0.0387581,-0.106732,8,-0.00726217,11,-4.13672e-06,-3.97171,0.539455,0.10937,-0.453595,0.0387581,
2,0,0,1,0,9548.64,0.0315613,0.0312483,-0.104416,8,-0.00818238,11,-3.26283e-06,-3.98123,1.00765,0.058552,-0.238802,0.0312483,
2,0,0,1,0,9556.13,0.0240703,0.0237862,-0.104011,8,-0.0090924,11,-2.47403e-06,-3.98292,-1.38362,-0.0426417,0.173313,0.0237862,
2,0,0,1,0,9563.62,0.0165794,0.0162616,-0.104752,8,-0.010005,11,-1.70344e-06,-3.97984,-0.912384,-0.0646657,0.265368,0.0162616,
2,0,0,1,0,9571.11,0.00908843,0.00874431,-0.107649,8,-0.0109308,11,-9.41315e-07,-3.96799,-0.689954,-0.085513,0.359223,0.00874431,
2,0,0,1,0,9578.6,0.00159744,0.00122597,-0.11215,8,-0.0118827,11,-1.37492e-07,-3.9502, , , ,0.00122597,
2,0,0,1,0,9580,0.000199235,-0.000172594,-0.111575,8,-0.0120637,11,1.92572e-08,-3.95243, , , ,-0.000172594,