File: Figure_codes/Fig_3-5/rawdata_trumpetplot_data/before 10th/20221101_1-115_002_TrumpetPlot_ParaChange_10_CV_C01_6.csv
mode,ox/red,error,control changes,counter inc.,time/s,control/V,Ewe/V,<I>/mA,cycle number,(Q-Qo)/C,I Range,P/W,log(|I|),Tafel slope mV/dec,alpha_eff,dI/d(E-IR),E-IR/V,
2,0,0,0,0,8584.16,2.44065e-05,0.000113685,-6.19692,7,0.0000000E+000,11,-7.04496e-07,-2.20782, , , ,0.000113685,
2,1,0,1,0,8584.25,0.0072942,0.00704204,2.33397,7,-1.44749e-05,11,1.64359e-05,-2.6319,0.0189788,3.10873,259.958,0.00704204,
2,1,0,1,0,8584.34,0.0147816,0.0144636,3.13248,7,0.000252144,11,4.53069e-05,-2.50411,0.136602,0.43191,52.6656,0.0144636,
2,1,0,1,0,8584.44,0.0222707,0.0219864,3.3941,7,0.000559278,11,7.46241e-05,-2.46927,0.30325,0.194559,25.7739,0.0219864,
2,1,0,1,0,8584.53,0.0297581,0.0294158,3.61727,7,0.000887123,11,0.000106405,-2.44162,0.279817,0.210852,29.6813,0.0294158,
2,1,0,1,0,8584.63,0.0372544,0.0369548,3.84842,7,0.00123652,11,0.000142218,-2.41472,0.251786,0.234326,35.2095,0.0369548,
2,1,0,1,0,8584.72,0.0447507,0.0444685,4.13628,7,0.00161093,11,0.000183934,-2.38339,0.235392,0.250646,40.5659,0.0444685,
2,1,0,1,0,8584.81,0.0522381,0.0519027,4.49838,7,0.00201503,11,0.000233478,-2.34694,0.202908,0.290772,51.0396,0.0519027,
2,1,0,1,0,8584.91,0.0597273,0.0594306,4.89657,7,0.0024547,11,0.000291006,-2.31011,0.188545,0.312922,59.819,0.0594306,
2,1,0,1,0,8585,0.0672147,0.0669169,5.33134,7,0.00293355,11,0.000356757,-2.27316,0.211466,0.279004,58.0005,0.0669169,
2,1,0,1,0,8585.09,0.0747038,0.0743974,5.75898,7,0.00345265,11,0.000428454,-2.23965,0.252947,0.233251,52.3397,0.0743974,
2,1,0,1,0,8585.19,0.0822055,0.0819005,6.14187,7,0.00401123,11,0.000503022,-2.2117,0.275477,0.214174,51.3367,0.0819005,
2,1,0,1,0,8585.28,0.0896946,0.0893783,6.4931,7,0.00460347,11,0.000580342,-2.18755,0.337993,0.17456,44.2895,0.0893783,
2,1,0,1,0,8585.37,0.097182,0.0968533,6.86699,7,0.0052288,11,0.00066509,-2.16323,0.311258,0.189553,50.7604,0.0968533,
2,1,0,1,0,8585.47,0.104671,0.104376,7.28034,7,0.00588993,11,0.000759891,-2.13785,0.234982,0.251083,71.3873,0.104376,
2,1,0,1,0,8585.56,0.112159,0.111883,7.85962,7,0.00659769,11,0.000879359,-2.1046,0.206447,0.285787,87.7633,0.111883,
2,1,0,1,0,8585.66,0.119655,0.11938,8.62111,7,0.00736879,11,0.00102919,-2.06444,0.193789,0.304454,102.313,0.11938,
2,1,0,1,0,8585.75,0.127149,0.126886,9.4222,7,0.00821415,11,0.00119555,-2.02585,0.204352,0.288717,106.098,0.126886,
2,1,0,1,0,8585.84,0.134639,0.134317,10.1631,7,0.00913228,11,0.00136507,-1.99297,0.251397,0.234688,93.1347,0.134317,
2,1,0,1,0,8585.94,0.142126,0.141868,10.779,7,0.0101145,11,0.00152919,-1.96742,0.373759,0.157856,66.3431,0.141868,
2,1,0,1,0,8586.03,0.149615,0.14929,11.1057,7,0.0111421,11,0.00165797,-1.95445,2.52443,0.0233717,10.1025,0.14929,
2,1,0,1,0,8586.12,0.157103,0.156821,10.737,7,0.0121718,11,0.00168378,-1.96912,-0.21589,-0.273288,-114.046,0.156821,
2,1,0,1,0,8586.22,0.164606,0.164311,9.24103,7,0.0131183,11,0.0015184,-2.03428,-0.0778251,-0.75811,-272.274,0.164311,
2,1,0,1,0,8586.31,0.172095,0.171834,7.12837,7,0.0138837,11,0.0012249,-2.14701,-0.0646976,-0.911935,-254.273,0.171834,
2,1,0,1,0,8586.4,0.179582,0.179307,5.6265,7,0.0144739,11,0.00100887,-2.24976,-0.0912993,-0.646226,-142.725,0.179307,
2,1,0,1,0,8586.5,0.18707,0.186808,4.82414,7,0.0149599,11,0.000901189,-2.31658,-0.137458,-0.429222,-80.9435,0.186808,
2,1,0,1,0,8586.59,0.194559,0.194268,4.34763,7,0.0153873,11,0.000844606,-2.36175,-0.187229,-0.315123,-53.4196,0.194268,
2,1,0,1,0,8586.69,0.202062,0.201751,4.01458,7,0.0157782,11,0.000809944,-2.39636,-0.275966,-0.213795,-33.497,0.201751,
2,1,0,1,0,8586.78,0.20955,0.209293,3.79583,7,0.0161435,11,0.000794441,-2.42069,-0.301311,-0.195811,-29.0526,0.209293,
2,1,0,1,0,8586.87,0.217039,0.216759,3.64345,7,0.0164914,11,0.00078975,-2.43849,-0.460162,-0.128216,-18.2413,0.216759,
2,1,0,1,0,8586.97,0.224526,0.224287,3.53946,7,0.0168274,11,0.000793856,-2.45106,-0.659882,-0.0894099,-12.3413,0.224287,
2,1,0,1,0,8587.06,0.232016,0.231747,3.44996,7,0.0171544,11,0.000799517,-2.46219,-1.20766,-0.048855,-6.58366,0.231747,
2,1,0,1,0,8587.15,0.23951,0.239235,3.39091,7,0.017475,11,0.000811223,-2.46968,-0.871861,-0.0676714,-8.95255,0.239235,
2,1,0,1,0,8587.25,0.247006,0.246739,3.34049,7,0.01779,11,0.000824229,-2.47619,-1.35774,-0.0434547,-5.6476,0.246739,
2,1,0,1,0,8587.34,0.254494,0.254222,3.28077,7,0.0180999,11,0.000834043,-2.48402,-1.35815,-0.0434416,-5.57507,0.2542218,
2,1,0,1,0,8587.43,0.261983,0.261695,3.23908,7,0.0184056,11,0.000847651,-2.48958,-0.839962,-0.0702413,-8.89139,0.261695,
2,1,0,1,0,8587.53,0.26947,0.269181,3.20723,7,0.0187073,11,0.000863325,-2.49387,-2.46435,-0.0239414,-2.9914,0.269181,
2,1,0,1,0,8587.62,0.276959,0.276678,3.16081,7,0.0190055,11,0.000874528,-2.5002,-2.7819,-0.0212085,-2.6201,0.276678,
2,1,0,1,0,8587.72,0.284461,0.284171,3.13031,7,0.0193008,11,0.000889544,-2.50441,-1.1853,-0.0497763,-6.07366,0.284171,
2,1,0,1,0,8587.81,0.29195,0.291632,3.09695,7,0.0195919,11,0.000903169,-2.50907,-1.11615,-0.0528602,-6.36751,0.291632,
2,1,0,1,0,8587.9,0.299438,0.299218,3.04799,7,0.0198797,11,0.000912015,-2.51599,-0.0212029,-2.78263,-293.893,0.299218,
2,0,0,1,0,8587.98,0.29424,0.293949,-1.03843,7,0.0198966,11,-0.000305246,-2.98362,-0.021077,-2.79926,103.449,0.293949,
2,0,0,1,0,8588.08,0.286753,0.286445,-1.40023,7,0.0197798,11,-0.00040109,-2.8538,-0.0912853,-0.646325,35.2024,0.286445,
2,0,0,1,0,8588.17,0.279264,0.278972,-1.60472,7,0.0196383,11,-0.000447672,-2.7946,-0.157531,-0.374528,23.516,0.278972,
2,0,0,1,0,8588.26,0.271776,0.271444,-1.76886,7,0.0194799,11,-0.000480147,-2.75231,-0.201898,-0.292227,20.1656,0.271444,
2,0,0,1,0,8588.36,0.26428,0.264031,-1.90482,7,0.0193077,11,-0.00050293,-2.72015,-0.222249,-0.265468,19.6748,0.264031,
2,0,0,1,0,8588.45,0.256786,0.25644,-2.00959,7,0.019124,11,-0.000515338,-2.69689,-0.299421,-0.197047,15.4746,0.25644,
2,0,0,1,0,8588.54,0.249296,0.248986,-2.12144,7,0.0189303,11,-0.000528208,-2.67337,-0.511321,-0.115387,9.53866,0.248986,
2,0,0,1,0,8588.64,0.241809,0.241545,-2.21642,7,0.0187272,11,-0.000535365,-2.65435,-0.375148,-0.157271,13.6228,0.241545,
2,0,0,1,0,8588.73,0.23432,0.233999,-2.30746,7,0.0185152,11,-0.000539942,-2.63687,-0.397947,-0.148261,13.396,0.233999,
2,0,0,1,0,8588.82,0.226833,0.226548,-2.40412,7,0.0182942,11,-0.000544649,-2.61904,-0.42562,-0.138621,13.0183,0.226548,
2,0,0,1,0,8588.92,0.219329,0.219053,-2.51841,7,0.0180636,11,-0.000551665,-2.59887,-0.392045,-0.150493,14.7338,0.219053,
2,0,0,1,0,8589.01,0.21184,0.211523,-2.61272,7,0.0178238,11,-0.000552651,-2.58291,-0.391888,-0.150553,15.3552,0.211523,
2,0,0,1,0,8589.11,0.204353,0.204054,-2.73937,7,0.0175731,11,-0.000558981,-2.56235,-0.542269,-0.108802,11.6562,0.2040545,
2,0,0,1,0,8589.2,0.196863,0.196539,-2.88006,7,0.0173102,11,-0.000566043,-2.5406,-0.333621,-0.176847,19.9017,0.196539,
2,0,0,1,0,8589.29,0.189376,0.189044,-3.05589,7,0.0170323,11,-0.000577696,-2.51486,-0.244122,-0.241682,28.9267,0.189044,
2,0,0,1,0,8589.39,0.18188,0.181529,-3.29824,7,0.0167347,11,-0.000598727,-2.48172,-0.201376,-0.292985,37.7634,0.1815294,
2,0,0,1,0,8589.48,0.174385,0.174075,-3.63634,7,0.0164107,11,-0.000632997,-2.43934,-0.162627,-0.362793,51.4554,0.174075,
2,0,0,1,0,8589.57,0.166896,0.166561,-4.11614,7,0.0160498,11,-0.000685586,-2.38551,-0.118884,-0.496282,79.6188,0.166561,
2,0,0,1,0,8589.67,0.159409,0.159061,-4.81583,7,0.0156341,11,-0.000766011,-2.31733,-0.0976175,-0.6044,113.815,0.159061,
2,0,0,1,0,8589.76,0.151919,0.151636,-5.86155,7,0.0151367,11,-0.00088882,-2.23199,-0.0825331,-0.714864,163.793,0.151636,
2,0,0,1,0,8589.85,0.144425,0.144093,-7.22807,7,0.0145251,11,-0.00104151,-2.14098,-0.0845541,-0.697778,196.725,0.144093,
2,0,0,1,0,8589.95,0.136929,0.136627,-8.71035,7,0.013778,11,-0.00119007,-2.05996,-0.10348,-0.570156,193.618,0.1366272,
2,0,0,1,0,8590.04,0.129441,0.129135,-10.0056,7,0.0128992,11,-0.00129207,-1.99976,-0.159023,-0.371015,144.547,0.129135,
2,0,0,1,0,8590.14,0.121952,0.121654,-10.8684,7,0.0119187,11,-0.00132218,-1.96384,-0.317372,-0.185902,78.6416,0.121654,
2,0,0,1,0,8590.23,0.114465,0.114115,-11.1854,7,0.0108822,11,-0.00127642,-1.95135,-4.19857,-0.0140524,6.12472,0.114115,
2,0,0,1,0,8590.32,0.106976,0.106606,-10.9638,7,0.00984112,11,-0.0011688,-1.96004,0.381565,0.154627,-66.1034,0.106606,
2,0,0,1,0,8590.42,0.0994721,0.0991666,-10.2927,7,0.00884091,11,-0.0010207,-1.98747,0.212854,0.277185,-111.252,0.0991666,
2,0,0,1,0,8590.51,0.0919847,0.0916469,-9.39487,7,0.00791927,11,-0.000861011,-2.02711,0.194327,0.303612,-111.417,0.0916469,
2,0,0,1,0,8590.6,0.0844973,0.0841572,-8.63887,7,0.0070767,11,-0.000727023,-2.06354,0.228673,0.258011,-87.0553,0.0841572,
2,0,0,1,0,8590.7,0.0770082,0.0766661,-8.1283,7,0.00629405,11,-0.000623165,-2.09,0.311373,0.189483,-60.0561,0.0766661,
2,0,0,1,0,8590.79,0.0695208,0.0692531,-7.7424,7,0.00555223,11,-0.000536185,-2.11112,0.41974,0.140563,-42.5063,0.0692531,
2,0,0,1,0,8590.88,0.0620245,0.0616838,-7.40742,7,0.0048418,11,-0.000456918,-2.13033,0.35326,0.167016,-48.3352,0.06168377,
2,0,0,1,0,8590.98,0.0545282,0.0541884,-7.05098,7,0.00416393,11,-0.000382081,-2.15175,0.315816,0.186818,-51.3626,0.0541884,
2,0,0,1,0,8591.07,0.0470408,0.0467137,-6.60716,7,0.0035242,11,-0.000308645,-2.17999,0.257316,0.22929,-59.1151,0.0467137,
2,0,0,1,0,8591.17,0.0395517,0.0392338,-6.13728,7,0.00292765,11,-0.000240789,-2.21202,0.228279,0.258455,-61.899,0.0392338,
2,0,0,1,0,8591.26,0.0320643,0.0317011,-5.73046,7,0.00237323,11,-0.000181662,-2.24181,0.263046,0.224296,-50.143,0.0317011,
2,0,0,1,0,8591.35,0.0245751,0.0242591,-5.42866,7,0.00185234,11,-0.000131695,-2.26531,0.431589,0.136704,-28.9821,0.0242591,
2,0,0,1,0,8591.45,0.0170735,0.0167606,-5.24385,7,0.00135222,11,-8.78898e-05,-2.28035,0.694805,0.0849159,-17.4318,0.0167606,
2,0,0,1,0,8591.54,0.00958429,0.00928616,-5.18023,7,0.000864531,11,-4.81044e-05,-2.28565,2.50353,0.0235668,-4.76329,0.00928616,
2,0,0,1,0,8591.63,0.0020969,0.00172656,-5.23687,7,0.000380346,11,-9.04178e-06,-2.28093,-0.811619,-0.0726942,14.7282,0.00172656,
2,0,0,1,0,8591.66,0.000199195,-0.000163081,-5.22081,7,0.00025652,11,8.51417e-07,-2.28226, , , ,-0.000163081,