File: Figure_codes/Fig_3-5/rawdata_trumpetplot_data/before 10th/20221101_1-115_002_TrumpetPlot_ParaChange_14_CV_C01_1.csv
mode,ox/red,error,control changes,counter inc.,time/s,control/V,Ewe/V,<I>/mA,cycle number,(Q-Qo)/C,I Range,P/W,log(|I|),Tafel slope mV/dec,alpha_eff,dI/d(E-IR),E-IR/V,
2,1,0,1,0,2447.92,2.44065e-05,-0.000840681,21.7769,2,0.0000000E+000,10,-1.83075e-05,-1.662, , , ,-0.0008406812,
2,1,0,1,0,2447.94,0.0102815,0.00998395,26.3155,2,0.000416034,10,0.000262733,-1.57979,0.174382,0.338338,344.559,0.00998395,
2,1,0,1,0,2447.96,0.0210878,0.0207481,29.0725,2,0.000917583,10,0.000603199,-1.53652,0.387152,0.152395,171.956,0.0207481,
2,1,0,1,0,2447.97,0.0318859,0.0315919,30.3414,2,0.00145397,10,0.00095854,-1.51796,0.905617,0.065149,76.9164,0.0315919,
2,1,0,1,0,2447.99,0.042684,0.0423582,30.8727,2,0.0020054,10,0.00130771,-1.51042,2.0115,0.0293314,35.3014,0.04235816,
2,1,0,1,0,2448.01,0.0534793,0.0531435,31.1793,2,0.00256382,10,0.00165698,-1.50613,2.12109,0.0278159,33.8775,0.0531435,
2,1,0,1,0,2448.03,0.0642857,0.0639374,31.7169,2,0.00312948,10,0.00202789,-1.49871,1.03549,0.0569777,70.633,0.0639374,
2,1,0,1,0,2448.05,0.0750837,0.0747843,32.7552,2,0.00370899,10,0.00244958,-1.48472,0.6061,0.0973437,124.661,0.0747843,
2,1,0,1,0,2448.06,0.0858818,0.0855549,34.3279,2,0.00431231,10,0.00293692,-1.46435,0.45027,0.131032,176.007,0.0855549,
2,1,0,1,0,2448.08,0.0966882,0.0963275,36.6736,2,0.0049503,10,0.00353267,-1.43565,0.348503,0.169295,242.439,0.0963275,
2,1,0,1,0,2448.1,0.107483,0.10719,39.4951,2,0.00563551,10,0.00423349,-1.40346,0.321378,0.183584,283.237,0.10719,
2,1,0,1,0,2448.12,0.118282,0.117948,42.7611,2,0.00637549,10,0.0050436,-1.36895,0.306885,0.192255,321.089,0.117948,
2,1,0,1,0,2448.14,0.129088,0.128739,46.4859,2,0.0071783,10,0.00598455,-1.33268,0.291558,0.202361,367.352,0.128739,
2,1,0,1,0,2448.15,0.139886,0.139565,50.8514,2,0.00805355,10,0.00709706,-1.2937,0.267108,0.220884,438.656,0.139565,
2,1,0,1,0,2448.17,0.150681,0.150314,56.0241,2,0.00901446,10,0.00842119,-1.25163,0.249489,0.236484,517.39,0.1503139,
2,1,0,1,0,2448.19,0.161485,0.161123,61.9582,2,0.0100759,10,0.00998286,-1.2079,0.250214,0.235798,570.003,0.161123,
2,1,0,1,0,2448.21,0.172286,0.171914,68.1601,2,0.0112478,10,0.0117177,-1.16647,0.280283,0.210502,559.122,0.171914,
2,1,0,1,0,2448.23,0.183084,0.182766,73.7618,2,0.0125273,10,0.0134811,-1.13217,0.375558,0.1571,450.854,0.182766,
2,1,0,1,0,2448.24,0.193879,0.193566,77.2436,2,0.0138915,10,0.0149517,-1.11214,1.16489,0.0506486,151.87,0.193566,
2,1,0,1,0,2448.26,0.204688,0.204347,76.2763,2,0.0152822,10,0.0155868,-1.11761,-0.454783,-0.129732,-382.753,0.204347,
2,1,0,1,0,2448.28,0.215484,0.215213,68.5499,2,0.0165958,10,0.0147528,-1.16399,-0.152563,-0.386726,-1023.58,0.2152129,
2,1,0,1,0,2448.3,0.226282,0.226061,54.8307,2,0.0177109,10,0.0123951,-1.26098,-0.0892427,-0.661118,-1404.63,0.226061,
2,1,0,1,0,2448.32,0.237088,0.236873,39.8813,2,0.0185595,10,0.0094468,-1.39923,-0.0722588,-0.81651,-1272.94,0.236873,
2,1,0,1,0,2448.33,0.247886,0.247636,28.6007,2,0.0191666,10,0.00708256,-1.54362,-0.0844504,-0.698635,-790.01,0.247636,
2,1,0,1,0,2448.35,0.258681,0.25843,22.705,2,0.0196202,10,0.00586766,-1.64388,-0.155423,-0.379609,-341.245,0.25843,
2,1,0,1,0,2448.37,0.269488,0.269225,20.5971,2,0.0200058,10,0.00554525,-1.68619,-0.471427,-0.125152,-101.246,0.2692247,
2,1,0,1,0,2448.39,0.280286,0.28002,20.1144,2,0.0203707,10,0.00563243,-1.69649,-3.72402,-0.0158431,-12.4519,0.28002,
2,1,0,1,0,2448.41,0.291084,0.290794,20.0674,2,0.0207322,10,0.0058355,-1.69751,57.67,0.00102306,0.80214,0.290794,
2,1,0,1,0,2448.42,0.300012,0.299689,20.0628,2,0.0210314,10,0.00601261,-1.69761,0.000287419,205.275,112961,0.2996892,
2,0,0,1,0,2448.44,0.290843,0.290651,-2.64349,2,0.0211326,10,-0.000768333,-2.57782,-0.109939,-0.536659,1438.7,0.290651,
2,0,0,1,0,2448.45,0.280047,0.279774,-11.1141,2,0.0209926,10,-0.00310944,-1.95412,-0.056958,-1.03585,424.189,0.279774,
2,0,0,1,0,2448.47,0.269244,0.268941,-13.7866,2,0.0207641,10,-0.00370776,-1.86054,-0.211098,-0.279491,148.826,0.268941,
2,0,0,1,0,2448.49,0.258443,0.258159,-14.9129,2,0.0205046,10,-0.00384991,-1.82644,-0.437489,-0.134861,78.3051,0.258159,
2,0,0,1,0,2448.51,0.247645,0.24737,-15.6597,2,0.0202291,10,-0.00387374,-1.80522,-0.52295,-0.112821,69.0348,0.24737,
2,0,0,1,0,2448.53,0.236849,0.236582,-16.4052,2,0.0199403,10,-0.00388119,-1.78502,-0.549174,-0.107434,68.8152,0.2365822,
2,0,0,1,0,2448.54,0.22604,0.22576,-17.2271,2,0.0196378,10,-0.00388918,-1.76379,-0.495693,-0.119025,80.0285,0.2257597,
2,0,0,1,0,2448.56,0.215245,0.214975,-18.1922,2,0.0193193,10,-0.00391087,-1.74012,-0.407128,-0.144918,102.914,0.214975,
2,0,0,1,0,2448.58,0.204447,0.204162,-19.423,2,0.0189814,10,-0.00396545,-1.71168,-0.348962,-0.169073,128.16,0.204162,
2,0,0,1,0,2448.6,0.19364,0.193352,-20.995,2,0.0186184,10,-0.00405942,-1.67788,-0.286431,-0.205984,168.999,0.193352,
2,0,0,1,0,2448.62,0.182842,0.182522,-23.1163,2,0.0182223,10,-0.00421923,-1.63608,-0.227132,-0.259761,235.047,0.182522,
2,0,0,1,0,2448.63,0.172047,0.171793,-26.0437,2,0.0177808,10,-0.00447413,-1.5843,-0.187158,-0.315242,321.681,0.171793,
2,0,0,1,0,2448.65,0.161241,0.160928,-30.0899,2,0.0172769,10,-0.00484229,-1.52158,-0.161988,-0.364225,428.804,0.1609275,
2,0,0,1,0,2448.67,0.150443,0.150195,-35.4337,2,0.016689,10,-0.00532197,-1.45058,-0.144921,-0.407119,563.94,0.150195,
2,0,0,1,0,2448.69,0.139645,0.139397,-42.1474,2,0.0159917,10,-0.00587523,-1.37523,-0.144756,-0.407584,670.654,0.139397,
2,0,0,1,0,2448.71,0.128849,0.128629,-49.7315,2,0.0151654,10,-0.0063969,-1.30337,-0.157004,-0.375786,728.101,0.1286286,
2,0,0,1,0,2448.72,0.118043,0.117861,-57.5223,2,0.0141989,10,-0.00677965,-1.24016,-0.188676,-0.312706,700.546,0.117861,
2,0,0,1,0,2448.74,0.107245,0.106995,-64.8194,2,0.0130961,10,-0.00693536,-1.1883,-0.238596,-0.24728,623.438,0.106995,
2,0,0,1,0,2448.76,0.0964468,0.0961971,-70.6346,2,0.0118734,10,-0.00679484,-1.15098,-0.371878,-0.158654,435.774,0.0961971,
2,0,0,1,0,2448.78,0.0856404,0.0853513,-74.0302,2,0.0105669,10,-0.00631857,-1.13059,-1.01225,-0.0582861,167.598,0.0853513,
2,0,0,1,0,2448.8,0.0748451,0.0745362,-74.0685,2,0.00922852,10,-0.00552078,-1.13037,1.03255,0.0571403,-164.348,0.0745362,
2,0,0,1,0,2448.81,0.0640471,0.0637306,-70.4792,2,0.00792289,10,-0.00449169,-1.15194,0.347033,0.170013,-465.888,0.06373065,
2,0,0,1,0,2448.83,0.0532407,0.0529495,-64.4304,2,0.00670707,10,-0.00341156,-1.19091,0.243304,0.242495,-608.83,0.0529495,
2,0,0,1,0,2448.85,0.0424426,0.0421567,-57.7521,2,0.00560832,10,-0.00243464,-1.23843,0.220897,0.267092,-602.103,0.0421567,
2,0,0,1,0,2448.87,0.0316473,0.031348,-51.5141,2,0.0046261,10,-0.00161486,-1.28807,0.212621,0.277489,-557.906,0.031348,
2,0,0,1,0,2448.89,0.0208437,0.0205445,-45.6978,2,0.00375232,10,-0.00093884,-1.3401,0.203495,0.289933,-517.298,0.0205445,
2,0,0,1,0,2448.9,0.0100429,0.00971461,-40.5335,2,0.00297825,10,-0.000393767,-1.39219,0.220655,0.267386,-423.935,0.00971461,
2,0,0,1,0,2448.92,-0.000755207,-0.00112487,-36.8587,2,0.00228525,10,4.14613e-05,-1.43346,0.337413,0.17486,-252.268,-0.00112487,
2,0,0,1,0,2448.94,-0.0115505,-0.0118519,-34.8701,2,0.00164257,10,0.000413279,-1.45755,0.728383,0.0810013,-110.655,-0.0118519,
2,0,0,1,0,2448.96,-0.0223597,-0.0226819,-34.3004,2,0.0010218,10,0.000777997,-1.4647,9.24231,0.00638368,-8.56269,-0.0226819,
2,0,0,1,0,2448.98,-0.033155,-0.0334546,-34.5666,2,0.000402876,10,0.00115641,-1.46134,-1.40191,-0.0420855,56.8801,-0.03345456,
2,0,0,1,0,2448.99,-0.043953,-0.0442357,-35.3187,2,-0.000225919,10,0.00156235,-1.452,-0.978886,-0.0602726,83.2047,-0.0442357,
2,0,0,1,0,2449.01,-0.0547594,-0.0550911,-36.3496,2,-0.000870909,10,0.00200254,-1.4395,-0.84948,-0.0694543,98.5689,-0.0550911,
2,0,0,1,0,2449.03,-0.0655575,-0.0658744,-37.4832,2,-0.00153549,10,0.00246918,-1.42616,-0.778464,-0.0757902,110.915,-0.0658744,
2,0,0,1,0,2449.05,-0.0763528,-0.0767298,-38.7283,2,-0.00222147,10,0.00297161,-1.41197,-0.759035,-0.0777303,117.529,-0.07672976,
2,0,0,1,0,2449.07,-0.0871592,-0.0874579,-40.0783,2,-0.0029305,10,0.00350516,-1.39709,-0.727171,-0.0811364,126.867,-0.0874579,
2,0,0,1,0,2449.08,-0.0979573,-0.0983101,-41.5353,2,-0.00366474,10,0.00408334,-1.38158,-0.713727,-0.0826646,133.249,-0.0983101,
2,0,0,1,1,2449.1,-0.0955546,-0.0960567,-26.2744,2,-0.00406208,10,0.00252383,-1.58047,-0.0187434,-3.14778,3052.19,-0.0960567,
2,0,0,1,1,2449.11,-0.0847538,-0.085213,-0.958178,2,-0.00428451,10,8.16493e-05,-3.01855,-0.0482356,-1.22316,1797.59,-0.08521302,
2,1,0,1,1,2449.13,-0.0739557,-0.0744722,14.1611,2,-0.00415315,10,-0.00105461,-1.8489,0.0269673,2.18784,1106.57,-0.0744722,
2,1,0,1,1,2449.15,-0.0631604,-0.0635913,23.7179,2,-0.00380443,10,-0.00150825,-1.62492,0.0778122,0.758236,686.34,-0.0635913,
2,1,0,1,1,2449.17,-0.0523512,-0.0527444,29.4513,2,-0.0033207,10,-0.00155339,-1.5309,0.166402,0.354563,403.486,-0.0527444,
2,1,0,1,1,2449.19,-0.0415559,-0.0419007,32.6997,2,-0.00275827,10,-0.00137014,-1.48546,0.335274,0.175975,223.459,-0.0419007,
2,1,0,1,1,2449.2,-0.0307579,-0.031127,34.3902,2,-0.00215233,10,-0.00107046,-1.46357,0.784568,0.0752006,100.659,-0.031127,
2,1,0,1,1,2449.22,-0.0199515,-0.0202642,35.0606,2,-0.00152603,10,-0.000710474,-1.45518,2.95898,0.0199393,27.2252,-0.0202642,
2,1,0,1,1,2449.24,-0.0091534,-0.00950527,35.0454,2,-0.000894344,10,-0.000333116,-1.45537,-3.28531,-0.0179587,-24.5306,-0.00950527,
2,1,0,1,1,2449.25,-7.54729e-05,-0.000325324,34.6171,2,-0.000367539,10,-1.12618e-05,-1.46071, , , ,-0.000325324,