File: Figure_codes/Fig_3-5/rawdata_trumpetplot_data/before 10th/20221101_1-115_002_TrumpetPlot_ParaChange_14_CV_C01_0.csv
mode,ox/red,error,control changes,counter inc.,time/s,control/V,Ewe/V,<I>/mA,cycle number,(Q-Qo)/C,I Range,P/W,log(|I|),Tafel slope mV/dec,alpha_eff,dI/d(E-IR),E-IR/V,
2,1,0,0,0,1216.29,2.44065e-05,-0.000840681,21.8278,1,0.0000000E+000,10,-1.83502e-05,-1.66099, , , ,-0.0008406812,
2,1,0,1,0,1216.31,0.0102815,0.00989699,26.276,1,0.000416791,10,0.000260054,-1.58044,0.181734,0.324651,330.344,0.00989699,
2,1,0,1,0,1216.33,0.0210878,0.020764,28.8848,1,0.000916245,10,0.000599766,-1.53933,0.399339,0.147744,165.74,0.02076404,
2,1,0,1,0,1216.35,0.0318859,0.0315463,30.0779,1,0.00144875,10,0.000948846,-1.52175,1.02018,0.0578331,67.7311,0.0315463,
2,1,0,1,0,1216.36,0.042684,0.0423836,30.5188,1,0.00199493,10,0.0012935,-1.51543,3.04498,0.0193762,23.0649,0.0423836,
2,1,0,1,0,1216.38,0.0534793,0.0531276,30.6683,1,0.00254581,10,0.00162933,-1.51331,5.24245,0.0112543,13.4789,0.05312765,
2,1,0,1,0,1216.4,0.0642857,0.0639682,30.9248,1,0.00309993,10,0.0019782,-1.50969,1.95022,0.030253,36.5522,0.0639682,
2,1,0,1,0,1216.42,0.0750837,0.0747175,31.5957,1,0.00366176,10,0.00236075,-1.50037,0.823211,0.0716706,88.4829,0.0747175,
2,1,0,1,0,1216.44,0.0858818,0.0855655,32.8023,1,0.00424045,10,0.00280674,-1.4841,0.552873,0.106715,136.759,0.0855655,
2,1,0,1,0,1216.45,0.0966882,0.0963138,34.6116,1,0.00484598,10,0.00333357,-1.46078,0.387449,0.152278,206.042,0.0963138,
2,1,0,1,0,1216.47,0.107483,0.107164,37.1395,1,0.00549122,10,0.00398001,-1.43016,0.33161,0.17792,258.13,0.107164,
2,1,0,1,0,1216.49,0.118282,0.117967,40.1604,1,0.00618642,10,0.00473761,-1.3962,0.302565,0.195,305.993,0.117967,
2,1,0,1,0,1216.51,0.129088,0.128746,43.7561,1,0.00694121,10,0.00563344,-1.35896,0.276073,0.213712,365.418,0.128746,
2,1,0,1,0,1216.53,0.139886,0.139543,48.0721,1,0.00776704,10,0.00670814,-1.31811,0.251251,0.234825,441.182,0.139543,
2,1,0,1,0,1216.54,0.150681,0.150388,53.2796,1,0.00867847,10,0.00801262,-1.27344,0.23558,0.250446,521.372,0.150388,
2,1,0,1,0,1216.56,0.161485,0.161188,59.3546,1,0.00969176,10,0.00956727,-1.22655,0.232325,0.253955,588.208,0.161188,
2,1,0,1,0,1216.58,0.172286,0.171982,65.8627,1,0.0108192,10,0.0113272,-1.18136,0.254671,0.231672,594.572,0.171982,
2,1,0,1,0,1216.6,0.183084,0.182773,71.9935,1,0.0120614,10,0.0131585,-1.14271,0.320125,0.184303,516.424,0.182773,
2,1,0,1,0,1216.62,0.193879,0.19356,76.5313,1,0.0134021,10,0.0148134,-1.11616,0.609234,0.096843,287.924,0.19356,
2,1,0,1,0,1216.63,0.204688,0.204408,77.5451,1,0.0147962,10,0.0158509,-1.11045,-1.13743,-0.0518712,-155.769,0.204408,
2,1,0,1,0,1216.65,0.215484,0.215214,72.5442,1,0.016157,10,0.0156125,-1.1394,-0.21072,-0.279992,-784.443,0.215214,
2,1,0,1,0,1216.67,0.226282,0.226063,60.8336,1,0.0173648,10,0.0137522,-1.21586,-0.107072,-0.551032,-1296.37,0.226063,
2,1,0,1,0,1216.69,0.237088,0.236859,45.8133,1,0.018324,10,0.0108513,-1.33901,-0.0775017,-0.761274,-1358.45,0.236859,
2,1,0,1,0,1216.71,0.247886,0.247605,32.8282,1,0.0190241,10,0.00812844,-1.48375,-0.0781918,-0.754555,-976.35,0.247605,
2,1,0,1,0,1216.72,0.258681,0.25844,25.0063,1,0.0195359,10,0.00646264,-1.60195,-0.11873,-0.496925,-492.621,0.25844,
2,1,0,1,0,1216.74,0.269488,0.269182,21.6523,1,0.0199507,10,0.00582841,-1.6645,-0.277942,-0.212274,-181.161,0.269182,
2,1,0,1,0,1216.76,0.280286,0.280036,20.5889,1,0.0203288,10,0.00576563,-1.68637,-0.931079,-0.0633674,-51.0564,0.280036,
2,1,0,1,0,1216.78,0.291084,0.290801,20.3162,1,0.0206962,10,0.00590796,-1.69216,-3.24635,-0.0181743,-14.4152,0.290801,
2,1,0,0,0,1216.79,0.300012,0.299727,20.2225,1,0.0209981,10,0.00606123,-1.69417,0.000293644,200.923,113853,0.299727,
2,0,0,1,0,1216.81,0.290843,0.290649,-1.89728,1,0.0211081,10,-0.000551443,-2.72187,-3.27729,-0.0180027,1421.17,0.290649,
2,0,0,1,0,1216.83,0.280047,0.279792,-10.5154,1,0.0209809,10,-0.00294212,-1.97817,-0.0509339,-1.15836,445.166,0.279792,
2,0,0,1,0,1216.84,0.269244,0.268974,-13.3853,1,0.0207616,10,-0.00360029,-1.87337,-0.181946,-0.324272,167.209,0.268974,
2,0,0,1,0,1216.86,0.258443,0.258156,-14.6457,1,0.0205082,10,-0.00378088,-1.83429,-0.364367,-0.161924,92.2544,0.258156,
2,0,0,1,0,1216.88,0.247645,0.247387,-15.4992,1,0.0202364,10,-0.00383429,-1.80969,-0.458951,-0.128554,77.8437,0.247387,
2,0,0,1,0,1216.9,0.236849,0.236577,-16.3134,1,0.0199498,10,-0.00385937,-1.78746,-0.484094,-0.121877,77.6932,0.236577,
2,0,0,1,0,1216.92,0.22604,0.225823,-17.2023,1,0.0196482,10,-0.00388468,-1.76441,-0.463905,-0.127181,85.4652,0.225823,
2,0,0,1,0,1216.93,0.215245,0.214971,-18.2302,1,0.0193293,10,-0.00391897,-1.73921,-0.390022,-0.151274,107.822,0.2149711,
2,0,0,1,0,1216.95,0.204447,0.20418,-19.5217,1,0.0189898,10,-0.00398594,-1.70948,-0.3344,-0.176435,134.665,0.20418,
2,0,0,1,0,1216.97,0.19364,0.193346,-21.2051,1,0.0186239,10,-0.00409992,-1.67356,-0.279169,-0.211342,175.138,0.193346,
2,0,0,1,0,1216.99,0.182842,0.182599,-23.4237,1,0.0182231,10,-0.00427714,-1.63035,-0.224982,-0.262243,240.193,0.182599,
2,0,0,1,0,1217.01,0.172047,0.171744,-26.4321,1,0.0177756,10,-0.00453955,-1.57787,-0.187167,-0.315226,326.067,0.171744,
2,0,0,1,0,1217.02,0.161241,0.160951,-30.4927,1,0.0172646,10,-0.00490783,-1.5158,-0.164161,-0.359403,428.455,0.160951,
2,0,0,1,0,1217.04,0.150443,0.150193,-35.7975,1,0.0166698,10,-0.00537653,-1.44615,-0.149197,-0.395451,553.231,0.150193,
2,0,0,1,0,1217.06,0.139645,0.139396,-42.3745,1,0.0159672,10,-0.00590684,-1.3729,-0.15039,-0.392314,648.121,0.139396,
2,0,0,1,0,1217.08,0.128849,0.128665,-49.7454,1,0.0151388,10,-0.00640047,-1.30325,-0.159542,-0.369808,717.215,0.128665,
2,0,0,1,0,1217.1,0.118043,0.117875,-57.4305,1,0.0141727,10,-0.00676962,-1.24086,-0.191289,-0.308433,690.325,0.117875,
2,0,0,1,0,1217.11,0.107245,0.10699,-64.7059,1,0.0130715,10,-0.00692288,-1.18906,-0.2402,-0.245628,618.493,0.10699,
2,0,0,1,0,1217.13,0.0964468,0.0962035,-70.6,1,0.0118503,10,-0.00679196,-1.1512,-0.361988,-0.162989,447.521,0.0962035,
2,0,0,1,0,1217.15,0.0856404,0.085329,-74.1607,1,0.0105429,10,-0.00632806,-1.12983,-0.94968,-0.0621262,178.917,0.085329,
2,0,0,1,0,1217.17,0.0748451,0.0745733,-74.2227,1,0.00920172,10,-0.00553503,-1.12946,0.966997,0.0610136,-175.766,0.0745733,
2,0,0,1,0,1217.19,0.0640471,0.06372,-70.3952,1,0.00789515,10,-0.00448559,-1.15246,0.317454,0.185854,-508.21,0.06372,
2,0,0,1,0,1217.2,0.0532407,0.052906,-63.6956,1,0.00668642,10,-0.00336988,-1.19589,0.214604,0.274925,-681.936,0.052906,
2,0,0,1,0,1217.22,0.0424426,0.0421312,-56.2281,1,0.00560832,10,-0.00236896,-1.25005,0.194438,0.303438,-666.061,0.0421312,
2,0,0,1,0,1217.24,0.0316473,0.0312981,-49.4697,1,0.00465909,10,-0.00154831,-1.30566,0.196968,0.299542,-578.958,0.0312981,
2,0,0,1,0,1217.26,0.0208437,0.0205403,-43.6587,1,0.0038229,10,-0.000896763,-1.35993,0.205202,0.287522,-490.79,0.0205403,
2,0,0,1,0,1217.28,0.0100429,0.00972309,-38.9791,1,0.0030814,10,-0.000378997,-1.40917,0.24295,0.242849,-370.679,0.00972309,
2,0,0,1,0,1217.29,-0.000755207,-0.00109306,-35.926,1,0.0024104,10,3.92692e-05,-1.44459,0.412124,0.143161,-201.377,-0.00109306,
2,0,0,1,0,1217.31,-0.0115505,-0.0118901,-34.4056,1,0.00177979,10,0.000409087,-1.46337,1.00444,0.0587395,-79.1507,-0.0118901,
2,0,0,1,0,1217.33,-0.0223597,-0.0226914,-34.0946,1,0.00116467,10,0.000773656,-1.46731,-12.8111,-0.00460539,6.13853,-0.0226914,
2,0,0,1,0,1217.35,-0.033155,-0.0335161,-34.4941,1,0.000548149,10,0.00115611,-1.46225,-1.2829,-0.0459894,61.9774,-0.0335161,
2,0,0,1,0,1217.37,-0.043953,-0.0443036,-35.3051,1,-7.96508e-05,10,0.00156414,-1.45216,-0.965063,-0.0611359,84.2742,-0.0443036,
2,0,0,1,0,1217.38,-0.0547594,-0.0551123,-36.3332,1,-0.00072412,10,0.00200241,-1.4397,-0.837645,-0.0704356,99.8629,-0.0551123,
2,0,0,1,0,1217.4,-0.0655575,-0.0658924,-37.4615,1,-0.00138819,10,0.00246843,-1.42642,-0.768001,-0.0768229,112.341,-0.0658924,
2,0,0,1,0,1217.42,-0.0763528,-0.0766417,-38.6834,1,-0.00207353,10,0.00296476,-1.41248,-0.751439,-0.078516,118.584,-0.0766417,
2,0,0,1,0,1217.44,-0.0871592,-0.0875014,-40.0027,1,-0.00278174,10,0.00350029,-1.39791,-0.723233,-0.0815781,127.429,-0.0875014,
2,0,0,1,0,1217.46,-0.0979573,-0.0982836,-41.4628,1,-0.00351501,10,0.00407511,-1.38234,-0.737748,-0.0799731,128.75,-0.0982836,
2,0,0,1,1,1217.47,-0.0955546,-0.0960207,-26.8827,1,-0.00391455,10,0.0025813,-1.57053,-0.019967,-2.95488,2944.5,-0.0960207,
2,0,0,1,1,1217.49,-0.0847538,-0.0852024,-2.15265,1,-0.0041542,10,0.000183411,-2.66703,-0.0289091,-2.04088,1780.6,-0.0852024,
2,1,0,1,1,1217.5,-0.0739557,-0.0744266,12.8827,1,-0.00404551,10,-0.000958817,-1.88999,0.0240251,2.45577,1111.02,-0.0744266,
2,1,0,1,1,1217.52,-0.0631604,-0.0636359,22.45,1,-0.00372021,10,-0.00142862,-1.64878,0.0726063,0.812601,695.548,-0.0636359,
2,1,0,1,1,1217.54,-0.0523512,-0.0527338,28.3601,1,-0.00325754,10,-0.00149553,-1.54729,0.155104,0.38039,416.662,-0.05273382,
2,1,0,1,1,1217.56,-0.0415559,-0.0418965,31.7998,1,-0.00271315,10,-0.0013323,-1.49758,0.305613,0.193055,238.178,-0.0418965,
2,1,0,1,1,1217.58,-0.0307579,-0.0311323,33.6363,1,-0.00212221,10,-0.00104718,-1.47319,0.664639,0.0887699,116.18,-0.0311323,
2,1,0,1,1,1217.59,-0.0199515,-0.0202981,34.4763,1,-0.001508,10,-0.000699803,-1.46248,1.91509,0.030808,41.3367,-0.02029809,
2,1,0,1,1,1217.61,-0.0091534,-0.00948088,34.5894,1,-0.000885865,10,-0.000327938,-1.46106,-6.99341,-0.00843651,-11.3687,-0.00948088,
2,1,0,0,1,1217.63,-7.54729e-05,-0.000248974,34.2133,1,-0.000365311,10,-8.51822e-06,-1.46581, , , ,-0.000248974,