File: Figure_codes/Fig_3-5/rawdata_trumpetplot_data/before 10th/20221101_1-115_002_TrumpetPlot_ParaChange_03_CV_C01_0.csv
mode,ox/red,error,control changes,counter inc.,time/s,control/V,Ewe/V,<I>/mA,cycle number,(Q-Qo)/C,I Range,P/W,log(|I|),Tafel slope mV/dec,alpha_eff,dI/d(E-IR),E-IR/V,
2,1,0,0,0,18.6612,2.44065e-05,-0.000325324,0.772606,1,0.0000000E+000,10,-2.51347e-07,-3.11204, , , ,-0.000943408,
2,1,0,1,0,22.6115,0.0197754,0.0194533,0.245861,1,0.00101004,10,4.7828e-06,-3.60931,0.804728,0.0733167,0.703595,0.0192566,
2,1,0,1,0,26.6067,0.0397516,0.0394919,0.26542,1,0.00213465,10,1.04819e-05,-3.57607,0.46172,0.127783,1.31367,0.0392796,
2,1,0,1,0,30.6019,0.0597277,0.0594268,0.294996,1,0.00334668,10,1.75306e-05,-3.53018,0.380075,0.155233,1.7782,0.0591908,
2,1,0,0,0,34.597,0.0797031,0.0794331,0.35506,1,0.00473364,10,2.82035e-05,-3.4497,0.216162,0.272943,3.78967,0.0791491,
2,1,0,0,0,38.5922,0.099679,0.0994091,0.449454,1,0.00643604,10,4.46798e-05,-3.34731,0.213623,0.276187,4.84204,0.0990495,
2,1,0,0,0,42.5874,0.119655,0.119355,0.650716,1,0.00866686,10,7.76664e-05,-3.18661,0.089143,0.661858,16.9557,0.118835,
2,1,0,0,0,46.5826,0.139631,0.139342,1.01784,1,0.0121802,10,0.000141827,-2.99232,0.259332,0.227508,9.07084,0.138528,
2,1,0,1,0,50.5777,0.159606,0.159355,0.794117,1,0.0161752,10,0.000126546,-3.10012,-0.0712536,-0.828029,-25.7246,0.158719,
2,1,0,1,0,54.5729,0.179582,0.179334,0.440486,1,0.0186151,10,7.89941e-05,-3.35607,-0.119503,-0.493712,-8.51784,0.178982,
2,1,0,1,0,58.5681,0.199559,0.199248,0.334224,1,0.0202319,10,6.65933e-05,-3.47596,-0.305547,-0.193096,-2.51776,0.19898,
2,1,0,1,0,62.5633,0.219535,0.219319,0.297158,1,0.0215878,10,6.51725e-05,-3.52701,-0.528624,-0.11161,-1.28939,0.219081,
2,1,0,1,0,66.5584,0.23951,0.23924,0.279975,1,0.0228389,10,6.69812e-05,-3.55288,-0.689991,-0.0855084,-0.931207,0.239016,
2,1,0,1,0,70.5536,0.259486,0.259272,0.269789,1,0.0240392,10,6.99485e-05,-3.56898,-3.17605,-0.0185765,-0.194461,0.259056,
2,1,0,1,0,74.5488,0.279462,0.279176,0.263553,1,0.0252083,10,7.35777e-05,-3.57913,7.44319,0.0079267,0.0814156,0.278965,
2,1,0,1,0,78.5439,0.299437,0.299151,0.257772,1,0.026358,10,7.71129e-05,-3.58876,7.5322,0.00783304,0.0791826,0.298945,
2,1,0,1,0,82.5391,0.319413,0.319116,0.255819,1,0.0274916,10,8.16362e-05,-3.59207,-11.6486,-0.00506499,-0.0506064,0.318912,
2,1,0,1,0,86.5343,0.339389,0.339121,0.251602,1,0.0286107,10,8.53237e-05,-3.59929,-1.20818,-0.0488338,-0.478915,0.33892,
2,1,0,1,0,90.5295,0.359365,0.359106,0.249345,1,0.029716,10,8.95413e-05,-3.6032,-3.23019,-0.0182652,-0.176875,0.358907,
2,1,0,1,0,94.5247,0.379342,0.37906,0.245992,1,0.0308082,10,9.32458e-05,-3.60908,-6.45712,-0.0091372,-0.0877982,0.378863,
2,1,0,0,0,98.5198,0.399317,0.399058,0.242907,1,0.0318884,10,9.69341e-05,-3.61456,-0.729574,-0.0808691,-0.769064,0.398863,
2,1,0,0,0,102.515,0.419293,0.419046,0.241145,1,0.0329595,10,0.000101051,-3.61772,-2.92902,-0.0201433,-0.188947,0.418853,
2,1,0,0,0,106.51,0.439269,0.439003,0.241306,1,0.0340265,10,0.000105934,-3.61743,-16.6088,-0.00355233,-0.0333872,0.43881,
2,1,0,1,0,110.505,0.459244,0.458975,0.240495,1,0.0350939,10,0.000110381,-3.61889,3.42647,0.0172189,0.162603,0.458782,
2,1,0,1,0,114.5,0.47922,0.478937,0.244107,1,0.036167,10,0.000116912,-3.61242,2.26997,0.0259916,0.247676,0.478742,
2,1,0,1,0,118.496,0.499196,0.498929,0.248956,1,0.0372548,10,0.000124211,-3.60388,1.50078,0.0393129,0.382923,0.49873,
2,1,0,1,0,122.491,0.519172,0.518871,0.261404,1,0.0383742,10,0.000135635,-3.58269,6.39648,0.00922382,0.0937208,0.518662,
2,1,0,1,0,126.486,0.539148,0.53887,0.278491,1,0.0395489,10,0.00015007,-3.55519,0.606072,0.0973482,1.05424,0.538647,
2,1,0,1,0,130.481,0.559124,0.558815,0.314814,1,0.0408272,10,0.000175923,-3.50195,0.297996,0.197989,2.42324,0.558564,
2,1,0,1,0,134.476,0.5791,0.578852,0.385797,1,0.0423123,10,0.000223319,-3.41364,0.172565,0.341899,5.15559,0.578543,
2,1,0,1,0,138.472,0.599076,0.598785,0.541847,1,0.0442317,10,0.00032445,-3.26612,0.112452,0.524666,11.0958,0.598352,
2,1,0,1,0,142.467,0.619051,0.618769,0.885838,1,0.0470964,10,0.000548129,-3.05265,0.0805391,0.732564,25.3809,0.618061,
2,1,0,1,0,146.462,0.639027,0.638802,1.66407,1,0.0520892,10,0.00106301,-2.77883,0.0646025,0.913278,59.4074,0.637471,
2,1,0,1,0,150.457,0.659003,0.658766,3.37362,1,0.0618356,10,0.00222243,-2.4719,0.0582329,1.01317,133.517,0.656067,
2,1,0,1,0,154.452,0.678979,0.678748,6.74585,1,0.0814967,10,0.00457874,-2.17096,0.0585616,1.00749,265.254,0.673352,
2,1,0,0,0,158.447,0.698955,0.698784,12.079,1,0.118641,10,0.0084406,-1.91797,0.0675611,0.873284,411.512,0.689121,
2,1,0,0,0,162.443,0.718931,0.718654,18.6361,1,0.179818,10,0.0133929,-1.72965,0.0876256,0.673319,489.681,0.703745,
2,1,0,0,0,166.438,0.738907,0.738663,26.5397,1,0.269613,10,0.0196039,-1.5761,0.0891474,0.661825,685.289,0.717432,
2,1,0,0,0,170.433,0.758883,0.75866,35.5912,1,0.39385,10,0.0270016,-1.44866,0.119798,0.492497,683.902,0.730187,
2,1,0,1,0,174.428,0.778858,0.778626,44.528,1,0.55416,10,0.0346706,-1.35137,0.145128,0.406539,706.61,0.743003,
2,1,0,1,0,178.423,0.798834,0.798604,52.246,1,0.748399,10,0.0417238,-1.28195,0.264302,0.223229,454.588,0.756807,
2,1,0,1,0,182.418,0.81881,0.818539,58.5977,1,0.969906,10,0.0479645,-1.23212,0.226926,0.259997,595.163,0.771661,
2,1,0,1,0,186.414,0.838786,0.838553,63.77,1,1.21642,10,0.0534745,-1.19538,0.473741,0.124541,311.466,0.787537,
2,1,0,0,0,190.309,0.841732,0.841514,63.1357,1,1.46927,10,0.0531296,-1.19972,0.380697,0.154979,382.156,0.791006,
2,1,0,0,0,194.305,0.821757,0.821526,57.5187,1,1.70957,10,0.0472531,-1.24019,0.377987,0.15609,349.984,0.775511,
2,1,0,0,0,198.3,0.801781,0.801543,50.2467,1,1.92575,10,0.0402749,-1.29889,0.184893,0.319104,625.226,0.761346,
2,1,0,0,0,202.295,0.781805,0.78156,41.5795,1,2.10984,10,0.0324969,-1.38112,0.124677,0.473225,766.266,0.748296,
2,1,0,1,0,206.29,0.761829,0.761573,29.9798,1,2.25319,10,0.0228318,-1.52317,0.0996823,0.59188,692.535,0.737589,
2,1,0,1,0,210.285,0.741853,0.741553,21.429,1,2.35573,10,0.0158907,-1.669,0.0801035,0.736547,615.897,0.72441,
2,1,0,1,0,214.28,0.721877,0.721632,13.7669,1,2.42546,10,0.00993464,-1.86116,0.0698996,0.844068,453.83,0.710619,
2,1,0,1,0,218.276,0.701901,0.701628,7.91015,1,2.46805,10,0.00554998,-2.10182,0.0593539,0.994037,306.76,0.6953,
2,1,0,1,0,222.271,0.681926,0.681705,4.00577,1,2.49112,10,0.00273076,-2.39731,0.0539472,1.09366,170.988,0.6785,
2,1,0,1,0,226.266,0.66195,0.661662,1.81668,1,2.50216,10,0.00120203,-2.74072,0.0511751,1.1529,81.8418,0.660209,
2,1,0,1,0,230.261,0.641974,0.641742,0.757685,1,2.50694,10,0.000486239,-3.12051,0.0482287,1.22334,36.1914,0.641136,
2,1,0,1,0,234.256,0.621998,0.621703,0.282511,1,2.50879,10,0.000175638,-3.54897,0.0425045,1.38809,15.3126,0.621477,
2,1,0,1,0,238.251,0.602022,0.601746,0.0769553,1,2.50936,10,4.63075e-05,-4.11376,0.028346,2.08142,6.30507,0.601684,
2,1,0,1,0,242.247,0.582046,0.581786,-0.0133225,1,2.50936,10,-7.75085e-06,-4.87541,-0.00966102,-6.10702,3.03811,0.581796,
2,0,0,1,0,246.242,0.56207,0.56177,-0.0523999,1,2.50912,10,-2.94367e-05,-4.28067,-0.101248,-0.582729,1.22285,0.561811,
2,0,0,1,0,250.237,0.542094,0.541821,-0.074375,1,2.50877,10,-4.02979e-05,-4.12857,-0.712554,-0.0828007,0.237224,0.54188,
2,0,0,0,0,254.232,0.522119,0.521851,-0.0827865,1,2.50835,10,-4.32022e-05,-4.08204,-0.605064,-0.0975104,0.321066,0.521917,
2,0,0,0,0,258.227,0.502143,0.501853,-0.0914201,1,2.5079,10,-4.58795e-05,-4.03896,-0.378398,-0.155921,0.564828,0.501927,
2,0,0,0,0,262.223,0.482167,0.481907,-0.0997562,1,2.50742,10,-4.80732e-05,-4.00106,-0.417057,-0.141468,0.55145,0.481987,
2,0,0,1,0,266.218,0.462191,0.461937,-0.106406,1,2.50691,10,-4.9153e-05,-3.97303,-0.358814,-0.164431,0.688291,0.462022,
2,0,0,1,0,270.213,0.442215,0.44197,-0.11679,1,2.50637,10,-5.16176e-05,-3.93259,-3.66996,-0.0160765,0.0729509,0.442064,
2,0,0,1,0,274.208,0.422239,0.421955,-0.126411,1,2.50579,10,-5.33396e-05,-3.89822,2.71049,0.0217673,-0.108893,0.422056,
2,0,0,1,0,278.203,0.402263,0.401973,-0.137398,1,2.50516,10,-5.52302e-05,-3.86202,-0.534681,-0.110346,0.595171,0.402082,
2,0,0,1,0,282.198,0.382287,0.381963,-0.148964,1,2.5045,10,-5.68989e-05,-3.82692,-3.07686,-0.0191754,0.11181,0.382083,
2,0,0,1,0,286.194,0.362312,0.362038,-0.161463,1,2.50378,10,-5.84557e-05,-3.79193,-0.397516,-0.148422,0.943749,0.362167,
2,0,0,1,0,290.189,0.342336,0.342085,-0.174518,1,2.50301,10,-5.97e-05,-3.75816,-0.584681,-0.10091,0.689461,0.342225,
2,0,0,1,0,294.184,0.32236,0.3221,-0.187564,1,2.50219,10,-6.04143e-05,-3.72685,-0.761883,-0.0774397,0.569665,0.32225,
2,0,0,1,0,298.179,0.302385,0.302117,-0.199561,1,2.50131,10,-6.02907e-05,-3.69992,-1.08581,-0.0543373,0.425983,0.302277,
2,0,0,1,0,302.174,0.282408,0.282123,-0.213422,1,2.50039,10,-6.02113e-05,-3.67076,-1.88254,-0.0313407,0.261073,0.282293,
2,0,0,1,0,306.169,0.262432,0.262164,-0.228518,1,2.4994,10,-5.99091e-05,-3.64108,-0.569418,-0.103615,0.920862,0.262346,
2,0,0,1,0,310.165,0.242456,0.242205,-0.244378,1,2.49836,10,-5.91895e-05,-3.61194,-0.47255,-0.124855,1.20001,0.242401,
2,0,0,0,0,314.16,0.222481,0.222204,-0.264433,1,2.49725,10,-5.8758e-05,-3.57768,-0.668366,-0.088275,0.917374,0.222416,
2,0,0,0,0,318.155,0.202505,0.202222,-0.298984,1,2.49603,10,-6.04612e-05,-3.52435,-0.305056,-0.193407,2.26592,0.202461,
2,0,0,0,0,322.15,0.182529,0.182242,-0.377525,1,2.4946,10,-6.88009e-05,-3.42305,-0.144689,-0.407771,5.9883,0.182544,
2,0,0,0,0,326.145,0.162553,0.162245,-0.593798,1,2.49265,10,-9.63406e-05,-3.22636,-0.0720285,-0.81912,18.9868,0.16272,
2,0,0,1,0,330.14,0.142578,0.142269,-1.0254,1,2.4893,10,-0.000145882,-2.98911,-0.169255,-0.348586,13.8475,0.143089,
2,0,0,1,0,334.136,0.122602,0.122315,-0.926048,1,2.48509,10,-0.00011327,-3.03337,0.121272,0.48651,-17.5178,0.123056,
2,0,0,1,0,338.131,0.102625,0.102385,-0.667377,1,2.48189,10,-6.83291e-05,-3.17563,0.206243,0.28607,-7.46788,0.102919,
2,0,0,1,0,342.126,0.0826492,0.0823278,-0.576211,1,2.47933,10,-4.74382e-05,-3.23942,0.322963,0.182683,-4.11363,0.0827888,
2,0,0,1,0,346.121,0.0626737,0.0623595,-0.510018,1,2.47707,10,-3.18045e-05,-3.29241,0.57029,0.103456,-2.06606,0.0627676,
2,0,0,1,0,350.116,0.0426979,0.0423772,-0.478927,1,2.475,10,-2.02956e-05,-3.31973,6.95925,0.00847793,-0.158513,0.0427604,
2,0,0,1,0,354.112,0.022722,0.0224522,-0.474495,1,2.47301,10,-1.06535e-05,-3.32377,-0.758914,-0.0777427,1.44089,0.0228318,
2,0,0,1,0,358.107,0.00274612,0.00246885,-0.494937,1,2.47098,10,-1.22192e-06,-3.30545,-0.796831,-0.0740433,1.43444,0.0028648,
2,0,0,0,0,358.601,0.000274105,-9.98546e-05,-0.498424,1,2.47072,10,4.977e-08,-3.3024, , , ,0.000298885,