File: Figure_codes/Fig_3-5/rawdata_trumpetplot_data/before 10th/20221101_1-115_002_TrumpetPlot_ParaChange_14_CV_C01_3.csv
mode,ox/red,error,control changes,counter inc.,time/s,control/V,Ewe/V,<I>/mA,cycle number,(Q-Qo)/C,I Range,P/W,log(|I|),Tafel slope mV/dec,alpha_eff,dI/d(E-IR),E-IR/V,
2,1,0,1,0,4911.18,2.44065e-05,-0.000764332,23.2519,4,0.0000000E+000,10,-1.77722e-05,-1.63354, , , ,-0.0007643319,
2,1,0,1,0,4911.2,0.0102815,0.00992138,24.9789,4,0.000406254,10,0.000247825,-1.60243,0.233541,0.252633,245.363,0.009921384,
2,1,0,1,0,4911.21,0.0210878,0.0208096,27.1485,4,0.000877243,10,0.00056495,-1.56625,0.40477,0.145762,153.937,0.0208096,
2,1,0,1,0,4911.23,0.0318859,0.0315325,28.4187,4,0.00137866,10,0.000896111,-1.5464,0.724941,0.0813859,90.1355,0.03153247,
2,1,0,1,0,4911.25,0.042684,0.0423624,29.2174,4,0.00189803,10,0.00123772,-1.53436,1.02836,0.0573728,65.4365,0.0423624,
2,1,0,1,0,4911.27,0.0534793,0.0531595,29.9269,4,0.00243045,10,0.0015909,-1.52394,0.962368,0.0613071,71.6905,0.05315946,
2,1,0,1,0,4911.29,0.0642857,0.0639459,30.8615,4,0.00297737,10,0.00197347,-1.51058,0.696343,0.0847284,102.189,0.0639459,
2,1,0,1,0,4911.3,0.0750837,0.0747472,32.2097,4,0.0035444,10,0.00240758,-1.49201,0.498053,0.118461,149.124,0.07474722,
2,1,0,1,0,4911.32,0.0858818,0.0855761,34.0482,4,0.00414022,10,0.00291371,-1.46791,0.415625,0.141955,188.828,0.0855761,
2,1,0,1,0,4911.34,0.0966882,0.0962777,36.2984,4,0.00477287,10,0.00349473,-1.44011,0.35904,0.164327,233.112,0.0962777,
2,1,0,1,0,4911.36,0.107483,0.107171,39.0373,4,0.00545091,10,0.00418367,-1.40852,0.345719,0.170659,259.934,0.107171,
2,1,0,1,0,4911.38,0.118282,0.117976,41.9275,4,0.00617946,10,0.00494642,-1.3775,0.346921,0.170067,278.338,0.117976,
2,1,0,1,0,4911.39,0.129088,0.128713,45.0571,4,0.00696218,10,0.00579945,-1.34624,0.339129,0.173975,306.077,0.128713,
2,1,0,1,0,4911.41,0.139886,0.139567,48.5777,4,0.00780459,10,0.00677983,-1.31356,0.319262,0.184801,350.653,0.139567,
2,1,0,1,0,4911.43,0.150681,0.150331,52.6579,4,0.00871535,10,0.00791611,-1.27854,0.298582,0.197601,406.448,0.150331,
2,1,0,1,0,4911.45,0.161485,0.161181,57.2408,4,0.0097044,10,0.00922613,-1.24229,0.302807,0.194844,435.264,0.161181,
2,1,0,1,0,4911.47,0.172286,0.172,62.0072,4,0.0107783,10,0.0106652,-1.20756,0.329481,0.179069,432.845,0.172,
2,1,0,1,0,4911.48,0.183084,0.182761,66.3804,4,0.0119353,10,0.0121318,-1.17796,0.428006,0.137849,356.263,0.1827613,
2,1,0,1,0,4911.5,0.193879,0.193548,69.3656,4,0.0131603,10,0.0134256,-1.15886,1.0165,0.0580422,156.408,0.193548,
2,1,0,1,0,4911.52,0.204688,0.204373,69.2,4,0.0144136,10,0.0141426,-1.15989,-0.678287,-0.0869838,-233.105,0.204373,
2,1,0,1,0,4911.54,0.215484,0.215213,63.9268,4,0.0156196,10,0.0137579,-1.19432,-0.200065,-0.294905,-729.261,0.215213,
2,1,0,1,0,4911.56,0.226282,0.226063,53.8213,4,0.0166837,10,0.012167,-1.26905,-0.116498,-0.506447,-1057.79,0.226063,
2,1,0,1,0,4911.57,0.237088,0.236839,42.2137,4,0.017546,10,0.00999785,-1.37455,-0.0968434,-0.609231,-1005.17,0.236839,
2,1,0,1,0,4911.59,0.247886,0.24766,32.8852,4,0.0182157,10,0.00814435,-1.483,-0.11085,-0.532253,-688.837,0.24766,
2,1,0,1,0,4911.61,0.258681,0.258422,27.3042,4,0.0187515,10,0.00705603,-1.56377,-0.170521,-0.345999,-372.034,0.258422,
2,1,0,1,0,4911.63,0.269488,0.269209,24.5286,4,0.0192147,10,0.00660331,-1.61033,-0.322639,-0.182867,-175.958,0.269209,
2,1,0,1,0,4911.65,0.280286,0.279996,23.1982,4,0.0196428,10,0.0064954,-1.63455,-0.606798,-0.0972318,-88.2098,0.279996,
2,1,0,1,0,4911.66,0.291084,0.290833,22.4667,4,0.0200532,10,0.00653405,-1.64846,-0.93232,-0.063283,-55.5627,0.290833,
2,1,0,1,0,4911.68,0.300012,0.299689,22.046,4,0.0203846,10,0.00660694,-1.65667,0.000551389,107.003,71549.7,0.2996892,
2,1,0,1,0,4911.69,0.290843,0.290666,2.034,4,0.0205431,10,0.000591214,-2.69165,0.0184367,3.20013,1355.26,0.290666,
2,0,0,1,0,4911.71,0.280047,0.279821,-6.88547,4,0.0204856,10,-0.0019267,-2.16207,-0.0276849,-2.13113,506.156,0.279821,
2,0,0,1,0,4911.73,0.269244,0.269006,-10.4782,4,0.0203249,10,-0.00281871,-1.97971,-0.104002,-0.567296,227.181,0.269006,
2,0,0,1,0,4911.75,0.258443,0.258178,-12.2741,4,0.0201186,10,-0.00316891,-1.91101,-0.215904,-0.273269,130.146,0.258178,
2,0,0,1,0,4911.77,0.247645,0.247365,-13.4645,4,0.0198863,10,-0.00333065,-1.87081,-0.309441,-0.190667,100.077,0.247365,
2,0,0,1,0,4911.78,0.236849,0.236557,-14.4391,4,0.0196348,10,-0.00341567,-1.84046,-0.375646,-0.157063,88.5416,0.236557,
2,0,0,1,0,4911.8,0.22604,0.225743,-15.3715,4,0.0193663,10,-0.00347001,-1.81328,-0.418414,-0.141009,84.6326,0.225743,
2,0,0,1,0,4911.82,0.215245,0.214945,-16.3235,4,0.0190809,10,-0.00350864,-1.78719,-0.399201,-0.147795,94.2755,0.214945,
2,0,0,1,0,4911.84,0.204447,0.204189,-17.4115,4,0.0187774,10,-0.00355523,-1.75916,-0.370814,-0.159109,108.228,0.2041889,
2,0,0,1,0,4911.86,0.19364,0.193383,-18.7028,4,0.0184527,10,-0.00361682,-1.72809,-0.325866,-0.181056,132.296,0.193383,
2,0,0,1,0,4911.87,0.182842,0.182594,-20.3458,4,0.0181018,10,-0.00371502,-1.69153,-0.267927,-0.22021,175.208,0.182594,
2,0,0,1,0,4911.89,0.172047,0.171784,-22.5538,4,0.0177166,10,-0.00387439,-1.64678,-0.218292,-0.270281,238.496,0.171784,
2,0,0,1,0,4911.91,0.161241,0.160974,-25.5705,4,0.0172848,10,-0.00411618,-1.59226,-0.181569,-0.324946,325.091,0.160974,
2,0,0,1,0,4911.93,0.150443,0.150174,-29.6565,4,0.0167892,10,-0.00445363,-1.52788,-0.158396,-0.372484,431.717,0.150174,
2,0,0,1,0,4911.95,0.139645,0.139429,-34.9376,4,0.0162093,10,-0.00487131,-1.45671,-0.147995,-0.398661,544.083,0.139429,
2,0,0,1,0,4911.96,0.128849,0.128632,-41.1981,4,0.0155245,10,-0.00529939,-1.38512,-0.156572,-0.376823,605.11,0.128632,
2,0,0,1,0,4911.98,0.118043,0.117828,-47.7842,4,0.0147235,10,-0.00563033,-1.32072,-0.177858,-0.331725,617.231,0.117828,
2,0,0,1,0,4912,0.107245,0.107066,-54.1474,4,0.0138042,10,-0.00579736,-1.26642,-0.223221,-0.264312,557.59,0.107066,
2,0,0,1,0,4912.02,0.0964468,0.0962035,-59.7642,4,0.012777,10,-0.00574953,-1.22356,-0.29621,-0.199183,463.286,0.0962035,
2,0,0,1,0,4912.04,0.0856404,0.0853778,-63.9848,4,0.0116601,10,-0.00546288,-1.19392,-0.48872,-0.120723,300.452,0.08537779,
2,0,0,1,0,4912.05,0.0748451,0.0745924,-66.1786,4,0.0104851,10,-0.00493642,-1.17928,-1.63064,-0.0361822,93.0856,0.0745924,
2,0,0,1,0,4912.07,0.0640471,0.0637497,-65.9084,4,0.00929273,10,-0.00420164,-1.18106,1.08716,0.0542698,-139.065,0.0637497,
2,0,0,1,0,4912.09,0.0532407,0.0529506,-63.3725,4,0.00812705,10,-0.00335561,-1.1981,0.47753,0.123552,-304.836,0.0529506,
2,0,0,1,0,4912.11,0.0424426,0.0421132,-59.6626,4,0.00701949,10,-0.00251258,-1.2243,0.388976,0.15168,-353.017,0.0421132,
2,0,0,1,0,4912.13,0.0316473,0.0313299,-55.8027,4,0.00598068,10,-0.00174829,-1.25334,0.357002,0.165265,-359.732,0.03132993,
2,0,0,1,0,4912.14,0.0208437,0.0205445,-51.7743,4,0.00501242,10,-0.00106368,-1.28589,0.304212,0.193944,-391.343,0.0205445,
2,0,0,1,0,4912.16,0.0100429,0.00972733,-47.2982,4,0.00412052,10,-0.000460085,-1.32516,0.253451,0.232787,-429.346,0.009727329,
2,0,0,1,0,4912.18,-0.000755207,-0.0011376,-42.8452,4,0.00331053,10,4.87404e-05,-1.3681,0.261582,0.22555,-377.456,-0.0011376,
2,0,0,1,0,4912.2,-0.0115505,-0.0118901,-39.2448,4,0.00257419,10,0.000466625,-1.40622,0.342736,0.172144,-264.57,-0.0118901,
2,0,0,1,0,4912.22,-0.0223597,-0.0227243,-37.0952,4,0.00188935,10,0.000842964,-1.43068,0.610966,0.0965683,-140.209,-0.0227243,
2,0,0,1,0,4912.23,-0.033155,-0.033497,-36.1296,4,0.00123183,10,0.00121023,-1.44214,1.81165,0.0325671,-46.026,-0.033497,
2,0,0,1,0,4912.25,-0.043953,-0.0443195,-35.9824,4,0.000583786,10,0.00159472,-1.44391,-8.39361,-0.00702916,9.88351,-0.0443195,
2,0,0,1,0,4912.27,-0.0547594,-0.0551038,-36.3314,4,-6.62941e-05,10,0.002002,-1.43972,-1.78374,-0.0330767,46.9106,-0.0551038,
2,0,0,1,0,4912.29,-0.0655575,-0.0659115,-36.9796,4,-0.000725667,10,0.00243738,-1.43204,-1.18181,-0.0499235,72.0509,-0.0659115,
2,0,0,1,0,4912.31,-0.0763528,-0.0767022,-37.8366,4,-0.0013987,10,0.00290215,-1.42209,-0.986131,-0.0598298,88.3687,-0.0767022,
2,0,0,1,0,4912.32,-0.0871592,-0.0875141,-38.8467,4,-0.00208855,10,0.00339963,-1.41065,-0.886773,-0.0665334,100.893,-0.08751411,
2,0,0,1,0,4912.34,-0.0979573,-0.0983048,-39.9914,4,-0.00279807,10,0.00393135,-1.39803,-0.87093,-0.0677436,105.308,-0.0983048,
2,0,0,1,1,4912.35,-0.0955546,-0.096026,-27.2482,4,-0.00318812,10,0.00261653,-1.56466,-0.0234819,-2.51257,2591.71,-0.096026,
2,0,0,1,1,4912.37,-0.0847538,-0.085195,-5.64132,4,-0.00346619,10,0.000480612,-2.24862,-0.00888496,-6.64044,1575.91,-0.085195,
2,1,0,1,1,4912.39,-0.0739557,-0.0744202,8.03877,4,-0.00343466,10,-0.000598247,-2.09481,0.014229,4.14647,1029.07,-0.0744202,
2,1,0,1,1,4912.41,-0.0631604,-0.0636072,17.1118,4,-0.00320228,10,-0.00108843,-1.76671,0.0558239,1.05689,684.521,-0.0636072,
2,1,0,1,1,4912.42,-0.0523512,-0.0527338,23.1895,4,-0.00283495,10,-0.00122287,-1.63471,0.11877,0.496759,443.869,-0.0527338,
2,1,0,1,1,4912.44,-0.0415559,-0.0419389,27.0555,4,-0.00237989,10,-0.00113468,-1.56774,0.218535,0.26998,283.226,-0.0419389,
2,1,0,1,1,4912.46,-0.0307579,-0.0311694,29.4482,4,-0.00186939,10,-0.000917881,-1.53094,0.397903,0.148277,169.783,-0.0311694,
2,1,0,1,1,4912.48,-0.0199515,-0.0203172,30.8409,4,-0.00132549,10,-0.000626599,-1.51087,0.776262,0.0760053,91.2028,-0.0203172,
2,1,0,1,1,4912.5,-0.0091534,-0.00949997,31.4869,4,-0.000763737,10,-0.000299124,-1.50187,2.05595,0.0286972,35.1937,-0.00949997,
2,1,0,1,1,4912.51,-7.54729e-05,-0.000306236,31.5362,4,-0.000286844,10,-9.65753e-06,-1.50119, , , ,-0.000306236,