File: Figure_codes/Fig_3-5/rawdata_trumpetplot_data/before 10th/20221101_1-115_002_TrumpetPlot_ParaChange_16_CV_C01_7.csv
mode,ox/red,error,control changes,counter inc.,time/s,control/V,Ewe/V,<I>/mA,cycle number,(Q-Qo)/C,I Range,P/W,log(|I|),Tafel slope mV/dec,alpha_eff,dI/d(E-IR),E-IR/V,
2,1,0,1,0,9840.48,2.44065e-05,-0.00091703,69.9665,8,0.0000000E+000,10,-6.41614e-05,-1.15511, , , ,-0.0009170305,
2,1,0,1,0,9840.49,0.0131086,0.0127145,56.2285,8,0.000779262,10,0.000714917,-1.25004,-0.553018,-0.106687,-238.996,0.0127145,
2,1,0,1,0,9840.5,0.0271416,0.0267925,55.3187,8,0.00155791,10,0.00148212,-1.25713,-6.77264,-0.00871152,-18.8457,0.0267925,
2,1,0,1,0,9840.52,0.0411248,0.0407665,55.3512,8,0.00233208,10,0.00225648,-1.25687,7.12939,0.0082756,17.899,0.0407665,
2,1,0,1,0,9840.53,0.0551079,0.0547448,55.7896,8,0.00310976,10,0.00305419,-1.25345,2.88639,0.0204408,44.5566,0.0547448,
2,1,0,1,0,9840.55,0.0691409,0.0687697,56.7444,8,0.00389627,10,0.00390229,-1.24608,1.33382,0.0442338,98.0418,0.0687697,
2,1,0,1,0,9840.56,0.083124,0.0828074,58.3278,8,0.00470141,10,0.00482997,-1.23412,0.974882,0.0605202,138.09,0.0828074,
2,1,0,1,0,9840.57,0.0971071,0.0967814,60.6971,8,0.0055339,10,0.00587435,-1.21683,0.69422,0.0849874,201.807,0.0967814,
2,1,0,1,0,9840.59,0.11114,0.110812,63.8992,8,0.00640559,10,0.00708077,-1.1945,0.582798,0.101236,252.69,0.110812,
2,1,0,1,0,9840.6,0.125123,0.124773,67.6805,8,0.00732643,10,0.00844469,-1.16954,0.538947,0.109473,289.409,0.124773,
2,1,0,1,0,9840.62,0.139106,0.138781,71.9697,8,0.00830385,10,0.00998802,-1.14285,0.508832,0.115952,326.049,0.138781,
2,1,0,1,0,9840.63,0.153139,0.152758,76.8255,8,0.00934536,10,0.0117357,-1.11449,0.487019,0.121145,363.451,0.152758,
2,1,0,1,0,9840.64,0.167123,0.166753,82.1548,8,0.0104583,10,0.0136996,-1.08537,0.473272,0.124664,399.891,0.166753,
2,1,0,1,0,9840.66,0.181106,0.180779,87.8707,8,0.011649,10,0.0158852,-1.05616,0.495326,0.119113,408.323,0.180779,
2,1,0,1,0,9840.67,0.195139,0.19477,93.4524,8,0.0129196,10,0.0182018,-1.02941,0.594697,0.0992102,360.986,0.19477,
2,1,0,1,0,9840.69,0.209122,0.208818,97.8197,8,0.0142609,10,0.0204265,-1.00957,0.978741,0.0602815,228.996,0.208818,
2,1,0,1,0,9840.7,0.223105,0.222785,99.2927,8,0.0156456,10,0.0221209,-1.00308,-3.67962,-0.0160342,-61.6104,0.222785,
2,1,0,1,0,9840.71,0.237138,0.236879,95.555,8,0.0170165,10,0.022635,-1.01975,-0.442149,-0.133439,-492.158,0.236879,
2,1,0,1,0,9840.73,0.251121,0.250914,85.8305,8,0.0182911,10,0.021536,-1.06636,-0.232547,-0.253712,-842.413,0.250914,
2,1,0,1,0,9840.74,0.265104,0.264861,72.7246,8,0.0194012,10,0.0192619,-1.13832,-0.178609,-0.33033,-936.114,0.264861,
2,1,0,1,0,9840.76,0.279137,0.278951,60.2245,8,0.0203284,10,0.0167997,-1.22023,-0.172545,-0.34194,-807.407,0.278951,
2,1,0,1,0,9840.77,0.29312,0.292849,50.6039,8,0.0210992,10,0.0148193,-1.29582,-0.201361,-0.293006,-586.397,0.292849,
2,1,0,1,0,9840.78,0.298714,0.298705,42.7479,8,0.0214923,10,0.012769,-1.36909,0.0233092,2.53119,3243.51,0.298705,
2,1,0,1,0,9840.79,0.28473,0.284623,10.6872,8,0.0218346,10,0.00304181,-1.97114,0.00848503,6.95342,1583.65,0.284623,
2,0,0,1,0,9840.81,0.270747,0.270586,-5.2815,8,0.021859,10,-0.0014291,-2.27724,-0.0255496,-2.30923,836.095,0.270586,
2,0,0,1,0,9840.82,0.256714,0.256507,-13.9576,8,0.0217175,10,-0.00358023,-1.85519,-0.0642332,-0.918528,466.714,0.256507,
2,0,0,1,0,9840.83,0.242731,0.242504,-18.9621,8,0.0214838,10,-0.00459836,-1.72211,-0.149471,-0.394726,286.547,0.242504,
2,0,0,1,0,9840.85,0.228748,0.228514,-22.2221,8,0.0211937,10,-0.00507805,-1.65321,-0.255937,-0.230525,198.69,0.228514,
2,0,0,1,0,9840.86,0.214715,0.214443,-24.6832,8,0.0208641,10,-0.00529313,-1.6076,-0.3634,-0.162355,155.894,0.214443,
2,0,0,1,0,9840.88,0.200732,0.200462,-26.7277,8,0.0205039,10,-0.00535788,-1.57304,-0.419869,-0.14052,146.52,0.2004616,
2,0,0,1,0,9840.89,0.186735,0.186466,-28.8238,8,0.0201151,10,-0.00537466,-1.54025,-0.409818,-0.143966,162.276,0.186466,
2,0,0,1,0,9840.9,0.172716,0.17245,-31.3387,8,0.0196941,10,-0.00540436,-1.50392,-0.359094,-0.164302,201.58,0.17245,
2,0,0,1,0,9840.92,0.158733,0.158499,-34.6405,8,0.0192333,10,-0.00549049,-1.46042,-0.283795,-0.207896,282.539,0.158499,
2,0,0,1,0,9840.93,0.144719,0.1445,-39.3944,8,0.0187167,10,-0.00569247,-1.40457,-0.226311,-0.260703,403.099,0.1444997,
2,0,0,1,0,9840.95,0.130717,0.130517,-45.958,8,0.0181205,10,-0.0059983,-1.33764,-0.19945,-0.295813,532.277,0.130517,
2,0,0,1,0,9840.96,0.116733,0.116551,-54.1728,8,0.0174205,10,-0.00631387,-1.26622,-0.198031,-0.297934,629.772,0.116551,
2,0,0,1,0,9840.97,0.102703,0.102537,-63.3072,8,0.0165978,10,-0.00649135,-1.19855,-0.226205,-0.260825,641.347,0.102537,
2,0,0,1,0,9840.99,0.0887173,0.0886057,-71.9544,8,0.0156495,10,-0.00637557,-1.14294,-0.277945,-0.212272,594.106,0.0886057,
2,0,0,1,0,9841,0.0747341,0.0746359,-79.6534,8,0.0145857,10,-0.005945,-1.0988,-0.365496,-0.161424,500.121,0.0746359,
2,0,0,1,0,9841.02,0.0607011,0.0605028,-85.9844,8,0.013424,10,-0.0052023,-1.06558,-0.532192,-0.110862,369.898,0.0605028,
2,0,0,1,0,9841.03,0.046718,0.0464641,-89.8815,8,0.0121897,10,-0.00417626,-1.04633,-1.07985,-0.054637,190.788,0.0464641,
2,0,0,1,0,9841.04,0.0327349,0.0324826,-91.3301,8,0.0109184,10,-0.00296664,-1.03939,-9.31063,-0.00633685,22.4993,0.0324826,
2,0,0,1,0,9841.06,0.0187018,0.0184343,-90.7878,8,0.00964233,10,-0.00167361,-1.04197,2.35497,0.0250534,-88.5276,0.0184343,
2,0,0,1,0,9841.07,0.00471873,0.00445817,-88.9295,8,0.00838343,10,-0.000396463,-1.05095,1.28319,0.0459793,-159.414,0.00445817,
2,0,0,1,0,9841.09,-0.00926438,-0.00958162,-86.2929,8,0.00715572,10,0.000826826,-1.06402,0.856883,0.0688542,-231.358,-0.00958162,
2,0,0,1,0,9841.1,-0.0232974,-0.0236331,-82.5761,8,0.005973,10,0.00195153,-1.08315,0.615835,0.0958049,-307.774,-0.02363307,
2,0,0,1,0,9841.11,-0.0372805,-0.0376124,-77.6929,8,0.00485073,10,0.00292222,-1.10962,0.494268,0.119368,-361.731,-0.0376124,
2,0,0,1,0,9841.13,-0.0512636,-0.0516214,-72.7576,8,0.00379877,10,0.00375585,-1.13812,0.519887,0.113486,-322.884,-0.0516214,
2,0,0,1,0,9841.14,-0.0652967,-0.0656241,-68.9551,8,0.00280913,10,0.00452512,-1.16143,0.720857,0.0818471,-220.819,-0.0656241,
2,0,0,1,0,9841.16,-0.0792798,-0.0795876,-66.5143,8,0.00186275,10,0.00529371,-1.17709,1.21894,0.0484028,-126.03,-0.0795876,
2,0,0,1,0,9841.17,-0.0932629,-0.0935934,-65.3389,8,0.000941098,10,0.00611529,-1.18483,3.18158,0.0185442,-47.4003,-0.0935934,
2,0,0,1,0,9841.18,-0.107296,-0.107589,-65.1785,8,2.86208e-05,10,0.00701246,-1.1859,-11.9125,-0.00495278,12.6095,-0.107589,
2,0,0,1,0,9841.2,-0.121279,-0.121556,-65.5934,8,-0.000886063,10,0.0079733,-1.18314,-3.09195,-0.0190818,48.9018,-0.121556,
2,0,0,1,0,9841.21,-0.135262,-0.135581,-66.503,8,-0.00181035,10,0.00901656,-1.17716,-1.93873,-0.0304323,79.0623,-0.135581,
2,0,0,1,0,9841.23,-0.149295,-0.149574,-67.8424,8,-0.00275054,10,0.0101475,-1.1685,-1.50793,-0.0391265,103.611,-0.149574,
2,0,0,1,0,9841.24,-0.163278,-0.163568,-69.3638,8,-0.00371091,10,0.0113457,-1.15887,-1.35975,-0.0433903,117.508,-0.163568,
2,0,0,1,0,9841.25,-0.177261,-0.177536,-71.1009,8,-0.00469413,10,0.012623,-1.14813,-1.24015,-0.047575,132.072,-0.177536,
2,0,0,1,0,9841.27,-0.191295,-0.191586,-73.1209,8,-0.00570353,10,0.0140089,-1.13596,-1.09631,-0.0538169,153.566,-0.191586,
2,0,0,1,1,9841.28,-0.199984,-0.200513,-74.1551,8,-0.00639006,10,0.0148691,-1.12986,-0.0346318,-1.70363,4265.68,-0.200513,
2,0,0,1,1,9841.29,-0.186686,-0.187135,-43.033,8,-0.00713307,10,0.00805298,-1.3662,-0.0527057,-1.11942,1872.63,-0.1871351,
2,0,0,1,1,9841.3,-0.172667,-0.173067,-20.7769,8,-0.00756948,10,0.00359578,-1.68242,-0.0327019,-1.80418,1377.91,-0.173067,
2,0,0,1,1,9841.32,-0.158684,-0.159104,-3.81113,8,-0.00773503,10,0.000606368,-2.41895,-0.0326074,-1.8094,1084.36,-0.1591043,
2,1,0,1,1,9841.33,-0.14467,-0.145141,9.73839,8,-0.00768932,10,-0.00141344,-2.01151,0.0188494,3.13007,872.968,-0.145141,
2,1,0,1,1,9841.35,-0.130668,-0.131128,20.83,8,-0.00747205,10,-0.00273138,-1.68131,0.0635201,0.928839,723.072,-0.131128,
2,1,0,1,1,9841.36,-0.116685,-0.117072,29.9886,8,-0.00711324,10,-0.00351082,-1.52304,0.115207,0.512123,588.753,-0.1170719,
2,1,0,1,1,9841.37,-0.102654,-0.103049,37.5184,8,-0.0066387,10,-0.00386624,-1.42576,0.176451,0.334371,484.374,-0.103049,
2,1,0,1,1,9841.39,-0.0886685,-0.0890411,43.6053,8,-0.00606885,10,-0.00388266,-1.36046,0.253785,0.23248,393.26,-0.0890411,
2,1,0,1,1,9841.4,-0.0746854,-0.0750405,48.5645,8,-0.00542192,10,-0.00364431,-1.31368,0.348497,0.169299,319.618,-0.0750405,
2,1,0,1,1,9841.42,-0.0606523,-0.0610548,52.6724,8,-0.00471226,10,-0.0032159,-1.27842,0.467031,0.12633,258.625,-0.0610548,
2,1,0,1,1,9841.43,-0.0466692,-0.0469843,55.8512,8,-0.00395157,10,-0.00262413,-1.25297,0.636233,0.0927333,201.599,-0.0469843,
2,1,0,1,1,9841.44,-0.0326861,-0.0330399,58.3164,8,-0.0031514,10,-0.00192677,-1.23421,0.872529,0.0676195,153.609,-0.0330399,
2,1,0,1,1,9841.46,-0.018653,-0.0190298,60.2151,8,-0.00232102,10,-0.00114588,-1.22029,1.24428,0.0474171,111.165,-0.0190298,
2,1,0,1,1,9841.47,-0.00466992,-0.00502081,61.3993,8,-0.00146895,10,-0.000308274,-1.21184, , , ,-0.00502081,
2,1,0,1,1,9841.48,-0.000175352,-0.000478022,61.637,8,-0.00119207,10,-2.94639e-05,-1.21016, , , ,-0.000478022,