File: Figure_codes/Fig_3-5/rawdata_trumpetplot_data/before 10th/20221101_1-115_002_TrumpetPlot_ParaChange_08_CV_C01_0.csv
mode,ox/red,error,control changes,counter inc.,time/s,control/V,Ewe/V,<I>/mA,cycle number,(Q-Qo)/C,I Range,P/W,log(|I|),Tafel slope mV/dec,alpha_eff,dI/d(E-IR),E-IR/V,
2,0,0,1,0,1169.19,2.44065e-05,-0.000268062,-2.18649,1,0.0000000E+000,11,5.86113e-07,-2.66025, , , ,-0.000268062,
2,1,0,1,0,1169.37,0.00729063,0.00700318,1.70305,1,0.000202942,11,1.19267e-05,-2.76877,0.230313,0.256173,17.025,0.00700318,
2,1,0,1,0,1169.56,0.014778,0.0145101,1.79418,1,0.000531997,11,2.60338e-05,-2.74613,0.384817,0.15332,10.7188,0.0145101,
2,1,0,1,0,1169.75,0.0222743,0.0219845,1.85359,1,0.000874925,11,4.07503e-05,-2.73199,0.79109,0.0745806,5.39134,0.0219845,
2,1,0,1,0,1169.93,0.0297626,0.0295024,1.89065,1,0.00122624,11,5.57786e-05,-2.72339,0.873831,0.0675188,4.98636,0.02950236,
2,1,0,1,0,1170.12,0.0372544,0.0369812,1.93934,1,0.00158579,11,7.1719e-05,-2.71235,0.803056,0.0734694,5.54875,0.0369812,
2,1,0,1,0,1170.31,0.0447472,0.0444414,1.98717,1,0.00195444,11,8.83126e-05,-2.70177,0.539487,0.109363,8.51945,0.0444414,
2,1,0,1,0,1170.49,0.0522345,0.051971,2.06856,1,0.00233511,11,0.000107505,-2.68433,0.324026,0.182084,14.724,0.051971,
2,1,0,1,0,1170.68,0.0597309,0.0594425,2.18693,1,0.00273393,11,0.000129996,-2.66017,0.257716,0.228934,19.4878,0.0594425,
2,1,0,1,0,1170.87,0.0672182,0.0669749,2.33093,1,0.00315673,11,0.000156114,-2.63247,0.22774,0.259067,23.6274,0.0669749,
2,1,0,1,0,1171.06,0.0747074,0.0744387,2.52809,1,0.00361165,11,0.000188188,-2.59721,0.216506,0.27251,26.8345,0.0744387,
2,1,0,1,0,1171.24,0.0822019,0.0819441,2.74404,1,0.00410593,11,0.000224858,-2.56161,0.220871,0.267124,28.589,0.0819441,
2,1,0,1,0,1171.43,0.0896911,0.0894318,2.95043,1,0.00464203,11,0.000263862,-2.53011,0.219299,0.269039,31.3078,0.0894318,
2,1,0,1,0,1171.62,0.097182,0.0968984,3.22784,1,0.00522309,11,0.000312773,-2.49109,0.197579,0.298615,37.565,0.0968984,
2,1,0,1,0,1171.81,0.104675,0.10445,3.51702,1,0.00585422,11,0.000367353,-2.45382,0.186646,0.316107,43.3155,0.1044499,
2,1,0,1,0,1171.99,0.112162,0.111901,3.89204,1,0.00654625,11,0.000435524,-2.40982,0.152062,0.388,59.0603,0.111901,
2,1,0,1,0,1172.18,0.119655,0.119352,4.46547,1,0.00732615,11,0.000532961,-2.35013,0.117917,0.500351,87.2014,0.119352,
2,1,0,1,0,1172.37,0.127146,0.126881,5.23638,1,0.00823283,11,0.000664398,-2.28097,0.104613,0.563982,115.546,0.126881,
2,1,0,1,0,1172.55,0.134635,0.134339,6.14788,1,0.00930043,11,0.0008259,-2.21127,0.122405,0.482005,115.648,0.134339,
2,1,0,1,0,1172.74,0.14213,0.141844,6.90771,1,0.0105293,11,0.000979817,-2.16067,0.195177,0.30229,81.1945,0.141844,
2,1,0,1,0,1172.93,0.149619,0.149342,7.22872,1,0.0118619,11,0.00107955,-2.14094,4.06897,0.0145,4.0784,0.149342,
2,1,0,1,0,1173.12,0.157106,0.156827,6.8672,1,0.0131948,11,0.00107696,-2.16322,-0.141989,-0.415524,-110.627,0.156827,
2,1,0,1,0,1173.3,0.164602,0.164301,5.61026,1,0.0143764,11,0.000921773,-2.25102,-0.0607256,-0.971584,-211.61,0.164301,
2,1,0,1,0,1173.49,0.172091,0.171801,4.10339,1,0.0152806,11,0.000704968,-2.38686,-0.0582085,-1.0136,-163.802,0.171801,
2,1,0,1,0,1173.68,0.179582,0.179308,3.23681,1,0.0159601,11,0.000580388,-2.48988,-0.0923635,-0.638781,-80.979,0.179308,
2,1,0,1,0,1173.87,0.187074,0.186822,2.75764,1,0.0165179,11,0.000515187,-2.55946,-0.133974,-0.440384,-47.3251,0.186822,
2,1,0,1,0,1174.05,0.194563,0.194296,2.44875,1,0.0170033,11,0.000475783,-2.61106,-0.178435,-0.330653,-31.6366,0.1942963,
2,1,0,1,0,1174.24,0.202059,0.201845,2.25273,1,0.0174427,11,0.000454701,-2.64729,-0.21578,-0.273427,-23.9067,0.201845,
2,1,0,1,0,1174.43,0.209546,0.209275,2.10777,1,0.0178508,11,0.000441104,-2.67618,-0.262392,-0.224855,-18.5642,0.209275,
2,1,0,1,0,1174.61,0.217035,0.21677,2.00356,1,0.0182368,11,0.00043431,-2.6982,-0.437864,-0.134745,-10.6069,0.21677,
2,1,0,1,0,1174.8,0.22453,0.224263,1.9466,1,0.0186079,11,0.00043655,-2.71072,-0.632452,-0.0932877,-7.05508,0.224263,
2,1,0,1,0,1174.99,0.232019,0.231744,1.8865,1,0.0189668,11,0.000437186,-2.72434,-0.802376,-0.0735317,-5.42048,0.231744,
2,1,0,1,0,1175.18,0.23951,0.239243,1.84756,1,0.0193171,11,0.000442016,-2.7334,-0.703006,-0.0839253,-6.04857,0.239243,
2,1,0,1,0,1175.36,0.247003,0.246733,1.81642,1,0.0196601,11,0.000448171,-2.74078,-0.71743,-0.082238,-5.79126,0.246733,
2,1,0,1,0,1175.55,0.25449,0.254237,1.77595,1,0.0199968,11,0.000451512,-2.75057,-1.16902,-0.0504696,-3.51032,0.254237,
2,1,0,1,0,1175.74,0.261983,0.26175,1.75561,1,0.0203283,11,0.000459532,-2.75557,-1.52155,-0.0387762,-2.65059,0.26175,
2,1,0,1,0,1175.93,0.269474,0.269207,1.72824,1,0.020655,11,0.000465256,-2.7624,-2.50034,-0.0235968,-1.59291,0.269207,
2,1,0,1,0,1176.11,0.276963,0.276685,1.70376,1,0.0209772,11,0.000471403,-2.76859,-1.30473,-0.0452202,-3.01824,0.276685,
2,1,0,1,0,1176.3,0.284458,0.284194,1.69035,1,0.0212955,11,0.000480386,-2.77202,-2.58331,-0.0228389,-1.49797,0.284194,
2,1,0,1,0,1176.49,0.291947,0.291677,1.66368,1,0.0216097,11,0.000485256,-2.77893,-0.865552,-0.0681646,-4.42172,0.291677,
2,1,0,1,0,1176.67,0.299434,0.299209,1.64117,1,0.0219202,11,0.000491054,-2.78485,-0.00662143,-8.91046,-398.028,0.299209,
2,0,0,1,0,1176.83,0.294196,0.293879,-0.597607,1,0.0218947,11,-0.000175624,-3.22358,-0.0546288,-1.08002,24.8276,0.293879,
2,0,0,1,0,1177.02,0.286701,0.286419,-0.739905,1,0.0217667,11,-0.000211922,-3.13082,-0.10256,-0.575275,16.9207,0.286419,
2,0,0,1,0,1177.21,0.279212,0.278931,-0.861837,1,0.0216148,11,-0.000240394,-3.06457,-0.162288,-0.363552,12.1554,0.2789315,
2,0,0,1,0,1177.4,0.271725,0.271457,-0.943255,1,0.0214451,11,-0.000256054,-3.02537,-0.158832,-0.371462,13.6315,0.271457,
2,0,0,1,0,1177.58,0.264228,0.263946,-1.01494,1,0.0212604,11,-0.000267888,-2.99356,-0.27291,-0.216188,8.58698,0.263946,
2,0,0,1,0,1177.77,0.256741,0.256471,-1.08676,1,0.0210631,11,-0.000278723,-2.96387,-0.369203,-0.159804,6.71833,0.256471,
2,0,0,1,0,1177.96,0.249248,0.248953,-1.14145,1,0.0208538,11,-0.000284166,-2.94254,-0.453515,-0.130095,5.82299,0.248953,
2,0,0,1,0,1178.14,0.241756,0.241475,-1.19475,1,0.020633,11,-0.000288502,-2.92272,-0.350147,-0.168501,7.95271,0.241475,
2,0,0,1,0,1178.33,0.234268,0.233961,-1.27063,1,0.0204009,11,-0.000297278,-2.89598,-0.306629,-0.192415,9.52101,0.233961,
2,0,0,1,0,1178.52,0.226772,0.22649,-1.3334,1,0.0201562,11,-0.000302002,-2.87504,-0.253578,-0.23267,12.1266,0.2264903,
2,0,0,1,0,1178.71,0.219284,0.21902,-1.41654,1,0.0198984,11,-0.00031025,-2.84877,-0.28376,-0.207923,11.4399,0.21902,
2,0,0,1,0,1178.89,0.211796,0.21149,-1.50241,1,0.0196255,11,-0.000317745,-2.82321,-0.313413,-0.18825,10.9693,0.21149,
2,0,0,1,0,1179.08,0.204301,0.204002,-1.60519,1,0.0193335,11,-0.000327462,-2.79447,-0.284588,-0.207318,13.0674,0.204002,
2,0,0,1,0,1179.27,0.196812,0.196513,-1.74182,1,0.0190196,11,-0.00034229,-2.759,-0.188929,-0.312287,21.3139,0.196513,
2,0,0,1,0,1179.46,0.189321,0.189026,-1.93152,1,0.0186752,11,-0.000365108,-2.7141,-0.159351,-0.370252,27.8848,0.189026,
2,0,0,1,0,1179.64,0.181828,0.181532,-2.18222,1,0.0182903,11,-0.000396144,-2.6611,-0.123164,-0.479036,40.9663,0.181532,
2,0,0,1,0,1179.83,0.174341,0.174062,-2.55509,1,0.0178483,11,-0.000444744,-2.59259,-0.0986252,-0.598224,59.5948,0.174062,
2,0,0,1,0,1180.02,0.166848,0.166574,-3.10264,1,0.017322,11,-0.00051682,-2.50827,-0.0820939,-0.718689,86.7804,0.166574,
2,0,0,1,0,1180.2,0.159357,0.159069,-3.88568,1,0.0166717,11,-0.00061809,-2.41053,-0.0707577,-0.833832,127.023,0.159069,
2,0,0,1,0,1180.39,0.151868,0.151555,-4.94599,1,0.0158455,11,-0.000749591,-2.30575,-0.0773054,-0.763206,147.382,0.1515552,
2,0,0,1,0,1180.58,0.144373,0.144104,-6.02265,1,0.0148138,11,-0.000867885,-2.22021,-0.103001,-0.57281,134.664,0.144104,
2,0,0,1,0,1180.77,0.136884,0.136594,-6.83846,1,0.013601,11,-0.000934091,-2.16504,-0.197266,-0.299088,79.6406,0.136594,
2,0,0,1,0,1180.95,0.129393,0.129113,-7.14946,1,0.0122813,11,-0.000923091,-2.14573,17.4943,0.00337253,-0.9364,0.1291133,
2,0,0,1,0,1181.14,0.1219,0.121599,-6.76091,1,0.0109672,11,-0.000822118,-2.16999,0.155456,0.379529,-99.7617,0.121599,
2,0,0,1,0,1181.33,0.114413,0.114117,-5.79512,1,0.00978631,11,-0.000661323,-2.23694,0.0918512,0.642343,-145.167,0.114117,
2,0,0,1,0,1181.52,0.10692,0.106584,-4.83492,1,0.00879533,11,-0.000515326,-2.31561,0.106487,0.554059,-104.805,0.106584,
2,0,0,1,0,1181.7,0.0994284,0.099129,-4.23529,1,0.00794979,11,-0.00041984,-2.37312,0.173125,0.340795,-56.5505,0.099129,
2,0,0,1,0,1181.89,0.0919401,0.0916663,-3.88214,1,0.00719167,11,-0.000355862,-2.41093,0.243331,0.242468,-36.7318,0.0916663,
2,0,0,1,0,1182.08,0.0844447,0.0841678,-3.62752,1,0.00648852,11,-0.00030532,-2.44039,0.272736,0.216326,-30.573,0.0841678,
2,0,0,1,0,1182.26,0.0769565,0.0766528,-3.388,1,0.00583163,11,-0.0002597,-2.47006,0.235678,0.250342,-33.1276,0.07665281,
2,0,0,1,0,1182.45,0.0694682,0.069168,-3.16759,1,0.00521777,11,-0.000219096,-2.49927,0.248285,0.23763,-29.3274,0.069168,
2,0,0,1,0,1182.64,0.0619728,0.0616797,-2.9621,1,0.00464362,11,-0.000182702,-2.5284,0.256937,0.229628,-26.5761,0.0616797,
2,0,0,1,0,1182.83,0.0544836,0.0542274,-2.80303,1,0.00410375,11,-0.000152001,-2.55237,0.513714,0.11485,-12.5964,0.0542274,
2,0,0,1,0,1183.01,0.0469927,0.0466738,-2.71244,1,0.00358716,11,-0.0001266,-2.56664,0.831096,0.0709906,-7.48745,0.0466738,
2,0,0,1,0,1183.2,0.0394999,0.039204,-2.65319,1,0.00308516,11,-0.000104016,-2.57623,1.17876,0.0500527,-5.18055,0.039204,
2,0,0,1,0,1183.39,0.0320125,0.0316626,-2.62816,1,0.00259049,11,-8.32146e-05,-2.58035,3.85678,0.0152977,-1.57033,0.0316626,
2,0,0,1,0,1183.58,0.0245198,0.0242272,-2.63534,1,0.0020968,11,-6.38467e-05,-2.57916,-4.40442,-0.0133956,1.37868,0.0242272,
2,0,0,1,0,1183.76,0.0170289,0.0167416,-2.65445,1,0.00159985,11,-4.44399e-05,-2.57602,-1.08313,-0.0544716,5.68534,0.0167416,
2,0,0,1,0,1183.95,0.0095397,0.00926452,-2.71161,1,0.00109601,11,-2.51218e-05,-2.56677,-0.711985,-0.0828669,8.75091,0.00926452,
2,0,0,1,0,1184.14,0.00204518,0.00168788,-2.84521,1,0.000581582,11,-4.80237e-06,-2.54589,-0.627252,-0.0940611,10.1707,0.00168788,
2,0,0,1,0,1184.18,0.000177222,-0.000168808,-2.79058,1,0.000450038,11,4.71071e-07,-2.55431, , , ,-0.000168808,