File: Figure_codes/Fig_3-5/rawdata_trumpetplot_data/before 10th/20221101_1-115_002_TrumpetPlot_ParaChange_06_CV_C01_1.csv
mode,ox/red,error,control changes,counter inc.,time/s,control/V,Ewe/V,<I>/mA,cycle number,(Q-Qo)/C,I Range,P/W,log(|I|),Tafel slope mV/dec,alpha_eff,dI/d(E-IR),E-IR/V,
2,0,0,1,0,2310.62,2.44065e-05,-0.000325324,-0.4174,2,0.0000000E+000,11,1.3579e-07,-3.37945, , , ,-0.000325324,
2,1,0,1,0,2311.34,0.00729063,0.00708692,0.410222,2,0.000261923,11,2.90721e-06,-3.38698,0.117459,0.502304,7.99432,0.00708692,
2,1,0,1,0,2312.09,0.0147814,0.0144806,0.454223,2,0.000596999,11,6.5774e-06,-3.34273,0.240822,0.244994,4.33473,0.0144806,
2,1,0,1,0,2312.84,0.0222725,0.0219973,0.475718,2,0.000955545,11,1.04645e-05,-3.32265,0.42614,0.138452,2.56773,0.0219973,
2,1,0,1,0,2313.59,0.0297635,0.0295124,0.496447,2,0.0013296,11,1.46513e-05,-3.30413,0.570553,0.103408,1.99746,0.0295124,
2,1,0,1,0,2314.34,0.0372544,0.0369458,0.512494,2,0.00171766,11,1.89345e-05,-3.29031,0.395806,0.149063,2.99926,0.0369458,
2,1,0,1,0,2315.09,0.0447458,0.0444591,0.539701,2,0.00212139,11,2.39946e-05,-3.26785,0.345545,0.170745,3.57535,0.04445906,
2,1,0,1,0,2315.84,0.0522363,0.0519792,0.567128,2,0.00254562,11,2.94789e-05,-3.24632,0.217981,0.270665,5.99476,0.0519792,
2,1,0,1,0,2316.59,0.0597282,0.0594695,0.613476,2,0.00299753,11,3.64831e-05,-3.2122,0.218792,0.269662,6.43637,0.0594695,
2,1,0,1,0,2317.34,0.0672182,0.0669681,0.66859,2,0.00348605,11,4.47742e-05,-3.17484,0.17918,0.329278,8.53766,0.0669681,
2,1,0,1,0,2318.08,0.0747092,0.0744408,0.72937,2,0.0040189,11,5.42948e-05,-3.13705,0.198124,0.297793,8.49326,0.0744408,
2,1,0,1,0,2318.83,0.0822001,0.0819018,0.79214,2,0.00460156,11,6.48776e-05,-3.1012,0.225602,0.261523,8.13413,0.0819018,
2,1,0,1,0,2319.58,0.0896911,0.0893861,0.862881,2,0.0052329,11,7.71296e-05,-3.06405,0.2276,0.259227,8.73147,0.0893861,
2,1,0,1,0,2320.33,0.097182,0.096933,0.92569,2,0.00591297,11,8.97299e-05,-3.03353,0.198065,0.297882,10.7458,0.096933,
2,1,0,1,0,2321.08,0.104673,0.104394,1.00904,2,0.00664546,11,0.000105338,-2.99609,0.181328,0.325376,12.7723,0.104394,
2,1,0,1,0,2321.83,0.112164,0.11187,1.12505,2,0.00745027,11,0.00012586,-2.94883,0.136778,0.431355,18.8918,0.11187,
2,1,0,1,0,2322.58,0.119655,0.119356,1.30572,2,0.00836581,11,0.000155846,-2.88415,0.11369,0.518954,26.5072,0.119356,
2,1,0,1,0,2323.33,0.127146,0.12686,1.53045,2,0.00943944,11,0.000194153,-2.81518,0.109812,0.537282,32.2624,0.12686,
2,1,0,1,0,2324.08,0.134637,0.134314,1.75765,2,0.0106898,11,0.000236078,-2.75507,0.173166,0.340713,23.3873,0.134314,
2,1,0,1,0,2324.83,0.142127,0.141846,1.8771,2,0.0120712,11,0.00026626,-2.72651,0.518737,0.113738,8.29083,0.141846,
2,1,0,1,0,2325.58,0.149619,0.149353,1.82026,2,0.0134772,11,0.000271862,-2.73987,-0.185508,-0.318045,-22.4233,0.149353,
2,1,0,1,0,2326.32,0.157109,0.156816,1.55397,2,0.0147599,11,0.000243688,-2.80856,-0.075907,-0.777267,-46.8019,0.156816,
2,1,0,1,0,2327.07,0.164601,0.164353,1.20377,2,0.0158,11,0.000197843,-2.91946,-0.0646274,-0.912925,-42.8991,0.164353,
2,1,0,1,0,2327.82,0.172091,0.1718,0.9435,2,0.0166077,11,0.000162093,-3.02526,-0.0811967,-0.726631,-26.9901,0.1718,
2,1,0,1,0,2328.57,0.179582,0.179324,0.796634,2,0.0172648,11,0.000142856,-3.09874,-0.123911,-0.47615,-14.7941,0.179324,
2,1,0,1,0,2329.32,0.187074,0.18678,0.70688,2,0.0178337,11,0.000132031,-3.15065,-0.178309,-0.330886,-9.09829,0.18678,
2,1,0,1,0,2330.07,0.194564,0.194265,0.644046,2,0.018348,11,0.000125115,-3.19108,-0.23823,-0.247659,-6.23937,0.194265,
2,1,0,1,0,2330.82,0.202056,0.201786,0.607778,2,0.0188258,11,0.000122641,-3.21626,-0.274307,-0.215087,-5.0815,0.201786,
2,1,0,1,0,2331.57,0.209546,0.209297,0.576206,2,0.0192788,11,0.000120598,-3.23942,-0.426616,-0.138298,-3.11664,0.2092969,
2,1,0,1,0,2332.32,0.217038,0.216726,0.556365,2,0.0197132,11,0.000120579,-3.25464,-0.519874,-0.113489,-2.46948,0.216726,
2,1,0,1,0,2333.07,0.224528,0.224286,0.53975,2,0.0201343,11,0.000121058,-3.26781,-0.790774,-0.0746104,-1.56881,0.224286,
2,1,0,1,0,2333.82,0.232019,0.231746,0.529532,2,0.0205446,11,0.000122717,-3.27611,-0.66929,-0.0881531,-1.81487,0.231746,
2,1,0,1,0,2334.56,0.23951,0.239282,0.518128,2,0.0209469,11,0.000123979,-3.28556,-0.783711,-0.0752828,-1.51952,0.239282,
2,1,0,1,0,2335.31,0.247001,0.246794,0.511338,2,0.0213422,11,0.000126195,-3.29129,-0.669156,-0.0881708,-1.75213,0.246794,
2,1,0,1,0,2336.06,0.254492,0.254241,0.501674,2,0.0217317,11,0.000127546,-3.29958,-1.87315,-0.0314977,-0.618367,0.254241,
2,1,0,1,0,2336.81,0.261983,0.261717,0.495149,2,0.0221161,11,0.000129589,-3.30526,-1.21615,-0.0485136,-0.9373,0.261717,
2,1,0,1,0,2337.56,0.269474,0.269191,0.49095,2,0.022496,11,0.000132159,-3.30896,-11.1542,-0.00528949,-0.101056,0.269191,
2,1,0,1,0,2338.31,0.276965,0.276673,0.484974,2,0.0228719,11,0.000134179,-3.31428,-0.908883,-0.0649149,-1.23207,0.276673,
2,1,0,1,0,2339.06,0.284456,0.284191,0.48059,2,0.0232441,11,0.00013658,-3.31822,-2.65108,-0.0222551,-0.4163,0.284191,
2,1,0,1,0,2339.81,0.291947,0.291663,0.474736,2,0.0236127,11,0.000138463,-3.32355,-0.826323,-0.0714006,-1.32953,0.2916629,
2,1,0,1,0,2340.56,0.299437,0.299212,0.468367,2,0.0239782,11,0.000140141,-3.32941,-0.00155705,-37.8922,-281.561,0.299212,
2,0,0,1,0,2341.24,0.293745,0.293448,-0.118727,2,0.0239536,11,-3.48401e-05,-3.92545,-0.0279584,-2.11028,9.4475,0.293448,
2,0,0,1,0,2341.99,0.286253,0.285944,-0.166316,2,0.0238347,11,-4.75571e-05,-3.77907,-0.0844465,-0.698667,4.54835,0.285944,
2,0,0,1,0,2342.74,0.278763,0.278483,-0.200451,2,0.0236862,11,-5.58223e-05,-3.69799,-0.120279,-0.490526,3.82947,0.278483,
2,0,0,1,0,2343.49,0.271272,0.271008,-0.225032,2,0.023516,11,-6.09857e-05,-3.64775,-0.170134,-0.346786,3.05493,0.271008,
2,0,0,1,0,2344.24,0.263781,0.263506,-0.248504,2,0.0233277,11,-6.54823e-05,-3.60467,-0.199334,-0.295985,2.88196,0.263506,
2,0,0,1,0,2344.99,0.25629,0.255989,-0.269376,2,0.0231235,11,-6.89572e-05,-3.56964,-0.320983,-0.18381,1.91325,0.255989,
2,0,0,1,0,2345.74,0.248799,0.248532,-0.288437,2,0.0229045,11,-7.16857e-05,-3.53995,-0.264153,-0.223355,2.51186,0.248532,
2,0,0,1,0,2346.49,0.241308,0.241028,-0.305455,2,0.0226713,11,-7.36234e-05,-3.51505,-0.280217,-0.210551,2.5142,0.241028,
2,0,0,1,0,2347.23,0.233817,0.233563,-0.326181,2,0.0224241,11,-7.61838e-05,-3.48654,-0.243475,-0.242325,3.07272,0.233563,
2,0,0,1,0,2347.98,0.226326,0.226051,-0.343689,2,0.0221621,11,-7.76914e-05,-3.46383,-0.362967,-0.162549,2.1933,0.226051,
2,0,0,1,0,2348.73,0.218835,0.218555,-0.369748,2,0.0218845,11,-8.08103e-05,-3.43209,-0.282396,-0.208927,2.99072,0.218555,
2,0,0,1,0,2349.48,0.211344,0.211023,-0.3909,2,0.0215895,11,-8.2489e-05,-3.40793,-0.268187,-0.219996,3.36606,0.211023,
2,0,0,1,0,2350.23,0.203854,0.203519,-0.421205,2,0.0212739,11,-8.57233e-05,-3.37551,-0.215139,-0.274242,4.53712,0.203519,
2,0,0,1,0,2350.98,0.196362,0.196029,-0.462435,2,0.0209336,11,-9.06507e-05,-3.33495,-0.19807,-0.297875,5.3478,0.196029,
2,0,0,1,0,2351.73,0.188872,0.188573,-0.509258,2,0.0205605,11,-9.60321e-05,-3.29306,-0.131626,-0.448239,8.90381,0.188573,
2,0,0,1,0,2352.48,0.18138,0.181095,-0.581535,2,0.0201433,11,-0.000105313,-3.23542,-0.121506,-0.485575,11.0069,0.181095,
2,0,0,1,0,2353.23,0.17389,0.173596,-0.685346,2,0.019663,11,-0.000118973,-3.16409,-0.0961016,-0.613934,16.3469,0.173596,
2,0,0,1,0,2353.98,0.166398,0.166084,-0.839849,2,0.0190866,11,-0.000139486,-3.0758,-0.076439,-0.771857,25.4933,0.166084,
2,0,0,1,0,2354.73,0.158907,0.158596,-1.08766,2,0.0183588,11,-0.000172499,-2.96351,-0.0634543,-0.929803,39.6157,0.158596,
2,0,0,1,0,2355.47,0.151417,0.151116,-1.41677,2,0.0174113,11,-0.000214096,-2.8487,-0.0739208,-0.798152,44.0529,0.151116,
2,0,0,1,0,2356.22,0.143925,0.143671,-1.71376,2,0.0162227,11,-0.000246217,-2.76605,-0.108956,-0.541501,35.9942,0.143671,
2,0,0,1,0,2356.97,0.136435,0.136176,-1.87254,2,0.0148583,11,-0.000254994,-2.72757,-0.466716,-0.126415,9.18497,0.1361755,
2,0,0,1,0,2357.72,0.128943,0.128612,-1.84483,2,0.0134456,11,-0.000237267,-2.73404,0.235237,0.250811,-17.95,0.1286121,
2,0,0,1,0,2358.47,0.121453,0.121148,-1.65733,2,0.0121187,11,-0.000200783,-2.78059,0.123683,0.477028,-30.7781,0.121148,
2,0,0,1,0,2359.22,0.113962,0.113694,-1.42462,2,0.0109538,11,-0.000161971,-2.8463,0.118558,0.497646,-27.8019,0.113694,
2,0,0,1,0,2359.97,0.106471,0.106188,-1.25778,2,0.0099401,11,-0.000133561,-2.9004,0.169688,0.347697,-17.1939,0.106188,
2,0,0,1,0,2360.72,0.0989798,0.0987272,-1.15394,2,0.0090293,11,-0.000113926,-2.93782,0.257079,0.229502,-10.3053,0.0987272,
2,0,0,1,0,2361.47,0.0914889,0.0911909,-1.08564,2,0.00818386,11,-9.90003e-05,-2.96432,0.290497,0.2031,-8.57148,0.0911909,
2,0,0,1,0,2362.22,0.083998,0.0837246,-1.01942,2,0.0073867,11,-8.53502e-05,-2.99165,0.238137,0.247756,-9.84909,0.0837246,
2,0,0,1,0,2362.97,0.076507,0.0762212,-0.961929,2,0.00663372,11,-7.33193e-05,-3.01686,0.267982,0.220164,-8.25291,0.0762212,
2,0,0,1,0,2363.71,0.069016,0.0687538,-0.897022,2,0.00592747,11,-6.16737e-05,-3.0472,0.244101,0.241704,-8.48581,0.0687538,
2,0,0,1,0,2364.46,0.0615251,0.0612535,-0.841141,2,0.00526605,11,-5.15228e-05,-3.07513,0.285363,0.206754,-6.80202,0.0612535,
2,0,0,1,0,2365.21,0.0540341,0.0537331,-0.797583,2,0.00464339,11,-4.28567e-05,-3.09822,0.340208,0.173423,-5.38156,0.0537331,
2,0,0,1,0,2365.96,0.0465441,0.0462454,-0.766075,2,0.0040481,11,-3.54274e-05,-3.11573,0.692497,0.085199,-2.55776,0.0462454,
2,0,0,1,0,2366.71,0.0390523,0.0387517,-0.751113,2,0.00346994,11,-2.91069e-05,-3.12429,0.788493,0.0748263,-2.18819,0.03875171,
2,0,0,1,0,2367.46,0.0315618,0.0312785,-0.745695,2,0.00289992,11,-2.33242e-05,-3.12744,-2.81757,-0.02094,0.610192,0.0312785,
2,0,0,1,0,2368.21,0.0240704,0.0237809,-0.745392,2,0.00233034,11,-1.77261e-05,-3.12762,-2.21119,-0.0266825,0.780754,0.0237809,
2,0,0,1,0,2368.96,0.0165796,0.0162862,-0.758672,2,0.00175563,11,-1.23559e-05,-3.11995,-0.85998,-0.0686062,2.03281,0.0162862,
2,0,0,1,0,2369.71,0.00908845,0.00876766,-0.772911,2,0.00117117,11,-6.77662e-06,-3.11187,-0.817549,-0.0721669,2.17789,0.00876766,
2,0,0,1,0,2370.46,0.00159728,0.00125961,-0.802859,2,0.000571532,11,-1.01129e-06,-3.09536, , , ,0.00125961,
2,0,0,1,0,2370.6,0.000199195,-0.000155446,-0.796924,2,0.000457935,11,1.23879e-07,-3.09858, , , ,-0.0001554464,