File: Figure_codes/Fig_3-5/rawdata_trumpetplot_data/before 10th/20221101_1-115_002_TrumpetPlot_ParaChange_15_CV_C01.mpt
EC-Lab ASCII FILE
Nb header lines : 68

Cyclic Voltammetry

Run on channel : 1 (SN 65296)
User :
CE vs. WE compliance from -10 V to 10 V
Electrode connection : standard
Potential control : Ewe
Ewe ctrl range : min = -1.00 V, max = 1.00 V
Safety Limits :
	Do not start on E overload
Acquisition started on : 11/08/2022 17:30:03.488
Loaded Setting File :  NONE
Saved on :
	File : 20221101_1-115_002_TrumpetPlot_ParaChange_15_CV_C01.mpr
	Directory : C:\Users\NakamuraT\Documents\EC-Lab\Data\Yatsuzuka\20221108_1-115_001_TrumpetPlot\
	Host : 192.109.209.100
Device : SP-50e (SN .003219)
Address : 192.109.209.128
EC-Lab for windows v11.43 (software)
Internet server v11.40 (firmware)
Command interpretor v11.40 (firmware)
Electrode material : Au/Pd
Initial state :
Electrolyte : NaCl (0.2M)
Comments : Fe(CN)63-/Fe(CN)64- 5.10-3 M
Reference electrode : SCE Saturated Calomel Electrode (0.241 V)
Electrode surface area : 0.001 cm2
Characteristic mass : 0.001 g
Equivalent Weight : 0.000 g/eq.
Density : 0.000 g/cm3
Volume (V) : 0.001 cm3
Cycle Definition : Charge/Discharge alternance
Ei (V)              0.000
vs.                 Ref
dE/dt               800.000
dE/dt unit          mV/s
E1 (V)              0.300
vs.                 Ref
Step percent        50
N                   10
E range min (V)     -1.000
E range max (V)     1.000
I Range             100 mA
I Range min         Unset
I Range max         Unset
I Range init        Unset
Bandwidth           5
E2 (V)              -0.200
vs.                 Ref
nc cycles           0
Reverse Scan        1
Ef (V)              0.000
vs.                 Ref

Number of loops : 8
Loop 0 from point number 0 to 634
Loop 1 from point number 635 to 1269
Loop 2 from point number 1270 to 1904
Loop 3 from point number 1905 to 2539
Loop 4 from point number 2540 to 3174
Loop 5 from point number 3175 to 3809
Loop 6 from point number 3810 to 4444
Loop 7 from point number 4445 to 5079

mode	ox/red	error	control changes	counter inc.	time/s	control/V	Ewe/V	<I>/mA	cycle number	(Q-Qo)/C	I Range	P/W
2	1	0	1	0	1217.73	2.44065e-05	-0.00116517	32.7288	1	0.0000000E+000	10	-3.81344e-05
2	1	0	1	0	1217.8	0.0601018	0.0598018	40.7949	1	0.00291264	10	0.00243961
2	1	0	1	0	1217.88	0.120909	0.120558	50.3361	1	0.00624275	10	0.00606841
2	1	0	1	0	1217.95	0.181705	0.181386	82.4458	1	0.0111435	10	0.0149545
2	1	0	1	0	1218.03	0.242501	0.242334	75.3555	1	0.0180258	10	0.0182612
2	1	0	0	0	1218.1	0.300012	0.299746	25.9983	1	0.0210618	10	0.00779289
2	0	0	1	0	1218.18	0.241383	0.241139	-21.4713	1	0.0202132	10	-0.00517756
2	0	0	1	0	1218.25	0.180587	0.18037	-30.3011	1	0.0183126	10	-0.00546541
2	0	0	1	0	1218.33	0.119782	0.119668	-64.4201	1	0.0149314	10	-0.00770903
2	0	0	1	0	1218.4	0.0589837	0.0587096	-92.0763	1	0.00857195	10	-0.00540577
2	0	0	1	0	1218.48	-0.00181504	-0.00217043	-55.4865	1	0.00292714	10	0.00012043
2	0	0	1	0	1218.56	-0.0626194	-0.0629254	-47.7975	1	-0.000761123	10	0.00300767
2	0	0	1	0	1218.63	-0.123418	-0.123711	-56.7765	1	-0.00469631	10	0.00702389
2	0	0	1	0	1218.71	-0.184211	-0.184437	-72.1235	1	-0.00956212	10	0.0133023
2	1	0	1	1	1218.78	-0.160532	-0.160994	5.82591	1	-0.0124651	10	-0.000937937
2	1	0	1	1	1218.85	-0.0997357	-0.100092	47.8944	1	-0.0100409	10	-0.00479382
2	1	0	1	1	1218.93	-0.0389369	-0.0392518	54.3818	1	-0.00605428	10	-0.00213458
2	1	0	1	0	2449.38	0.016904	0.0165648	38.0881	2	0.000758511	10	0.000630923
2	1	0	1	0	2449.45	0.0777	0.0773357	42.8178	2	0.00386773	10	0.00331135
2	1	0	1	0	2449.53	0.138507	0.138174	60.5702	2	0.00767008	10	0.00836925
2	1	0	1	0	2449.6	0.199303	0.198939	94.7979	2	0.0135688	10	0.018859
2	1	0	1	0	2449.68	0.260102	0.259927	43.3383	2	0.0195989	10	0.0112648
2	0	0	1	0	2449.75	0.284581	0.284369	-9.23359	2	0.0211953	10	-0.00262575
2	0	0	1	0	2449.83	0.223785	0.22355	-23.2754	2	0.0197114	10	-0.00520322
2	0	0	1	0	2449.9	0.162986	0.162733	-36.1142	2	0.0175807	10	-0.00587699
2	0	0	1	0	2449.98	0.102182	0.102028	-78.3771	2	0.0133585	10	-0.00799668
2	0	0	1	0	2450.05	0.0413828	0.041126	-83.9253	2	0.00661465	10	-0.00345151
2	0	0	1	0	2450.13	-0.0194105	-0.0197403	-49.959	2	0.00163934	10	0.000986205
2	0	0	1	0	2450.21	-0.0802203	-0.0805175	-49.8886	2	-0.00200918	10	0.00401691
2	0	0	1	0	2450.28	-0.141014	-0.141323	-60.7423	2	-0.00617104	10	0.00858432
2	0	0	0	0	2450.36	-0.199984	-0.200074	-76.6204	2	-0.0112042	10	0.0153298
2	1	0	1	1	2450.43	-0.142933	-0.143339	26.5836	2	-0.0121581	10	-0.00381047
2	1	0	1	1	2450.5	-0.0821347	-0.0824644	53.0115	2	-0.00885328	10	-0.00437157
2	1	0	1	1	2450.58	-0.0213415	-0.0216872	54.9426	2	-0.00468251	10	-0.00119155
2	1	0	1	0	3681.03	0.0345022	0.0341665	38.2084	3	0.00154012	10	0.00130545
2	1	0	1	0	3681.1	0.0953065	0.0949416	44.384	3	0.00462061	10	0.00421389
2	1	0	1	0	3681.18	0.156105	0.155753	65.0434	3	0.00869047	10	0.0101307
2	1	0	1	0	3681.26	0.216904	0.21664	90.523	3	0.0147818	10	0.0196109
2	1	0	1	0	3681.33	0.277708	0.277469	35.3013	3	0.0197052	10	0.00979502
2	0	0	1	0	3681.4	0.266982	0.266765	-14.4939	3	0.0205306	10	-0.00386646
2	0	0	1	0	3681.48	0.206184	0.205904	-23.1815	3	0.0190419	10	-0.00477314
2	0	0	1	0	3681.55	0.145385	0.14516	-40.1265	3	0.0167925	10	-0.00582478
2	0	0	1	0	3681.63	0.0845806	0.084364	-79.167	3	0.0122422	10	-0.00667885
2	0	0	1	0	3681.7	0.0237874	0.0235381	-75.0459	3	0.00597924	10	-0.00176644
2	0	0	1	0	3681.78	-0.037017	-0.0373335	-49.582	3	0.00135404	10	0.00185107
2	0	0	1	0	3681.86	-0.0978158	-0.0981076	-50.9719	3	-0.00236862	10	0.00500073
2	0	0	1	0	3681.93	-0.158615	-0.158931	-61.4253	3	-0.00660297	10	0.00976242
2	0	0	1	1	3682	-0.186137	-0.186567	-36.1528	3	-0.0109485	10	0.00674491
2	1	0	1	1	3682.08	-0.125333	-0.12571	32.0015	3	-0.0105816	10	-0.00402291
2	1	0	1	1	3682.15	-0.0645393	-0.0648808	49.9478	3	-0.00729207	10	-0.00324065
2	1	0	1	1	3682.23	-0.00373494	-0.00406114	51.5589	3	-0.00337704	10	-0.000209388
2	1	0	1	0	4912.68	0.0521032	0.0517502	38.792	4	0.00234283	10	0.00200749
2	1	0	1	0	4912.75	0.112907	0.112567	49.4399	4	0.0055985	10	0.00556528
2	1	0	1	0	4912.83	0.173706	0.17333	73.4593	4	0.0101849	10	0.0127327
2	1	0	1	0	4912.91	0.234499	0.234297	76.1916	4	0.0164529	10	0.0178515
2	1	0	1	0	4912.98	0.295309	0.295038	30.404	4	0.0200549	10	0.00897035
2	0	0	1	0	4913.05	0.249382	0.249154	-16.9742	4	0.0199209	10	-0.0042292
2	0	0	1	0	4913.13	0.188588	0.188314	-24.6602	4	0.0183455	10	-0.00464384
2	0	0	1	0	4913.2	0.127778	0.127551	-48.2466	4	0.0157743	10	-0.00615391
2	0	0	1	0	4913.28	0.0669852	0.0667348	-81.6831	4	0.010666	10	-0.00545111
2	0	0	1	0	4913.35	0.00618641	0.00591941	-67.9084	4	0.00475792	10	-0.000401978
2	0	0	1	0	4913.43	-0.0546179	-0.0549289	-48.853	4	0.000513923	10	0.00268344
2	0	0	1	0	4913.51	-0.115417	-0.115716	-53.1533	4	-0.00329722	10	0.00615067
2	0	0	1	0	4913.58	-0.176213	-0.176497	-64.5073	4	-0.00774221	10	0.0113853
2	0	0	1	1	4913.65	-0.16853	-0.168899	-8.16428	4	-0.0111175	10	0.00137894
2	1	0	1	1	4913.73	-0.107737	-0.108157	38.4559	4	-0.00962316	10	-0.00415928
2	1	0	1	1	4913.8	-0.0469383	-0.0472812	50.4901	4	-0.00612098	10	-0.00238723
2	1	0	1	0	6144.25	0.00890534	0.00856088	32.9949	5	0.000363261	10	0.000282465
2	1	0	1	0	6144.33	0.0696986	0.0693412	40.2289	5	0.00317883	10	0.00278952
2	1	0	1	0	6144.4	0.130508	0.130134	55.1009	5	0.0067241	10	0.00717052
2	1	0	1	0	6144.48	0.191302	0.190915	80.1489	5	0.0118218	10	0.0153016
2	1	0	1	0	6144.56	0.2521	0.251885	56.7243	5	0.0177212	10	0.014288
2	1	0	1	0	6144.63	0.292579	0.292458	12.02	5	0.0203135	10	0.00351534
2	0	0	1	0	6144.7	0.231786	0.231508	-18.6006	5	0.019534	10	-0.0043062
2	0	0	1	0	6144.78	0.170987	0.170682	-27.4662	5	0.017823	10	-0.00468798
2	0	0	1	0	6144.85	0.110183	0.110046	-57.1177	5	0.0147851	10	-0.00628557
2	0	0	1	0	6144.93	0.0493842	0.0491214	-79.9968	5	0.00928735	10	-0.00392956
2	0	0	1	0	6145.01	-0.0114118	-0.011783	-62.1492	5	0.00376939	10	0.000732306
2	0	0	1	0	6145.08	-0.0722189	-0.072539	-49.4672	5	-0.000266196	10	0.00358831
2	0	0	1	0	6145.16	-0.133015	-0.133307	-55.4789	5	-0.00420149	10	0.00739572
2	0	0	1	0	6145.23	-0.193811	-0.19411	-67.0956	5	-0.0088444	10	0.013024
2	1	0	1	1	6145.3	-0.150935	-0.1514	8.92826	5	-0.0107386	10	-0.00135174
2	1	0	1	1	6145.38	-0.0901362	-0.0905257	41.6023	5	-0.00858145	10	-0.00376607
2	1	0	1	1	6145.45	-0.0293374	-0.0296922	50.2357	5	-0.00500348	10	-0.00149161
2	1	0	1	0	7375.9	0.0265008	0.0261721	36.6647	6	0.00115329	10	0.000959593
2	1	0	1	0	7375.98	0.0873051	0.0869642	44.4711	6	0.00419644	10	0.00386739
2	1	0	1	0	7376.05	0.148104	0.147764	62.9904	6	0.00822159	10	0.00930769
2	1	0	1	0	7376.13	0.208903	0.2086	84.7158	6	0.0139555	10	0.0176717
2	1	0	1	0	7376.21	0.269707	0.269449	39.3501	6	0.0189181	10	0.0106029
2	0	0	1	0	7376.28	0.274984	0.274701	-8.99935	6	0.0203335	10	-0.00247213
2	0	0	1	0	7376.35	0.214185	0.213895	-21.3887	6	0.0190282	10	-0.00457494
2	0	0	1	0	7376.43	0.153386	0.153149	-32.5822	6	0.0170717	10	-0.00498994
2	0	0	1	0	7376.5	0.092582	0.0924358	-67.0781	6	0.0133664	10	-0.00620042
2	0	0	1	0	7376.58	0.031786	0.0314678	-77.4172	6	0.00753438	10	-0.00243615
2	0	0	1	0	7376.66	-0.0290155	-0.0294038	-56.2295	6	0.00237427	10	0.00165336
2	0	0	1	0	7376.73	-0.0898171	-0.0901577	-50.3552	6	-0.00150825	10	0.00453991
2	0	0	1	0	7376.81	-0.150613	-0.150952	-58.685	6	-0.00560656	10	0.00885861
2	0	0	1	1	7376.88	-0.194133	-0.194564	-52.3826	6	-0.00998622	10	0.0101918
2	1	0	1	1	7376.95	-0.133334	-0.133795	22.6711	6	-0.0105325	10	-0.00303327
2	1	0	1	1	7377.03	-0.072538	-0.0729017	46.5396	6	-0.00772232	10	-0.00339281
2	1	0	1	1	7377.1	-0.0117308	-0.0120619	51.8595	6	-0.00390772	10	-0.000625525
2	1	0	1	0	8607.55	0.0441017	0.0437547	36.8859	7	0.0018862	10	0.00161393
2	1	0	1	0	8607.63	0.104906	0.104493	47.5188	7	0.0050266	10	0.00496537
2	1	0	1	0	8607.7	0.165705	0.165371	67.7615	7	0.0093541	10	0.0112058
2	1	0	1	0	8607.78	0.226501	0.226254	75.2365	7	0.0151747	10	0.0170225
2	1	0	1	0	8607.86	0.287308	0.28702	33.2232	7	0.0190261	10	0.00953575
2	0	0	1	0	8607.93	0.257383	0.257125	-13.4946	7	0.0195213	10	-0.0034698
2	0	0	1	0	8608	0.196587	0.196345	-21.9461	7	0.0181299	10	-0.00430902
2	0	0	1	0	8608.08	0.13578	0.135545	-37.6002	7	0.0160119	10	-0.0050965
2	0	0	1	0	8608.15	0.0749839	0.0747186	-70.6232	7	0.0118445	10	-0.00527687
2	0	0	1	0	8608.23	0.0141879	0.0138831	-70.6782	7	0.00622513	10	-0.00098123
2	0	0	1	0	8608.31	-0.0466193	-0.0469663	-51.7994	7	0.00156829	10	0.00243282
2	0	0	1	0	8608.38	-0.107415	-0.10774	-51.0423	7	-0.00223437	10	0.00549931
2	0	0	1	0	8608.46	-0.168214	-0.168496	-59.9988	7	-0.00642471	10	0.0101096
2	0	0	1	1	8608.53	-0.176532	-0.176941	-20.6086	7	-0.0101198	10	0.00364652
2	1	0	1	1	8608.6	-0.115736	-0.116138	29.1056	7	-0.00947186	10	-0.00338026
2	1	0	1	1	8608.68	-0.0549398	-0.055317	46.2351	7	-0.00648332	10	-0.00255759
2	1	0	1	0	9839.13	0.0009039	0.000563297	35.5242	8	3.92462e-05	10	2.00107e-05
2	1	0	1	0	9839.2	0.0617027	0.0613681	40.4083	8	0.00283132	10	0.00247978
2	1	0	1	0	9839.28	0.122507	0.12218	54.4526	8	0.00637316	10	0.00665303
2	1	0	1	0	9839.36	0.183303	0.182945	76.3553	8	0.01131	10	0.0139688
2	1	0	1	0	9839.43	0.244105	0.24384	58.9246	8	0.0170611	10	0.0143682
2	1	0	0	0	9839.5	0.299862	0.299766	30.1102	8	0.0198969	10	0.009026
2	0	0	1	0	9839.58	0.239785	0.239523	-18.0702	8	0.0194658	10	-0.00432822
2	0	0	1	0	9839.65	0.178989	0.178691	-25.1429	8	0.017827	10	-0.00449282
2	0	0	1	0	9839.73	0.118182	0.117935	-47.5218	8	0.0152581	10	-0.0056045
2	0	0	1	0	9839.8	0.0573857	0.0571116	-75.8454	8	0.0103915	10	-0.00433165
2	0	0	1	0	9839.88	-0.00341311	-0.00373665	-67.8309	8	0.00478083	10	0.00025346
2	0	0	1	0	9839.96	-0.0642174	-0.0645563	-50.9131	8	0.000377953	10	0.00328676
2	0	0	1	0	9840.03	-0.125016	-0.125372	-53.7923	8	-0.00352363	10	0.00674403
2	0	0	1	0	9840.11	-0.185815	-0.186122	-63.7938	8	-0.00797637	10	0.0118735
2	0	0	1	1	9840.18	-0.158934	-0.159394	-0.464688	8	-0.0105546	10	7.40684e-05
2	1	0	1	1	9840.25	-0.0981376	-0.0985402	37.0468	8	-0.00893174	10	-0.0036506
2	1	0	1	1	9840.33	-0.0373388	-0.0376909	49.8181	8	-0.00553081	10	-0.00187769
2	1	0	1	1	9840.38	2.44065e-05	-0.000439847	51.3499	8	-0.00315243	10	-2.25861e-05