File: Figure_codes/Fig_3-5/rawdata_trumpetplot_data/before 10th/20221101_1-115_002_TrumpetPlot_ParaChange_10_CV_C01_3.csv
mode,ox/red,error,control changes,counter inc.,time/s,control/V,Ewe/V,<I>/mA,cycle number,(Q-Qo)/C,I Range,P/W,log(|I|),Tafel slope mV/dec,alpha_eff,dI/d(E-IR),E-IR/V,
2,0,0,0,0,4889.28,2.44065e-05,0.000266383,-5.78081,4,0.0000000E+000,11,-1.53991e-06,-2.23801, , , ,0.000266383,
2,1,0,1,0,4889.37,0.0072942,0.00699228,2.63828,4,1.59923e-05,11,1.84476e-05,-2.57868,0.0245652,2.40177,230.678,0.00699228,
2,1,0,1,0,4889.46,0.0147816,0.0144684,3.24946,4,0.000301311,11,4.70144e-05,-2.48819,0.201845,0.292304,37.0385,0.0144684,
2,1,0,1,0,4889.55,0.0222707,0.0219376,3.42821,4,0.000615148,11,7.52069e-05,-2.46493,0.432058,0.136556,18.2766,0.0219376,
2,1,0,1,0,4889.65,0.0297581,0.0295034,3.58848,4,0.000943364,11,0.000105872,-2.44509,0.418234,0.141069,19.6935,0.0295034,
2,1,0,1,0,4889.74,0.0372544,0.0369591,3.74085,4,0.00128651,11,0.000138259,-2.42703,0.340669,0.173189,25.3104,0.0369591,
2,1,0,1,0,4889.83,0.0447507,0.0444733,3.94267,4,0.00164693,11,0.000175343,-2.40421,0.316488,0.186421,28.7865,0.0444733,
2,1,0,1,0,4889.93,0.0522381,0.0519351,4.22212,4,0.00202911,11,0.000219276,-2.37447,0.23694,0.249008,41.0655,0.0519351,
2,1,0,1,0,4890.02,0.0597273,0.0594633,4.56701,4,0.00244004,11,0.00027157,-2.34037,0.197182,0.299216,53.3174,0.0594633,
2,1,0,1,0,4890.11,0.0672147,0.0669483,4.97523,4,0.00288626,11,0.000333083,-2.30319,0.201535,0.292753,56.8145,0.0669483,
2,1,0,1,0,4890.21,0.0747038,0.0744567,5.42936,4,0.0033728,11,0.000404252,-2.26525,0.216466,0.27256,57.6267,0.0744567,
2,1,0,1,0,4890.3,0.0822055,0.0819093,5.86838,4,0.00390253,11,0.000480675,-2.23148,0.226252,0.260771,59.6907,0.0819093,
2,1,0,1,0,4890.4,0.0896946,0.0894076,6.28447,4,0.00447191,11,0.000561879,-2.20173,0.278193,0.212083,52.0573,0.0894076,
2,1,0,1,0,4890.49,0.097182,0.0969079,6.69007,4,0.00507964,11,0.00064832,-2.17457,0.283023,0.208463,54.4069,0.0969079,
2,1,0,1,0,4890.58,0.104671,0.104398,7.13517,4,0.00572586,11,0.0007449,-2.1466,0.242534,0.243265,67.6648,0.104398,
2,1,0,1,0,4890.68,0.112159,0.111839,7.6806,4,0.00641777,11,0.000858988,-2.1146,0.197365,0.298939,89.6877,0.111839,
2,1,0,1,0,4890.77,0.119655,0.119383,8.47614,4,0.00717315,11,0.00101191,-2.0718,0.169901,0.347261,114.871,0.1193834,
2,1,0,1,0,4890.86,0.127149,0.126861,9.44439,4,0.00801167,11,0.00119812,-2.02483,0.156263,0.377569,139.187,0.126861,
2,1,0,1,0,4890.96,0.134639,0.13436,10.4965,4,0.00894592,11,0.0014103,-1.97896,0.178494,0.330543,135.455,0.13436,
2,1,0,1,0,4891.05,0.142126,0.141811,11.4477,4,0.00997506,11,0.00162341,-1.94128,0.237031,0.248913,111.107,0.141811,
2,1,0,1,0,4891.14,0.149615,0.149301,12.0856,4,0.0110802,11,0.00180439,-1.91773,0.541413,0.108974,51.2768,0.149301,
2,1,0,1,0,4891.24,0.157103,0.156841,12.0456,4,0.0122165,11,0.00188924,-1.91917,-0.395935,-0.149014,-69.7861,0.156841,
2,1,0,1,0,4891.33,0.164606,0.164356,10.853,4,0.013301,11,0.00178376,-1.96445,-0.0977027,-0.603873,-254.35,0.164356,
2,1,0,1,0,4891.43,0.172095,0.171835,8.54593,4,0.014213,11,0.00146849,-2.06824,-0.0608878,-0.968996,-322.934,0.171835,
2,1,0,1,0,4891.52,0.179582,0.179348,6.47401,4,0.0149088,11,0.0011611,-2.18883,-0.0714428,-0.825836,-210.139,0.179348,
2,1,0,1,0,4891.61,0.18707,0.18682,5.36601,4,0.0154576,11,0.00100248,-2.27035,-0.118105,-0.499557,-104.819,0.18682,
2,1,0,1,0,4891.71,0.194559,0.194281,4.75817,4,0.0159288,11,0.000924424,-2.32256,-0.165644,-0.356187,-66.0512,0.194281,
2,1,0,1,0,4891.8,0.202062,0.201767,4.32179,4,0.0163531,11,0.000871994,-2.36434,-0.213214,-0.276718,-46.6712,0.201767,
2,1,0,1,0,4891.89,0.20955,0.209294,4.02044,4,0.0167431,11,0.000841456,-2.39573,-0.233296,-0.252898,-39.7472,0.209294,
2,1,0,1,0,4891.99,0.217039,0.21675,3.80737,4,0.0171089,11,0.000825248,-2.41938,-0.327817,-0.179979,-26.7506,0.21675,
2,1,0,1,0,4892.08,0.224526,0.224277,3.65167,4,0.0174576,11,0.000818987,-2.43751,-0.541083,-0.10904,-15.543,0.224277,
2,1,0,1,0,4892.17,0.232016,0.231746,3.53272,4,0.0177938,11,0.000818696,-2.45189,-0.682712,-0.08642,-11.9294,0.231746,
2,1,0,1,0,4892.27,0.23951,0.239201,3.45356,4,0.0181211,11,0.000826095,-2.46173,-0.754368,-0.0782111,-10.5278,0.239201,
2,1,0,1,0,4892.36,0.247006,0.246714,3.38818,4,0.0184412,11,0.000835912,-2.47003,-1.20223,-0.0490753,-6.46623,0.246714,
2,1,0,1,0,4892.46,0.254494,0.254238,3.31518,4,0.018755,11,0.000842847,-2.47949,-1.12369,-0.0525057,-6.8103,0.254238,
2,1,0,1,0,4892.55,0.261983,0.261749,3.27129,4,0.0190638,11,0.000856257,-2.48528,-0.777553,-0.0758791,-9.69296,0.261749,
2,1,0,1,0,4892.64,0.26947,0.269157,3.22774,4,0.019368,11,0.000868766,-2.4911,-2.56633,-0.02299,-2.89496,0.269157,
2,1,0,1,0,4892.74,0.276959,0.276704,3.18536,4,0.0196684,11,0.000881401,-2.49684,-2.78556,-0.0211807,-2.63367,0.276704,
2,1,0,1,0,4892.83,0.284461,0.284194,3.15037,4,0.0199655,11,0.000895314,-2.50164,-1.24858,-0.0472535,-5.79813,0.284194,
2,1,0,1,0,4892.92,0.29195,0.291703,3.11464,4,0.0202584,11,0.000908548,-2.50659,-1.06765,-0.0552614,-6.69971,0.291703,
2,1,0,1,0,4893.02,0.299438,0.29919,3.0667,4,0.0205478,11,0.000917527,-2.51333,-0.0196592,-3.00115,-315.677,0.29919,
2,0,0,1,0,4893.1,0.29424,0.293959,-1.14077,4,0.0205537,11,-0.000335339,-2.9428,-0.0302325,-1.95154,81.4562,0.2939592,
2,0,0,1,0,4893.19,0.286753,0.286477,-1.44877,4,0.0204308,11,-0.000415039,-2.839,-0.0956208,-0.61702,34.8569,0.286477,
2,0,0,1,0,4893.28,0.279264,0.278935,-1.6521,4,0.0202847,11,-0.000460829,-2.78196,-0.168606,-0.349928,22.6272,0.278935,
2,0,0,1,0,4893.38,0.271776,0.271488,-1.81392,4,0.0201219,11,-0.000492459,-2.74138,-0.205792,-0.286697,20.2909,0.271488,
2,0,0,1,0,4893.47,0.26428,0.263959,-1.95162,4,0.0199455,11,-0.000515149,-2.7096,-0.215063,-0.274339,20.799,0.263959,
2,0,0,1,0,4893.57,0.256786,0.256499,-2.06021,4,0.0197575,11,-0.000528442,-2.68609,-0.350002,-0.168571,13.5404,0.256499,
2,0,0,1,0,4893.66,0.249296,0.24899,-2.17558,4,0.0195592,11,-0.000541699,-2.66242,-0.468703,-0.125879,10.6325,0.24899,
2,0,0,1,0,4893.75,0.241809,0.241486,-2.26664,4,0.0193512,11,-0.000547362,-2.64462,-0.328379,-0.179671,15.9268,0.241486,
2,0,0,1,0,4893.85,0.23432,0.234031,-2.36749,4,0.0191336,11,-0.000554066,-2.62571,-0.420566,-0.140287,13.02,0.234031,
2,0,0,1,0,4893.94,0.226833,0.226509,-2.4835,4,0.0189062,11,-0.000562537,-2.60494,-0.370648,-0.159181,15.3985,0.226509,
2,0,0,1,0,4894.03,0.219329,0.219053,-2.60622,4,0.0186681,11,-0.000570901,-2.58399,-0.318434,-0.185281,18.7675,0.2190534,
2,0,0,1,0,4894.13,0.21184,0.211562,-2.72047,4,0.0184191,11,-0.000575549,-2.56536,-0.363545,-0.162291,17.2333,0.211562,
2,0,0,1,0,4894.22,0.204353,0.20405,-2.87964,4,0.0181569,11,-0.000587592,-2.54066,-0.435387,-0.135512,15.2413,0.20405,
2,0,0,1,0,4894.31,0.196863,0.196553,-3.05989,4,0.0178795,11,-0.00060143,-2.51429,-0.245345,-0.240478,28.7269,0.196553,
2,0,0,1,0,4894.41,0.189376,0.189075,-3.29445,4,0.017582,11,-0.000622899,-2.48222,-0.202929,-0.290743,37.5361,0.189075,
2,0,0,1,0,4894.5,0.18188,0.181619,-3.62763,4,0.0172581,11,-0.000658848,-2.44038,-0.16778,-0.351652,49.7998,0.181619,
2,0,0,1,0,4894.6,0.174385,0.174091,-4.09167,4,0.016898,11,-0.000712323,-2.3881,-0.124824,-0.472666,75.4332,0.174091,
2,0,0,1,0,4894.69,0.166896,0.166547,-4.75038,4,0.0164864,11,-0.000791163,-2.32327,-0.100727,-0.58574,108.595,0.166547,
2,0,0,1,0,4894.78,0.159409,0.159114,-5.72279,4,0.0159991,11,-0.000910577,-2.24239,-0.0894958,-0.659249,147.333,0.159114,
2,0,0,1,0,4894.88,0.151919,0.151638,-7.06044,4,0.0154036,11,-0.00107063,-2.15117,-0.0830633,-0.710302,195.604,0.151638,
2,0,0,1,0,4894.97,0.144425,0.144124,-8.6614,4,0.0146684,11,-0.00124832,-2.06241,-0.0888925,-0.663723,224.454,0.144124,
2,0,0,1,0,4895.06,0.136929,0.136624,-10.2366,4,0.0137805,11,-0.00139856,-1.98985,-0.121526,-0.485493,193.74,0.136624,
2,0,0,1,0,4895.16,0.129441,0.129146,-11.4915,4,0.0127599,11,-0.00148409,-1.93962,-0.201202,-0.293238,131.149,0.129146,
2,0,0,1,0,4895.25,0.121952,0.121677,-12.136,4,0.0116492,11,-0.00147667,-1.91593,-0.680425,-0.0867105,40.9662,0.121677,
2,0,0,1,0,4895.34,0.114465,0.114118,-12.0791,4,0.0105101,11,-0.00137844,-1.91797,0.449724,0.131192,-61.7174,0.114118,
2,0,0,1,0,4895.44,0.106976,0.106666,-11.2932,4,0.0094111,11,-0.0012046,-1.94718,0.173543,0.339973,-149.604,0.106666,
2,0,0,1,0,4895.53,0.0994721,0.0992137,-10.0704,4,0.0084079,11,-0.000999118,-1.99695,0.142584,0.413792,-162.727,0.0992137,
2,0,0,1,0,4895.63,0.0919847,0.09168,-8.96908,4,0.00751918,11,-0.000822285,-2.04725,0.171799,0.343424,-120.51,0.09168,
2,0,0,1,0,4895.72,0.0844973,0.0842254,-8.26022,4,0.00671509,11,-0.00069572,-2.08301,0.24784,0.238057,-76.7554,0.0842254,
2,0,0,1,0,4895.81,0.0770082,0.0767254,-7.79264,4,0.00596526,11,-0.000597894,-2.10832,0.336513,0.175327,-53.3026,0.0767254,
2,0,0,1,0,4895.91,0.0695208,0.0692282,-7.39169,4,0.00525441,11,-0.000511713,-2.13126,0.319345,0.184753,-53.3487,0.0692282,
2,0,0,1,0,4896,0.0620245,0.061718,-6.98435,4,0.00457995,11,-0.00043106,-2.15587,0.253388,0.232844,-63.4428,0.061718,
2,0,0,1,0,4896.09,0.0545282,0.0542255,-6.50688,4,0.00394763,11,-0.000352839,-2.18663,0.2452,0.24062,-61.1183,0.0542255,
2,0,0,1,0,4896.19,0.0470408,0.0467195,-6.01335,4,0.00336169,11,-0.000280941,-2.22088,0.240148,0.245681,-57.7271,0.0467195,
2,0,0,1,0,4896.28,0.0395517,0.0392584,-5.62401,4,0.00281797,11,-0.00022079,-2.24995,0.272428,0.216571,-47.506,0.0392584,
2,0,0,1,0,4896.37,0.0320643,0.0317833,-5.3526,4,0.00230572,11,-0.000170123,-2.27144,0.422628,0.139603,-29.153,0.03178329,
2,0,0,1,0,4896.47,0.0245751,0.0243038,-5.18715,4,0.00181323,11,-0.000126068,-2.28507,0.885814,0.0666054,-13.5116,0.0243038,
2,0,0,1,0,4896.56,0.0170735,0.0167694,-5.1243,4,0.00132972,11,-8.59315e-05,-2.29037,2.24545,0.0262753,-5.26331,0.0167694,
2,0,0,1,0,4896.66,0.00958429,0.0092347,-5.14014,4,0.000849595,11,-4.74676e-05,-2.28903,-1.90367,-0.0309927,6.21141,0.0092347,
2,0,0,1,0,4896.75,0.0020969,0.00175997,-5.25328,4,0.000366755,11,-9.24559e-06,-2.27957,-0.551395,-0.107001,21.7115,0.00175997,
2,0,0,1,0,4896.77,0.000199195,-0.000182169,-5.24265,4,0.00024236,11,9.55047e-07,-2.28045, , , ,-0.000182169,