File: Figure_codes/Fig_3-5/rawdata_trumpetplot_data/before 10th/20221101_1-115_002_TrumpetPlot_ParaChange_12_CV_C01.mpt
EC-Lab ASCII FILE
Nb header lines : 68

Cyclic Voltammetry

Run on channel : 1 (SN 65296)
User :
CE vs. WE compliance from -10 V to 10 V
Electrode connection : standard
Potential control : Ewe
Ewe ctrl range : min = -1.00 V, max = 1.00 V
Safety Limits :
	Do not start on E overload
Acquisition started on : 11/08/2022 17:30:03.488
Loaded Setting File :  NONE
Saved on :
	File : 20221101_1-115_002_TrumpetPlot_ParaChange_12_CV_C01.mpr
	Directory : C:\Users\NakamuraT\Documents\EC-Lab\Data\Yatsuzuka\20221108_1-115_001_TrumpetPlot\
	Host : 192.109.209.100
Device : SP-50e (SN .003219)
Address : 192.109.209.128
EC-Lab for windows v11.43 (software)
Internet server v11.40 (firmware)
Command interpretor v11.40 (firmware)
Electrode material : Au/Pd
Initial state :
Electrolyte : NaCl (0.2M)
Comments : Fe(CN)63-/Fe(CN)64- 5.10-3 M
Reference electrode : SCE Saturated Calomel Electrode (0.241 V)
Electrode surface area : 0.001 cm2
Characteristic mass : 0.001 g
Equivalent Weight : 0.000 g/eq.
Density : 0.000 g/cm3
Volume (V) : 0.001 cm3
Cycle Definition : Charge/Discharge alternance
Ei (V)              0.000
vs.                 Ref
dE/dt               200.000
dE/dt unit          mV/s
E1 (V)              0.300
vs.                 Ref
Step percent        50
N                   10
E range min (V)     -1.000
E range max (V)     1.000
I Range             100 mA
I Range min         Unset
I Range max         Unset
I Range init        Unset
Bandwidth           5
E2 (V)              -0.100
vs.                 Ref
nc cycles           0
Reverse Scan        1
Ef (V)              0.000
vs.                 Ref

Number of loops : 8
Loop 0 from point number 0 to 1609
Loop 1 from point number 1610 to 3219
Loop 2 from point number 3220 to 4829
Loop 3 from point number 4830 to 6439
Loop 4 from point number 6440 to 8049
Loop 5 from point number 8050 to 9659
Loop 6 from point number 9660 to 11269
Loop 7 from point number 11270 to 12879

mode	ox/red	error	control changes	counter inc.	time/s	control/V	Ewe/V	<I>/mA	cycle number	(Q-Qo)/C	I Range	P/W
2	1	0	1	0	1210.09	2.44065e-05	-0.000287149	6.98028	1	0.0000000E+000	10	-2.00438e-06
2	1	0	1	0	1210.33	0.0472514	0.0469132	10.6275	1	0.00241452	10	0.000498569
2	1	0	1	0	1210.56	0.0946941	0.0944024	13.993	1	0.00522293	10	0.00132097
2	1	0	1	0	1210.8	0.142137	0.141874	24.2508	1	0.00951561	10	0.00344056
2	1	0	1	0	1211.04	0.18957	0.189315	22.9865	1	0.0163885	10	0.00435169
2	1	0	1	0	1211.28	0.237013	0.236735	8.73343	1	0.0192237	10	0.00206751
2	1	0	1	0	1211.51	0.284456	0.284186	7.77355	1	0.0211651	10	0.00220913
2	0	0	1	0	1211.74	0.269265	0.269024	-4.48624	1	0.0213181	10	-0.00120691
2	0	0	1	0	1211.98	0.221822	0.221547	-6.22898	1	0.0200508	10	-0.00138001
2	0	0	1	0	1212.22	0.174389	0.1741	-10.5409	1	0.0181869	10	-0.00183516
2	0	0	1	0	1212.46	0.126946	0.126672	-27.3946	1	0.0138977	10	-0.00347013
2	0	0	1	0	1212.69	0.0795034	0.0791733	-19.3035	1	0.00745951	10	-0.00152832
2	0	0	1	0	1212.93	0.0320607	0.0317891	-11.942	1	0.0040014	10	-0.000379626
2	0	0	1	0	1213.17	-0.0153729	-0.0157635	-12.5107	1	0.00116101	10	0.000197213
2	0	0	1	0	1213.41	-0.0628156	-0.0631469	-14.5836	1	-0.00203677	10	0.000920912
2	1	0	1	1	1213.64	-0.0911859	-0.0915124	1.22023	1	-0.00527783	10	-0.000111666
2	1	0	1	1	1213.87	-0.0437477	-0.044116	11.67	1	-0.00297802	10	-0.000514836
2	1	0	1	0	2441.73	0.00229666	0.00197557	8.10412	2	8.46284e-05	10	1.60102e-05
2	1	0	1	0	2441.97	0.0497393	0.0494405	10.9365	2	0.00257077	10	0.000540705
2	1	0	1	0	2442.21	0.0971729	0.0968291	15.2924	2	0.00557785	10	0.00148075
2	1	0	1	0	2442.44	0.144616	0.144294	25.8872	2	0.0102264	10	0.00373537
2	1	0	1	0	2442.68	0.192058	0.191782	18.1721	2	0.0168917	10	0.00348509
2	1	0	1	0	2442.92	0.23951	0.239208	8.58104	2	0.0193826	10	0.00205265
2	1	0	1	0	2443.15	0.286953	0.286664	7.7375	2	0.0213088	10	0.00221807
2	0	0	1	0	2443.39	0.266786	0.266524	-4.56643	2	0.0212959	10	-0.00121706
2	0	0	1	0	2443.62	0.219344	0.219016	-6.29745	2	0.0200102	10	-0.00137924
2	0	0	1	0	2443.86	0.171901	0.171611	-10.7501	2	0.0181265	10	-0.00184484
2	0	0	1	0	2444.1	0.124449	0.12423	-27.919	2	0.013704	10	-0.00346836
2	0	0	1	0	2444.33	0.0770064	0.0767119	-19.3033	2	0.00736007	10	-0.00148079
2	0	0	1	0	2444.57	0.0295637	0.0292354	-12.0842	2	0.00381649	10	-0.000353286
2	0	0	1	0	2444.81	-0.017879	-0.0182459	-12.625	2	0.000950355	10	0.000230354
2	0	0	1	0	2445.05	-0.0653308	-0.0656838	-14.6869	2	-0.0022756	10	0.000964689
2	1	0	1	1	2445.28	-0.0887025	-0.0891152	4.2335	2	-0.00526616	10	-0.000377269
2	1	0	1	1	2445.51	-0.0412598	-0.041567	11.7294	2	-0.00279753	10	-0.000487554
2	1	0	1	0	3673.37	0.00479364	0.00450615	8.73685	3	0.000189702	10	3.93696e-05
2	1	0	1	0	3673.61	0.0522363	0.0519151	10.9472	3	0.0026352	10	0.000568323
2	1	0	1	0	3673.85	0.099679	0.0993471	15.6538	3	0.00571196	10	0.00155515
2	1	0	1	0	3674.08	0.147131	0.146817	25.1138	3	0.0103559	10	0.00368714
2	1	0	1	0	3674.32	0.194573	0.194271	17.5004	3	0.016649	10	0.00339982
2	1	0	1	0	3674.56	0.242016	0.241724	8.66771	3	0.0191997	10	0.0020952
2	1	0	1	0	3674.8	0.28945	0.289192	7.72611	3	0.021128	10	0.00223433
2	0	0	1	0	3675.03	0.26428	0.263969	-4.47576	3	0.0210386	10	-0.00118146
2	0	0	1	0	3675.26	0.216828	0.216507	-6.13683	3	0.0197828	10	-0.00132867
2	0	0	1	0	3675.5	0.169386	0.16908	-10.2619	3	0.0179622	10	-0.00173509
2	0	0	1	0	3675.74	0.121943	0.121667	-25.8144	3	0.01382	10	-0.00314076
2	0	0	1	0	3675.98	0.0745049	0.0741924	-20.3057	3	0.0077106	10	-0.00150653
2	0	0	1	0	3676.21	0.0270667	0.0267474	-12.6386	3	0.00390357	10	-0.000338049
2	0	0	1	0	3676.45	-0.020376	-0.0206802	-12.5022	3	0.0010108	10	0.000258548
2	0	0	1	0	3676.69	-0.0678187	-0.0681808	-14.472	3	-0.00216945	10	0.000986715
2	1	0	1	1	3676.92	-0.0861874	-0.0865853	4.37443	3	-0.00491341	10	-0.000378761
2	1	0	1	1	3677.15	-0.0387447	-0.0390908	11.2415	3	-0.00259997	10	-0.000439438
2	1	0	1	0	4905.01	0.00729063	0.00697037	9.18246	4	0.000302043	10	6.40052e-05
2	1	0	1	0	4905.25	0.0547333	0.0544301	11.2646	4	0.00277229	10	0.000613136
2	1	0	1	0	4905.49	0.102176	0.101923	16.2547	4	0.00598404	10	0.00165673
2	1	0	1	0	4905.72	0.149619	0.149295	25.4977	4	0.010775	10	0.00380668
2	1	0	1	0	4905.96	0.197052	0.196814	15.0561	4	0.0166598	10	0.00296324
2	1	0	1	0	4906.2	0.244495	0.244234	8.84946	4	0.0191526	10	0.00216134
2	1	0	1	0	4906.44	0.291938	0.291659	7.78477	4	0.0211078	10	0.0022705
2	0	0	1	0	4906.67	0.261783	0.261469	-4.47406	4	0.0208976	10	-0.00116983
2	0	0	1	0	4906.9	0.214341	0.214059	-6.12434	4	0.0196409	10	-0.00131097
2	0	0	1	0	4907.14	0.166907	0.166597	-10.1716	4	0.0178309	10	-0.00169455
2	0	0	1	0	4907.38	0.119464	0.119193	-25.1419	4	0.0137474	10	-0.00299672
2	0	0	1	0	4907.62	0.0720215	0.0717345	-20.3339	4	0.00780321	10	-0.00145864
2	0	0	1	0	4907.85	0.0245788	0.0242843	-13.0981	4	0.00389826	10	-0.000318078
2	0	0	1	0	4908.09	-0.0228729	-0.0232118	-12.6106	4	0.00095027	10	0.000292714
2	0	0	1	0	4908.33	-0.0703157	-0.0706979	-14.5724	4	-0.00225068	10	0.00103024
2	1	0	1	1	4908.56	-0.0837086	-0.0841022	5.34316	4	-0.00476381	10	-0.000449371
2	1	0	1	1	4908.79	-0.0362659	-0.0366286	11.0971	4	-0.00243577	10	-0.00040647
2	1	0	1	0	6136.65	0.00977853	0.00947254	9.44023	5	0.000418108	10	8.9423e-05
2	1	0	1	0	6136.89	0.0572303	0.0569183	11.6343	5	0.0029233	10	0.000662207
2	1	0	1	0	6137.13	0.104673	0.104367	16.7773	5	0.00626254	10	0.00175099
2	1	0	1	0	6137.37	0.152116	0.151822	25.6596	5	0.0111698	10	0.0038957
2	1	0	1	0	6137.6	0.199558	0.199274	13.9599	5	0.016776	10	0.00278183
2	1	0	1	0	6137.84	0.24701	0.246724	8.73739	5	0.0192183	10	0.00215573
2	1	0	1	0	6138.08	0.294453	0.29418	7.72585	5	0.0211553	10	0.00227279
2	0	0	1	0	6138.31	0.259286	0.259052	-4.56517	5	0.020806	10	-0.00118262
2	0	0	1	0	6138.55	0.211844	0.211516	-6.18133	5	0.0195312	10	-0.00130745
2	0	0	1	0	6138.78	0.164401	0.164085	-10.1843	5	0.0177147	10	-0.0016711
2	0	0	1	0	6139.02	0.116949	0.116667	-24.6351	5	0.0136575	10	-0.00287411
2	0	0	1	0	6139.26	0.0695064	0.0691985	-20.4859	5	0.00783144	10	-0.0014176
2	0	0	1	0	6139.49	0.0220637	0.0217492	-13.4198	5	0.00383522	10	-0.00029187
2	0	0	1	0	6139.73	-0.025379	-0.0257583	-12.6795	5	0.000855322	10	0.000326602
2	0	0	1	0	6139.97	-0.0728126	-0.0731053	-14.6465	5	-0.00235895	10	0.00107074
2	1	0	1	1	6140.2	-0.0812025	-0.0815872	5.8581	5	-0.00465692	10	-0.000477947
2	1	0	1	1	6140.44	-0.0337507	-0.0340882	11.08	5	-0.00232742	10	-0.000377697
2	1	0	1	0	7368.29	0.0122937	0.0120276	9.71533	6	0.000534312	10	0.000116853
2	1	0	1	0	7368.53	0.0597364	0.0593937	12.1582	6	0.00310016	10	0.00072212
2	1	0	1	0	7368.77	0.10717	0.106878	17.4352	6	0.00659575	10	0.00186343
2	1	0	1	0	7369.01	0.154613	0.154323	26.2273	6	0.0117027	10	0.00404746
2	1	0	1	0	7369.24	0.202055	0.20177	11.8787	6	0.0169138	10	0.00239677
2	1	0	1	0	7369.48	0.249498	0.249168	8.38997	6	0.0191582	10	0.00209052
2	1	0	1	0	7369.72	0.296932	0.296627	7.59171	6	0.0210443	10	0.00225191
2	0	0	1	0	7369.95	0.256785	0.256458	-4.72709	6	0.0205097	10	-0.0012123
2	0	0	1	0	7370.19	0.209347	0.209054	-6.23044	6	0.0192117	10	-0.0013025
2	0	0	1	0	7370.42	0.161904	0.161564	-10.3228	6	0.0173776	10	-0.00166779
2	0	0	1	0	7370.66	0.114461	0.114187	-24.7505	6	0.0132618	10	-0.0028262
2	0	0	1	0	7370.9	0.0670275	0.0667388	-20.2149	6	0.00749828	10	-0.00134912
2	0	0	1	0	7371.14	0.0195849	0.0192817	-13.2553	6	0.00354395	10	-0.000255585
2	0	0	1	0	7371.37	-0.0278578	-0.0281841	-12.6307	6	0.000587801	10	0.000355985
2	0	0	1	0	7371.61	-0.0753005	-0.0756691	-14.812	6	-0.0026378	10	0.00112081
2	1	0	1	1	7371.84	-0.0787055	-0.0790614	7.06749	6	-0.0046628	10	-0.000558765
2	1	0	1	1	7372.08	-0.0312628	-0.0316051	11.253	6	-0.00221406	10	-0.000355652
2	1	0	1	0	8599.94	0.0147725	0.0144587	9.61883	7	0.000639232	10	0.000139075
2	1	0	1	0	8600.17	0.0622152	0.0618967	12.3548	7	0.00320001	10	0.00076472
2	1	0	1	0	8600.41	0.109658	0.10932	17.4539	7	0.00673123	10	0.00190806
2	1	0	1	0	8600.65	0.157091	0.156775	25.5197	7	0.0118089	10	0.00400084
2	1	0	1	0	8600.88	0.204552	0.204229	11.3845	7	0.0166388	10	0.00232505
2	1	0	1	0	8601.12	0.251995	0.2517	8.37947	7	0.0188693	10	0.00210912
2	1	0	1	0	8601.36	0.299438	0.299186	7.59921	7	0.0207535	10	0.00227358
2	0	0	1	0	8601.59	0.254301	0.253978	-4.57742	7	0.0201355	10	-0.00116257
2	0	0	1	0	8601.83	0.206863	0.206524	-6.1273	7	0.0188691	10	-0.00126543
2	0	0	1	0	8602.06	0.159407	0.159114	-10.0972	7	0.0170753	10	-0.0016066
2	0	0	1	0	8602.3	0.111964	0.111699	-23.6315	7	0.0130907	10	-0.00263961
2	0	0	1	0	8602.54	0.0645215	0.0642089	-19.8991	7	0.00756361	10	-0.0012777
2	0	0	1	0	8602.78	0.0170697	0.016757	-13.4565	7	0.00359851	10	-0.00022549
2	0	0	1	0	8603.01	-0.030373	-0.0307254	-12.5971	7	0.000623398	10	0.000387049
2	0	0	1	0	8603.25	-0.0778157	-0.0781634	-14.7084	7	-0.00258373	10	0.00114966
2	1	0	1	1	8603.48	-0.0762085	-0.0765935	7.00347	7	-0.0043681	10	-0.00053642
2	1	0	1	1	8603.72	-0.0287658	-0.0291217	10.8638	7	-0.00201205	10	-0.000316372
2	1	0	1	0	9831.58	0.0172786	0.0169948	10.0157	8	0.00077142	10	0.000170215
2	1	0	1	0	9831.81	0.0647303	0.0643763	13.0339	8	0.0034486	10	0.000839073
2	1	0	1	0	9832.05	0.112173	0.111836	18.1923	8	0.00714659	10	0.00203456
2	1	0	1	0	9832.29	0.159616	0.159328	25.8995	8	0.0124215	10	0.00412651
2	1	0	1	0	9832.52	0.207058	0.20678	10.6089	8	0.0169318	10	0.00219371
2	1	0	1	0	9832.76	0.254492	0.254153	8.18848	8	0.0190733	10	0.00208112
2	1	0	1	0	9832.99	0.299229	0.299014	5.36781	8	0.0208821	10	0.00160505
2	0	0	1	0	9833.23	0.251786	0.251421	-4.84598	8	0.0201023	10	-0.00121838
2	0	0	1	0	9833.47	0.204343	0.204048	-6.33363	8	0.0187824	10	-0.00129236
2	0	0	1	0	9833.71	0.156901	0.156618	-10.4585	8	0.0169322	10	-0.001638
2	0	0	1	0	9833.94	0.109467	0.109163	-24.0574	8	0.0128185	10	-0.00262618
2	0	0	1	0	9834.18	0.0620245	0.0617006	-19.8798	8	0.0072729	10	-0.0012266
2	0	0	1	0	9834.42	0.0145818	0.0142045	-13.4366	8	0.00331235	10	-0.000190859
2	0	0	1	0	9834.65	-0.0328518	-0.0332327	-12.6991	8	0.000332808	10	0.000422024
2	0	0	1	0	9834.89	-0.0802945	-0.0806387	-15.0043	8	-0.00292106	10	0.00120992
2	1	0	1	1	9835.12	-0.0737025	-0.0740701	8.09599	8	-0.00441692	10	-0.000599671
2	1	0	1	1	9835.36	-0.0262688	-0.0266268	11.1991	8	-0.00192051	10	-0.000298196
2	1	0	0	1	9835.49	-2.44065e-05	-0.000344411	10.8664	8	-0.00046508	10	-3.74252e-06