File: Figure_codes/Fig_3-5/rawdata_trumpetplot_data/before 10th/20221101_1-115_002_TrumpetPlot_ParaChange_12_CV_C01_6.csv
mode,ox/red,error,control changes,counter inc.,time/s,control/V,Ewe/V,<I>/mA,cycle number,(Q-Qo)/C,I Range,P/W,log(|I|),Tafel slope mV/dec,alpha_eff,dI/d(E-IR),E-IR/V,
2,1,0,0,0,8599.86,2.44065e-05,-0.000401673,7.97757,7,0.0000000E+000,10,-3.20437e-06,-2.09813, , , ,-0.000401673,
2,1,0,1,0,8599.91,0.00977853,0.00945779,9.13958,7,0.00040428,10,8.64402e-05,-2.03907,0.163987,0.359784,127.848,0.009457794,
2,1,0,1,0,8599.96,0.0197755,0.0194439,9.91228,7,0.000883808,10,0.000192734,-2.00383,0.49884,0.118274,45.7427,0.0194439,
2,1,0,1,0,8600.01,0.0297726,0.0294544,10.3114,7,0.00139001,10,0.000303716,-1.98668,0.700363,0.084242,33.8906,0.0294544,
2,1,0,1,0,8600.06,0.0397514,0.0394344,10.7222,7,0.00191445,10,0.000422823,-1.96972,0.472629,0.124834,52.2562,0.0394344,
2,1,0,1,0,8600.11,0.0497393,0.0494449,11.3177,7,0.00246345,10,0.0005596,-1.94624,0.386289,0.152735,67.4361,0.0494449,
2,1,0,1,0,8600.16,0.0597364,0.0593946,12.1241,7,0.00304827,10,0.000720108,-1.91635,0.300199,0.196536,92.9065,0.0593946,
2,1,0,1,0,8600.21,0.0697152,0.0693983,13.1029,7,0.0036773,10,0.000909318,-1.88263,0.300073,0.196619,100.608,0.0693983,
2,1,0,1,0,8600.26,0.0796941,0.0793772,14.2173,7,0.0043585,10,0.00112853,-1.84718,0.290176,0.203325,112.75,0.0793772,
2,1,0,1,0,8600.31,0.0896911,0.0893608,15.3025,7,0.00509694,10,0.00136744,-1.81524,0.323165,0.182569,109.126,0.0893608,
2,1,0,1,0,8600.36,0.099679,0.0994035,16.3843,7,0.00588769,10,0.00162865,-1.78557,0.356536,0.165481,105.642,0.0994035,
2,1,0,1,0,8600.41,0.109658,0.10932,17.4539,7,0.00673123,10,0.00190806,-1.75811,0.348726,0.169187,115.35,0.10932,
2,1,0,1,0,8600.46,0.119655,0.11934,18.8316,7,0.00763676,10,0.00224736,-1.72511,0.289748,0.203625,149.58,0.11934,
2,1,0,1,0,8600.51,0.129652,0.12933,20.5891,7,0.00862092,10,0.0026628,-1.68636,0.241419,0.244388,196.508,0.12933,
2,1,0,1,0,8600.56,0.139631,0.139333,22.588,7,0.00969869,10,0.00314726,-1.64612,0.263972,0.223509,196.949,0.139333,
2,1,0,1,0,8600.61,0.149619,0.149299,24.4407,7,0.0108732,10,0.00364898,-1.61189,0.330258,0.178648,170.316,0.149299,
2,1,0,1,0,8600.66,0.159616,0.159287,25.7926,7,0.0121324,10,0.00410844,-1.5885,0.724513,0.081434,81.8708,0.159287,
2,1,0,1,0,8600.71,0.169595,0.169307,25.6881,7,0.0134261,10,0.00434917,-1.59027,-0.409898,-0.143938,-143.954,0.169307,
2,1,0,1,0,8600.76,0.179573,0.179231,22.4153,7,0.0146414,10,0.00401752,-1.64945,-0.10029,-0.588294,-512.918,0.179231,
2,1,0,1,0,8600.81,0.18957,0.189264,16.7248,7,0.0156213,10,0.00316539,-1.77664,-0.0711245,-0.829531,-542.432,0.189264,
2,1,0,1,0,8600.86,0.199558,0.199241,12.5681,7,0.0163406,10,0.00250407,-1.90073,-0.103958,-0.567538,-278.72,0.199241,
2,1,0,1,0,8600.91,0.209537,0.209242,10.648,7,0.0169125,10,0.002228,-1.97273,-0.188078,-0.313699,-130.541,0.209242,
2,1,0,1,0,8600.96,0.219534,0.219215,9.71578,7,0.0174191,10,0.00212985,-2.01252,-0.326932,-0.180466,-68.4309,0.219215,
2,1,0,1,0,8601.01,0.229531,0.229271,9.12859,7,0.0178898,10,0.00209292,-2.0396,-0.429772,-0.137282,-48.9987,0.2292708,
2,1,0,1,0,8601.06,0.23951,0.239244,8.7485,7,0.0183356,10,0.00209303,-2.05807,-0.679569,-0.0868198,-29.6245,0.239244,
2,1,0,1,0,8601.11,0.249498,0.249181,8.4411,7,0.0187641,10,0.00210336,-2.0736,-0.724657,-0.0814179,-26.8459,0.249181,
2,1,0,1,0,8601.16,0.259495,0.25923,8.22398,7,0.0191803,10,0.0021319,-2.08492,-0.774698,-0.0761587,-24.3975,0.25923,
2,1,0,1,0,8601.21,0.269474,0.269212,8.01978,7,0.0195853,10,0.00215902,-2.09584,-1.2894,-0.0457578,-14.3446,0.269212,
2,1,0,1,0,8601.26,0.279453,0.279142,7.87329,7,0.0199817,10,0.00219776,-2.10384,-1.23883,-0.0476257,-14.6151,0.279142,
2,1,0,1,0,8601.31,0.28945,0.289151,7.71333,7,0.0203713,10,0.00223032,-2.11276,-1.64785,-0.0358041,-10.7954,0.289151,
2,1,0,1,0,8601.36,0.299438,0.299186,7.59921,7,0.0207535,10,0.00227358,-2.11923,-0.048986,-1.20443,-338.661,0.299186,
2,0,0,1,0,8601.4,0.291747,0.291456,-1.78786,7,0.0208257,10,-0.000521081,-2.74767,-0.0105679,-5.58292,336.285,0.291456,
2,0,0,1,0,8601.45,0.28175,0.281459,-3.31011,7,0.0206886,10,-0.000931661,-2.48016,-0.0997693,-0.591364,76.1489,0.281459,
2,0,0,1,0,8601.5,0.27178,0.271441,-3.90151,7,0.0205079,10,-0.00105903,-2.40877,-0.183833,-0.320944,48.6553,0.271441,
2,0,0,1,0,8601.55,0.261783,0.261463,-4.31303,7,0.0203022,10,-0.0011277,-2.36522,-0.28043,-0.210391,35.437,0.261463,
2,0,0,1,0,8601.6,0.251786,0.251521,-4.66901,7,0.0200773,10,-0.00117435,-2.33078,-0.314735,-0.187459,34.1195,0.251521,
2,0,0,1,0,8601.65,0.241807,0.241508,-4.97882,7,0.019836,10,-0.00120242,-2.30287,-0.359094,-0.164302,32.0605,0.241508,
2,0,0,1,0,8601.7,0.231824,0.231527,-5.30432,7,0.0195793,10,-0.0012281,-2.27537,-0.368121,-0.160273,33.1117,0.231527,
2,0,0,1,0,8601.75,0.221822,0.221515,-5.6009,7,0.0193068,10,-0.00124068,-2.25174,-0.411678,-0.143316,31.3348,0.2215153,
2,0,0,1,0,8601.8,0.211843,0.211549,-5.9364,7,0.019019,10,-0.00125584,-2.22648,-0.434294,-0.135853,31.425,0.211549,
2,0,0,1,0,8601.85,0.201865,0.201555,-6.29982,7,0.0187137,10,-0.00126976,-2.20067,-0.39883,-0.147933,36.4717,0.201555,
2,0,0,1,0,8601.9,0.191868,0.191546,-6.77649,7,0.0183871,10,-0.00129801,-2.169,-0.294712,-0.200196,52.9226,0.191546,
2,0,0,1,0,8601.95,0.18188,0.181526,-7.39794,7,0.0180345,10,-0.00134292,-2.13089,-0.21977,-0.268463,77.5155,0.181526,
2,0,0,1,0,8602,0.171901,0.171595,-8.2939,7,0.0176446,10,-0.00142319,-2.08124,-0.174414,-0.338275,109.39,0.171595,
2,0,0,1,0,8602.05,0.161904,0.161605,-9.64229,7,0.0171986,10,-0.00155824,-2.01582,-0.133611,-0.44158,166.416,0.161605,
2,0,0,1,0,8602.1,0.151907,0.151592,-11.7074,7,0.0166679,10,-0.00177475,-1.93154,-0.108146,-0.54556,249.612,0.151592,
2,0,0,1,0,8602.15,0.141928,0.141647,-14.6361,7,0.0160132,10,-0.00207315,-1.83458,-0.102415,-0.576085,329.208,0.141647,
2,0,0,1,0,8602.2,0.13194,0.131708,-18.0177,7,0.0151985,10,-0.00237308,-1.7443,-0.118113,-0.499521,350.874,0.131708,
2,0,0,1,0,8602.25,0.121943,0.121673,-21.2337,7,0.014214,10,-0.00258357,-1.67297,-0.176767,-0.333772,276.324,0.121673,
2,0,0,1,0,8602.3,0.111964,0.111699,-23.6315,7,0.0130907,10,-0.00263961,-1.62651,-0.291702,-0.202261,186.218,0.111699,
2,0,0,1,0,8602.35,0.101985,0.101629,-24.8519,7,0.0118754,10,-0.00252567,-1.60464,-1.14568,-0.0514977,49.8789,0.101629,
2,0,0,1,0,8602.4,0.0919883,0.0916721,-24.6609,7,0.0106317,10,-0.00226072,-1.60799,0.643421,0.0916973,-88.1316,0.0916721,
2,0,0,1,0,8602.45,0.0820004,0.0816945,-23.1231,7,0.00943509,10,-0.00188903,-1.63595,0.272836,0.216247,-195.113,0.0816945,
2,0,0,1,0,8602.5,0.0720215,0.0716668,-21.1446,7,0.00833167,10,-0.00151537,-1.6748,0.260947,0.226099,-186.537,0.0716668,
2,0,0,1,0,8602.55,0.0620245,0.0617449,-19.5168,7,0.00731726,10,-0.00120507,-1.70959,0.314287,0.187727,-143.142,0.0617449,
2,0,0,1,0,8602.6,0.0520275,0.0517154,-18.2723,7,0.00637332,10,-0.000944958,-1.73821,0.342639,0.172193,-122.649,0.0517154,
2,0,0,1,0,8602.65,0.0420486,0.041724,-16.9916,7,0.005493,10,-0.000708957,-1.76977,0.293207,0.201223,-133.504,0.041724,
2,0,0,1,0,8602.7,0.0320607,0.0317448,-15.5383,7,0.0046808,10,-0.00049326,-1.8086,0.233436,0.252746,-153.082,0.0317448,
2,0,0,1,0,8602.75,0.0220637,0.0217674,-14.0584,7,0.00394229,10,-0.000306015,-1.85206,0.248153,0.237756,-130.572,0.0217674,
2,0,0,1,0,8602.8,0.0120848,0.0117927,-13.0278,7,0.00326881,10,-0.000153633,-1.88513,0.372619,0.158339,-80.5177,0.0117927,
2,0,0,1,0,8602.85,0.00210598,0.00179424,-12.5256,7,0.00263454,10,-2.24738e-05,-1.9022,1.19846,0.04923,-24.0209,0.00179424,
2,0,0,1,0,8602.9,-0.00789103,-0.00821446,-12.2834,7,0.00201547,10,0.000100902,-1.91068,3.89086,0.0151637,-7.27696,-0.00821446,
2,0,0,1,0,8602.95,-0.017879,-0.0182324,-12.3406,7,0.00140168,10,0.000225,-1.90866,-1.78118,-0.0331241,15.9451,-0.0182324,
2,0,0,1,0,8603,-0.0278578,-0.0281928,-12.5332,7,0.000781767,10,0.000353346,-1.90194,-1.2561,-0.0469709,22.9799,-0.02819282,
2,0,0,1,0,8603.05,-0.0378548,-0.0382033,-12.8294,7,0.00014792,10,0.000490124,-1.89179,-0.958725,-0.0615401,30.797,-0.0382033,
2,0,0,1,0,8603.1,-0.0478519,-0.0481868,-13.1828,7,-0.000502433,10,0.000635235,-1.87999,-0.698598,-0.0844549,43.4878,-0.0481868,
2,0,0,1,0,8603.15,-0.0578126,-0.058179,-13.6204,7,-0.00117,10,0.000792419,-1.86581,-0.704743,-0.0837185,44.5144,-0.05817901,
2,0,0,1,0,8603.2,-0.0678187,-0.0681938,-14.1249,7,-0.00186321,10,0.00096323,-1.85001,-0.58968,-0.100054,55.116,-0.0681938,
2,0,0,1,0,8603.25,-0.0778157,-0.0781634,-14.7084,7,-0.00258373,10,0.00114966,-1.83244,-0.565376,-0.104355,59.9528,-0.0781634,
2,0,0,1,0,8603.3,-0.0877945,-0.0881389,-15.4405,7,-0.00333533,10,0.00136091,-1.81134,-0.440988,-0.133791,80.5897,-0.0881389,
2,0,0,1,0,8603.35,-0.0977734,-0.0981036,-16.2581,7,-0.00412601,10,0.00159498,-1.78893,-0.410702,-0.143657,91.2203,-0.0981036,
2,0,0,1,1,8603.39,-0.0936874,-0.0940632,-4.26385,7,-0.0046064,10,0.000401072,-2.3702,-0.00708872,-8.32309,1297.32,-0.0940632,
2,1,0,1,1,8603.44,-0.0837086,-0.0841013,4.01463,7,-0.00458065,10,-0.000337636,-2.39635,0.0170333,3.46381,521.411,-0.0841013,
2,1,0,1,1,8603.49,-0.0737025,-0.0740692,7.71076,7,-0.00427595,10,-0.00057113,-2.1129,0.070257,0.839773,250.343,-0.0740692,
2,1,0,1,1,8603.54,-0.0637236,-0.0640675,9.42604,7,-0.00384287,10,-0.000603903,-2.02567,0.183768,0.321057,118.142,-0.0640675,
2,1,0,1,1,8603.59,-0.0537447,-0.0540692,10.3022,7,-0.00334794,10,-0.000557034,-1.98707,0.426319,0.138394,55.4765,-0.0540692,
2,1,0,1,1,8603.64,-0.0437477,-0.0441064,10.6848,7,-0.00282195,10,-0.000471271,-1.97123,1.02008,0.0578388,24.1398,-0.04410645,
2,1,0,1,1,8603.69,-0.0337507,-0.0340986,10.8526,7,-0.00228256,10,-0.000370057,-1.96447,3.92511,0.0150314,6.35914,-0.03409861,
2,1,0,1,1,8603.74,-0.0237809,-0.0241255,10.8602,7,-0.0017416,10,-0.000262008,-1.96416,-13.9839,-0.00421915,-1.78839,-0.0241255,
2,1,0,1,1,8603.79,-0.0137839,-0.0140986,10.7963,7,-0.00119996,10,-0.000152212,-1.96673,-2.03143,-0.0290436,-12.2292,-0.0140986,
2,1,0,1,1,8603.84,-0.0037869,-0.00416968,10.6837,7,-0.00066286,10,-4.45475e-05,-1.97128,-2.14723,-0.0274772,-11.4641,-0.00416968,
2,1,0,1,1,8603.86,-2.55332e-05,-0.000497109,10.6247,7,-0.000463452,10,-5.28166e-06,-1.97368, , , ,-0.000497109,