File: Figure_codes/Fig_3-5/rawdata_trumpetplot_data/before 10th/20221101_1-115_002_TrumpetPlot_ParaChange_10_CV_C01_4.csv
mode,ox/red,error,control changes,counter inc.,time/s,control/V,Ewe/V,<I>/mA,cycle number,(Q-Qo)/C,I Range,P/W,log(|I|),Tafel slope mV/dec,alpha_eff,dI/d(E-IR),E-IR/V,
2,0,0,0,0,6120.9,2.44065e-05,0.000170947,-5.99055,5,0.0000000E+000,11,-1.02407e-06,-2.22253, , , ,0.000170947,
2,1,0,1,0,6120.99,0.0072942,0.00698819,2.50311,5,1.83758e-06,11,1.74922e-05,-2.60152,0.0221425,2.66456,241.961,0.00698819,
2,1,0,1,0,6121.09,0.0147816,0.0144544,3.23631,5,0.00028042,11,4.67789e-05,-2.48995,0.178743,0.330083,41.4762,0.0144544,
2,1,0,1,0,6121.18,0.0222707,0.0219877,3.45101,5,0.000594221,11,7.58798e-05,-2.46205,0.306653,0.1924,25.8728,0.0219877,
2,1,0,1,0,6121.28,0.0297581,0.0294662,3.62077,5,0.000925405,11,0.00010669,-2.4412,0.393786,0.149827,21.1738,0.0294662,
2,1,0,1,0,6121.37,0.0372544,0.0369499,3.81779,5,0.00127373,11,0.000141067,-2.41819,0.346184,0.170429,25.3934,0.0369499,
2,1,0,1,0,6121.46,0.0447507,0.0444239,4.04983,5,0.00164191,11,0.000179909,-2.39256,0.253044,0.233161,36.8695,0.0444239,
2,1,0,1,0,6121.56,0.0522381,0.0519283,4.34412,5,0.00203458,11,0.000225583,-2.3621,0.210009,0.28094,47.699,0.0519283,
2,1,0,1,0,6121.65,0.0597273,0.0594279,4.72275,5,0.00245873,11,0.000280663,-2.3258,0.214431,0.275146,50.6805,0.0594279,
2,1,0,1,0,6121.74,0.0672147,0.0669418,5.15307,5,0.00292012,11,0.000344956,-2.28793,0.191139,0.308676,61.9373,0.0669418,
2,1,0,1,0,6121.84,0.0747038,0.0744373,5.58458,5,0.0034225,11,0.000415701,-2.25301,0.217365,0.271432,59.1332,0.0744373,
2,1,0,1,0,6121.93,0.0822055,0.0818998,6.02111,5,0.00396745,11,0.000493127,-2.22032,0.267925,0.220211,51.7496,0.08189977,
2,1,0,1,0,6122.02,0.0896946,0.089398,6.42243,5,0.0045503,11,0.000574153,-2.1923,0.28624,0.206121,51.6823,0.089398,
2,1,0,1,0,6122.12,0.097182,0.0968864,6.79493,5,0.00516953,11,0.000658336,-2.16782,0.276115,0.213679,56.7319,0.0968864,
2,1,0,1,0,6122.21,0.104671,0.10439,7.22929,5,0.00582583,11,0.000754667,-2.1409,0.269392,0.219012,61.8188,0.10439,
2,1,0,1,0,6122.31,0.112159,0.111848,7.7935,5,0.00652692,11,0.000871691,-2.10827,0.201012,0.293515,89.2115,0.111848,
2,1,0,1,0,6122.4,0.119655,0.119359,8.55064,5,0.00729095,11,0.00102059,-2.068,0.169557,0.347965,116.185,0.119359,
2,1,0,1,0,6122.49,0.127149,0.126839,9.4648,5,0.0081348,11,0.0012005,-2.02389,0.171817,0.343389,126.91,0.1268388,
2,1,0,1,0,6122.59,0.134639,0.134358,10.4305,5,0.00906686,11,0.00140143,-1.98169,0.199131,0.296287,120.526,0.134358,
2,1,0,1,0,6122.68,0.142126,0.141857,11.2527,5,0.0100832,11,0.00159628,-1.94874,0.253603,0.232647,102.058,0.141857,
2,1,0,1,0,6122.77,0.149615,0.149351,11.7886,5,0.0111654,11,0.00176063,-1.92854,0.722399,0.0816723,37.5024,0.149351,
2,1,0,1,0,6122.87,0.157103,0.156843,11.6984,5,0.0122713,11,0.00183482,-1.93187,-0.328142,-0.1798,-81.7299,0.156843,
2,1,0,1,0,6122.96,0.164606,0.164307,10.4665,5,0.0133205,11,0.00171972,-1.9802,-0.096716,-0.610034,-247.921,0.164307,
2,1,0,1,0,6123.05,0.172095,0.171793,8.24059,5,0.0141995,11,0.00141568,-2.08404,-0.0620114,-0.951438,-306.373,0.171793,
2,1,0,1,0,6123.15,0.179582,0.179309,6.34776,5,0.0148759,11,0.00113821,-2.19738,-0.0752821,-0.783719,-195.237,0.179309,
2,1,0,1,0,6123.24,0.18707,0.186819,5.29565,5,0.0154158,11,0.000989328,-2.27608,-0.123283,-0.478574,-98.9576,0.186819,
2,1,0,1,0,6123.34,0.194559,0.194264,4.677,5,0.01588,11,0.000908575,-2.33003,-0.17063,-0.345778,-63.1327,0.194264,
2,1,0,1,0,6123.43,0.202062,0.201812,4.25711,5,0.0162977,11,0.000859136,-2.37088,-0.193511,-0.304892,-50.6239,0.201812,
2,1,0,1,0,6123.52,0.20955,0.209262,3.97286,5,0.0166819,11,0.000831369,-2.4009,-0.260456,-0.226526,-35.1239,0.209262,
2,1,0,1,0,6123.62,0.217039,0.216767,3.75254,5,0.017043,11,0.000813426,-2.42567,-0.423432,-0.139337,-20.478,0.216767,
2,1,0,1,0,6123.71,0.224526,0.224223,3.61177,5,0.0173882,11,0.000809841,-2.44228,-0.423219,-0.139408,-19.6874,0.224223,
2,1,0,1,0,6123.8,0.232016,0.231747,3.522,5,0.0177219,11,0.000816211,-2.45321,-0.742926,-0.0794157,-10.8866,0.231747,
2,1,0,1,0,6123.9,0.23951,0.23922,3.43432,5,0.0180473,11,0.00082156,-2.46416,-1.21873,-0.0484112,-6.48624,0.23922,
2,1,0,1,0,6123.99,0.247006,0.246754,3.37093,5,0.0183661,11,0.000831788,-2.47225,-0.749109,-0.0787603,-10.3493,0.246754,
2,1,0,1,0,6124.08,0.254494,0.25421,3.31764,5,0.0186789,11,0.000843377,-2.47917,-0.773451,-0.0762815,-9.86387,0.25421,
2,1,0,1,0,6124.18,0.261983,0.261706,3.26074,5,0.0189869,11,0.000853356,-2.48668,-2.30681,-0.0255764,-3.2619,0.261706,
2,1,0,1,0,6124.27,0.26947,0.269188,3.21292,5,0.0192906,11,0.000864878,-2.4931,-1.38843,-0.042494,-5.34369,0.2691876,
2,1,0,1,0,6124.37,0.276959,0.27668,3.18678,5,0.0195905,11,0.000881717,-2.49665,-1.03843,-0.0568164,-7.05116,0.27668,
2,1,0,1,0,6124.46,0.284461,0.2842,3.14787,5,0.0198872,11,0.000894626,-2.50198,-2.67896,-0.0220235,-2.70134,0.2842001,
2,1,0,1,0,6124.55,0.29195,0.291684,3.10029,5,0.0201797,11,0.000904306,-2.5086,-1.34197,-0.0439652,-5.32375,0.291684,
2,1,0,1,0,6124.65,0.299438,0.299142,3.06785,5,0.0204689,11,0.000917723,-2.51317,-0.0199077,-2.96368,-313.097,0.299142,
2,0,0,1,0,6124.73,0.29424,0.293931,-1.10278,5,0.0204796,11,-0.000324142,-2.95751,-0.0239972,-2.45862,98.3101,0.293931,
2,0,0,1,0,6124.82,0.286753,0.286456,-1.45461,5,0.0203569,11,-0.000416682,-2.83725,-0.108072,-0.545931,30.9801,0.286456,
2,0,0,1,0,6124.91,0.279264,0.278936,-1.66871,5,0.0202098,11,-0.000465464,-2.77762,-0.178725,-0.330117,21.5027,0.278936,
2,0,0,1,0,6125.01,0.271776,0.271442,-1.82968,5,0.0200459,11,-0.00049665,-2.73763,-0.173975,-0.339129,24.1884,0.271442,
2,0,0,1,0,6125.1,0.26428,0.264012,-1.95489,5,0.0198682,11,-0.000516113,-2.70888,-0.277779,-0.212399,16.2264,0.264012,
2,0,0,1,0,6125.19,0.256786,0.256469,-2.07828,5,0.019679,11,-0.000533014,-2.6823,-0.369935,-0.159488,12.8779,0.256469,
2,0,0,1,0,6125.29,0.249296,0.248977,-2.18241,5,0.0194798,11,-0.000543371,-2.66106,-0.332079,-0.177669,15.1002,0.248977,
2,0,0,1,0,6125.38,0.241809,0.241514,-2.2626,5,0.0192709,11,-0.00054645,-2.64539,-0.399283,-0.147765,13.1369,0.241514,
2,0,0,1,0,6125.47,0.23432,0.234023,-2.3794,5,0.0190529,11,-0.000556833,-2.62353,-0.505625,-0.116687,10.8513,0.234023,
2,0,0,1,0,6125.57,0.226833,0.226542,-2.48223,5,0.0188254,11,-0.000562328,-2.60516,-0.300644,-0.196245,18.9988,0.226542,
2,0,0,1,0,6125.66,0.219329,0.218985,-2.59316,5,0.0185876,11,-0.000567864,-2.58617,-0.322303,-0.183058,18.5057,0.218985,
2,0,0,1,0,6125.76,0.21184,0.211583,-2.71186,5,0.0183396,11,-0.000573784,-2.56673,-0.474539,-0.124331,13.1222,0.211583,
2,0,0,1,0,6125.85,0.204353,0.20403,-2.85939,5,0.0180794,11,-0.000583402,-2.54373,-0.40328,-0.1463,16.2965,0.20403,
2,0,0,1,0,6125.94,0.196863,0.196547,-3.00666,5,0.0178051,11,-0.00059095,-2.52192,-0.250785,-0.235262,27.7008,0.196547,
2,0,0,1,0,6126.04,0.189376,0.18902,-3.23262,5,0.0175128,11,-0.000611028,-2.49045,-0.24476,-0.241052,30.4729,0.18902,
2,0,0,1,0,6126.13,0.18188,0.181581,-3.53801,5,0.0171964,11,-0.000642435,-2.45124,-0.171302,-0.344421,47.4432,0.181581,
2,0,0,1,0,6126.22,0.174385,0.174054,-3.93709,5,0.0168474,11,-0.000685267,-2.40483,-0.129282,-0.456365,70.2372,0.174054,
2,0,0,1,0,6126.32,0.166896,0.166571,-4.54082,5,0.0164522,11,-0.000756371,-2.34287,-0.111562,-0.528852,93.7159,0.166571,
2,0,0,1,0,6126.41,0.159409,0.159076,-5.42775,5,0.0159886,11,-0.000863427,-2.26538,-0.0904727,-0.65213,137.968,0.159076,
2,0,0,1,0,6126.5,0.151919,0.151604,-6.65716,5,0.0154261,11,-0.00100925,-2.17671,-0.0820222,-0.719318,186.961,0.151604,
2,0,0,1,0,6126.6,0.144425,0.144082,-8.17756,5,0.0147324,11,-0.00117824,-2.08738,-0.0880298,-0.670228,214.07,0.144082,
2,0,0,1,0,6126.69,0.136929,0.13662,-9.73852,5,0.0138913,11,-0.00133048,-2.01151,-0.117195,-0.503436,190.86,0.1366204,
2,0,0,1,0,6126.79,0.129441,0.12912,-11.0011,5,0.012918,11,-0.00142047,-1.95856,-0.178887,-0.329817,141.252,0.1291201,
2,0,0,1,0,6126.88,0.121952,0.121644,-11.7314,5,0.0118492,11,-0.00142705,-1.93065,-0.499647,-0.118083,53.9625,0.121644,
2,0,0,1,0,6126.97,0.114465,0.114177,-11.8541,5,0.0107404,11,-0.00135348,-1.92613,0.83497,0.0706612,-32.616,0.114177,
2,0,0,1,0,6127.07,0.106976,0.106636,-11.3212,5,0.00965144,11,-0.00120724,-1.94611,0.23688,0.249071,-109.853,0.106636,
2,0,0,1,0,6127.16,0.0994721,0.0991459,-10.3068,5,0.00863465,11,-0.00102188,-1.98688,0.166296,0.354789,-142.83,0.0991459,
2,0,0,1,0,6127.25,0.0919847,0.0916633,-9.26367,5,0.00771975,11,-0.000849139,-2.03322,0.174095,0.338896,-122.76,0.0916633,
2,0,0,1,0,6127.35,0.0844973,0.084195,-8.51742,5,0.00688998,11,-0.000717124,-2.06969,0.246391,0.239457,-79.6358,0.084195,
2,0,0,1,0,6127.44,0.0770082,0.0767138,-8.00617,5,0.00611816,11,-0.000614184,-2.09658,0.32181,0.183338,-57.3075,0.0767138,
2,0,0,1,0,6127.53,0.0695208,0.0692012,-7.61494,5,0.00538696,11,-0.000526963,-2.11833,0.329823,0.178884,-53.2141,0.0692012,
2,0,0,1,0,6127.63,0.0620245,0.0617361,-7.23604,5,0.00469074,11,-0.000446725,-2.1405,0.293187,0.201236,-56.7751,0.0617361,
2,0,0,1,0,6127.72,0.0545282,0.0542136,-6.77195,5,0.00403391,11,-0.000367132,-2.16929,0.272651,0.216394,-57.2123,0.0542136,
2,0,0,1,0,6127.82,0.0470408,0.0467324,-6.27321,5,0.00342268,11,-0.000293162,-2.20251,0.216463,0.272564,-66.7569,0.0467324,
2,0,0,1,0,6127.91,0.0395517,0.0392451,-5.83329,5,0.00285725,11,-0.000228928,-2.23409,0.24345,0.242349,-55.0597,0.0392451,
2,0,0,1,0,6128,0.0320643,0.0317468,-5.4853,5,0.00232929,11,-0.000174141,-2.2608,0.362325,0.162837,-34.8713,0.03174682,
2,0,0,1,0,6128.1,0.0245751,0.0242844,-5.26952,5,0.00182646,11,-0.000127967,-2.27823,0.594946,0.0991687,-20.4413,0.0242844,
2,0,0,1,0,6128.19,0.0170735,0.0167646,-5.17231,5,0.00133687,11,-8.67119e-05,-2.28632,1.22942,0.0479902,-9.71076,0.0167646,
2,0,0,1,0,6128.28,0.00958429,0.00926094,-5.15501,5,0.000853585,11,-4.77402e-05,-2.28777,-1.86027,-0.0317158,6.38308,0.00926094,
2,0,0,1,0,6128.38,0.0020969,0.00174735,-5.24879,5,0.000369585,11,-9.17151e-06,-2.27994,-0.722963,-0.0816086,16.5722,0.00174735,
2,0,0,1,0,6128.4,0.000199195,-0.000189804,-5.23636,5,0.000245255,11,9.93879e-07,-2.28097, , , ,-0.000189804,