File: Figure_codes/Fig_3-5/rawdata_trumpetplot_data/before 10th/20221101_1-115_002_TrumpetPlot_ParaChange_05_CV_C01_0.csv
mode,ox/red,error,control changes,counter inc.,time/s,control/V,Ewe/V,<I>/mA,cycle number,(Q-Qo)/C,I Range,P/W,log(|I|),Tafel slope mV/dec,alpha_eff,dI/d(E-IR),E-IR/V,
2,1,0,0,0,958.886,2.44065e-05,-0.000401673,0.0161509,1,0.0000000E+000,11,-6.48739e-09,-4.7918, , , ,-0.000401673,
2,1,0,1,0,960.34,0.0072904,0.00700306,0.209306,1,0.000301697,11,1.46578e-06,-3.67922,0.115711,0.509892,4.12625,0.00700306,
2,1,0,1,0,961.838,0.0147815,0.0144726,0.22871,1,0.000661661,11,3.31002e-06,-3.64071,0.3637,0.162222,1.44902,0.0144726,
2,1,0,1,0,963.336,0.0222725,0.0219751,0.239964,1,0.00104296,11,5.27322e-06,-3.61985,0.44594,0.132305,1.23073,0.02197508,
2,1,0,1,0,964.834,0.0297635,0.0294329,0.248119,1,0.00143821,11,7.30287e-06,-3.60534,0.97532,0.060493,0.583781,0.0294329,
2,1,0,1,0,966.332,0.0372545,0.0369503,0.254186,1,0.00184552,11,9.39227e-06,-3.59485,0.552432,0.1068,1.06769,0.0369503,
2,1,0,1,0,967.831,0.0447456,0.0444377,0.267162,1,0.00226606,11,1.18721e-05,-3.57323,0.394884,0.149411,1.5424,0.0444377,
2,1,0,1,0,969.329,0.0522367,0.0519382,0.278337,1,0.00270301,11,1.44563e-05,-3.55543,0.224552,0.262745,2.84851,0.0519382,
2,1,0,1,0,970.827,0.0597277,0.0594312,0.2952,1,0.0031623,11,1.75441e-05,-3.52988,0.246298,0.239547,2.76045,0.0594312,
2,1,0,1,0,972.325,0.0672187,0.0669164,0.319502,1,0.00365146,11,2.13799e-05,-3.49553,0.220778,0.267237,3.30274,0.0669164,
2,1,0,0,0,973.823,0.0747092,0.0744111,0.346322,1,0.00417903,11,2.57702e-05,-3.46052,0.187974,0.313874,4.25593,0.0744111,
2,1,0,1,0,975.322,0.0822001,0.0818774,0.376651,1,0.00475221,11,3.08392e-05,-3.42406,0.201204,0.293235,4.33428,0.0818774,
2,1,0,0,0,976.82,0.0896911,0.0894413,0.41235,1,0.00537456,11,3.68811e-05,-3.38473,0.195788,0.301347,4.85954,0.0894413,
2,1,0,1,0,978.318,0.097182,0.0969055,0.447665,1,0.00604969,11,4.33812e-05,-3.34905,0.170353,0.346339,6.04911,0.0969055,
2,1,0,0,0,979.816,0.104673,0.104409,0.49509,1,0.00678315,11,5.16918e-05,-3.30532,0.177121,0.333105,6.40418,0.104409,
2,1,0,1,0,981.314,0.112164,0.111879,0.556748,1,0.00759545,11,6.22886e-05,-3.25434,0.139973,0.42151,9.15042,0.111879,
2,1,0,0,0,982.813,0.119655,0.119374,0.656449,1,0.00852874,11,7.83633e-05,-3.1828,0.0981859,0.600901,15.4569,0.119374,
2,1,0,1,0,984.311,0.127146,0.126856,0.787445,1,0.00964113,11,9.98918e-05,-3.10378,0.0923394,0.638947,19.7508,0.126856,
2,1,0,0,0,985.809,0.134637,0.134371,0.925175,1,0.0109637,11,0.000124316,-3.03378,0.141506,0.416943,15.0678,0.134371,
2,1,0,1,0,987.307,0.142127,0.141878,0.991151,1,0.0124413,11,0.000140622,-3.00386,0.637245,0.0925861,3.56435,0.141878,
2,1,0,1,0,988.805,0.149618,0.149316,0.954908,1,0.0139438,11,0.000142583,-3.02004,-0.174209,-0.338674,-12.5506,0.149316,
2,1,0,1,0,990.303,0.157109,0.156813,0.807738,1,0.0153062,11,0.000126664,-3.09273,-0.0709013,-0.832142,-26.153,0.156813,
2,1,0,1,0,991.802,0.1646,0.164313,0.629552,1,0.016408,11,0.000103444,-3.20097,-0.0651731,-0.905282,-22.1608,0.164313,
2,1,0,1,0,993.3,0.172091,0.171815,0.494332,1,0.0172702,11,8.49335e-05,-3.30598,-0.0882896,-0.668255,-13.0266,0.171815,
2,1,0,1,0,994.798,0.179582,0.179278,0.418763,1,0.017981,11,7.5075e-05,-3.37803,-0.124693,-0.473162,-7.77112,0.179278,
2,1,0,1,0,996.296,0.187074,0.18679,0.372708,1,0.0186018,11,6.96181e-05,-3.42863,-0.191799,-0.307613,-4.47625,0.18679,
2,1,0,1,0,997.794,0.194564,0.194324,0.340219,1,0.0191655,11,6.61127e-05,-3.46824,-0.24,-0.245833,-3.27615,0.194324,
2,1,0,1,0,999.293,0.202056,0.201787,0.320666,1,0.0196906,11,6.47062e-05,-3.49395,-0.311293,-0.189532,-2.36306,0.201787,
2,1,0,1,0,1000.79,0.209547,0.209288,0.306422,1,0.0201893,11,6.41303e-05,-3.51368,-0.391405,-0.150739,-1.79696,0.209288,
2,1,0,1,0,1002.29,0.217038,0.216732,0.2948,1,0.0206678,11,6.38924e-05,-3.53047,-0.539071,-0.109447,-1.25687,0.216732,
2,1,0,1,0,1003.79,0.224529,0.224241,0.285017,1,0.0211323,11,6.39124e-05,-3.54513,-0.637877,-0.0924943,-1.02912,0.224241,
2,1,0,0,0,1005.29,0.232019,0.23173,0.278389,1,0.0215856,11,6.45111e-05,-3.55535,-0.644141,-0.0915949,-0.996585,0.23173,
2,1,0,1,0,1006.78,0.23951,0.239219,0.273899,1,0.0220305,11,6.5522e-05,-3.56241,-1.10983,-0.0531614,-0.567346,0.239219,
2,1,0,0,0,1008.28,0.247001,0.246741,0.270658,1,0.0224685,11,6.67825e-05,-3.56758,-1.70302,-0.0346444,-0.364566,0.246741,
2,1,0,1,0,1009.78,0.254492,0.254213,0.265931,1,0.0229008,11,6.76029e-05,-3.57523,-7.88205,-0.00748537,-0.0779865,0.254213,
2,1,0,0,0,1011.28,0.261983,0.261706,0.263474,1,0.0233281,11,6.89529e-05,-3.57926,-0.905552,-0.0651536,-0.667899,0.261706,
2,1,0,1,0,1012.78,0.269474,0.269219,0.260938,1,0.0237515,11,7.02494e-05,-3.58346,4.1031,0.0143794,0.146028,0.2692194,
2,1,0,0,0,1014.27,0.276965,0.276719,0.258412,1,0.0241713,11,7.15074e-05,-3.58769,-1.32023,-0.0446891,-0.450484,0.276719,
2,1,0,1,0,1015.77,0.284456,0.284174,0.25685,1,0.0245877,11,7.29902e-05,-3.59032,-2.03693,-0.0289652,-0.290051,0.284174,
2,1,0,0,0,1017.27,0.291947,0.291652,0.254664,1,0.0250011,11,7.42734e-05,-3.59403,-1.42841,-0.0413047,-0.411927,0.291652,
2,1,0,1,0,1018.77,0.299437,0.299194,0.251356,1,0.0254119,11,7.52042e-05,-3.59971,-0.00166959,-35.338,-128.876,0.2991935,
2,0,0,1,0,1020.14,0.293744,0.293473,-0.0320196,1,0.0254108,11,-9.39688e-06,-4.49458,-0.0129638,-4.55114,5.09284,0.293473,
2,0,0,1,0,1021.64,0.286253,0.285902,-0.0598254,1,0.0253098,11,-1.71042e-05,-4.22311,-0.0452411,-1.30412,3.0542,0.285902,
2,0,0,1,0,1023.13,0.278763,0.278479,-0.0795827,1,0.025174,11,-2.21621e-05,-4.09918,-0.0855247,-0.689859,2.09473,0.278479,
2,0,0,0,0,1024.63,0.271272,0.271013,-0.0953253,1,0.0250125,11,-2.58344e-05,-4.02079,-0.151128,-0.390398,1.44422,0.271013,
2,0,0,1,0,1026.13,0.263781,0.26349,-0.108395,1,0.0248291,11,-2.8561e-05,-3.96499,-0.1491,-0.395707,1.68518,0.26349,
2,0,0,0,0,1027.63,0.25629,0.256016,-0.120759,1,0.0246267,11,-3.09163e-05,-3.91808,-0.165447,-0.35661,1.67526,0.256016,
2,0,0,1,0,1029.13,0.248799,0.248508,-0.130513,1,0.0244065,11,-3.24334e-05,-3.88435,-0.223771,-0.263662,1.3645,0.248508,
2,0,0,0,0,1030.63,0.241308,0.241018,-0.143911,1,0.0241692,11,-3.4685e-05,-3.84191,-0.209721,-0.281326,1.58318,0.241018,
2,0,0,1,0,1032.12,0.233817,0.233555,-0.155722,1,0.0239151,11,-3.63695e-05,-3.80765,-0.307214,-0.192048,1.16643,0.233555,
2,0,0,0,0,1033.62,0.226326,0.226039,-0.164976,1,0.0236432,11,-3.72909e-05,-3.78258,-0.22758,-0.259249,1.68788,0.226039,
2,0,0,1,0,1035.12,0.218835,0.218567,-0.180154,1,0.0233525,11,-3.93757e-05,-3.74436,-0.191848,-0.307536,2.15423,0.218567,
2,0,0,0,0,1036.62,0.211344,0.211,-0.194045,1,0.0230414,11,-4.09434e-05,-3.7121,-0.174256,-0.338582,2.58581,0.211,
2,0,0,1,0,1038.12,0.203854,0.203504,-0.211124,1,0.0227057,11,-4.29647e-05,-3.67546,-0.197189,-0.299206,2.49882,0.203504,
2,0,0,1,0,1039.61,0.196363,0.196047,-0.235621,1,0.0223411,11,-4.61929e-05,-3.62779,-0.161098,-0.366237,3.34055,0.196047,
2,0,0,1,0,1041.11,0.188871,0.188562,-0.263436,1,0.0219383,11,-4.96741e-05,-3.57932,-0.118676,-0.497152,5.1139,0.188562,
2,0,0,1,0,1042.61,0.181381,0.181062,-0.304652,1,0.0214849,11,-5.51608e-05,-3.5162,-0.107041,-0.551191,6.52306,0.181062,
2,0,0,1,0,1044.11,0.173889,0.173544,-0.362789,1,0.0209594,11,-6.296e-05,-3.44035,-0.0858349,-0.687366,9.66092,0.173544,
2,0,0,1,0,1045.61,0.166398,0.166115,-0.449983,1,0.0203256,11,-7.47489e-05,-3.3468,-0.0720193,-0.819225,14.5381,0.1661149,
2,0,0,1,0,1047.11,0.158907,0.158628,-0.586917,1,0.0195221,11,-9.31017e-05,-3.23142,-0.0624522,-0.944722,21.7479,0.158628,
2,0,0,1,0,1048.6,0.151416,0.151153,-0.770166,1,0.0184751,11,-0.000116413,-3.11342,-0.0772137,-0.764113,22.8847,0.151153,
2,0,0,1,0,1050.1,0.143925,0.143628,-0.922473,1,0.01717,11,-0.000132493,-3.03505,-0.121314,-0.486339,17.3881,0.143628,
2,0,0,1,0,1051.6,0.136434,0.13615,-0.990773,1,0.0156955,11,-0.000134894,-3.00403,-1.28011,-0.0460899,1.76926,0.13615,
2,0,0,1,0,1053.1,0.128943,0.128669,-0.949039,1,0.0142014,11,-0.000122112,-3.02272,0.158409,0.372455,-13.7048,0.128669,
2,0,0,1,0,1054.6,0.121453,0.121138,-0.831674,1,0.0128343,11,-0.000100747,-3.08005,0.10622,0.555453,-18.0101,0.121138,
2,0,0,0,0,1056.09,0.113962,0.113654,-0.705361,1,0.0116543,11,-8.01667e-05,-3.15159,0.113708,0.518875,-14.3754,0.113654,
2,0,0,1,0,1057.59,0.106471,0.106205,-0.624561,1,0.0106301,11,-6.63317e-05,-3.20442,0.191576,0.307972,-7.5517,0.106205,
2,0,0,0,0,1059.09,0.0989798,0.0986795,-0.571404,1,0.00970678,11,-5.63858e-05,-3.24306,0.26504,0.222608,-4.96252,0.0986795,
2,0,0,1,0,1060.59,0.0914889,0.0912132,-0.537746,1,0.00884963,11,-4.90495e-05,-3.26942,0.292672,0.201591,-4.20934,0.0912132,
2,0,0,0,0,1062.09,0.083998,0.0836949,-0.50167,1,0.0080434,11,-4.19872e-05,-3.29958,0.220607,0.267444,-5.23026,0.08369492,
2,0,0,1,0,1063.59,0.076507,0.0761894,-0.471466,1,0.00728417,11,-3.59207e-05,-3.32655,0.276055,0.213725,-3.93021,0.0761894,
2,0,0,0,0,1065.08,0.069016,0.0687252,-0.441119,1,0.00657026,11,-3.0316e-05,-3.35544,0.287115,0.205492,-3.56038,0.0687252,
2,0,0,1,0,1066.58,0.0615251,0.0612482,-0.419952,1,0.00589464,11,-2.57213e-05,-3.3768,0.437864,0.134745,-2.2172,0.0612482,
2,0,0,0,0,1068.08,0.0540341,0.0537618,-0.405136,1,0.00524879,11,-2.17808e-05,-3.3924,0.535494,0.110179,-1.73357,0.0537618,
2,0,0,1,0,1069.58,0.0465436,0.0462407,-0.393927,1,0.00462183,11,-1.82155e-05,-3.40458,1.3515,0.0436553,-0.672514,0.0462407,
2,0,0,1,0,1071.08,0.0390526,0.0387425,-0.390698,1,0.00400443,11,-1.51366e-05,-3.40816,1.36084,0.0433557,-0.660136,0.0387425,
2,0,0,1,0,1072.57,0.0315615,0.0312824,-0.391941,1,0.00338917,11,-1.22609e-05,-3.40678,-2.35705,-0.0250313,0.383428,0.0312824,
2,0,0,1,0,1074.07,0.0240706,0.0238033,-0.396203,1,0.00276977,11,-9.43092e-06,-3.40208,-0.728526,-0.0809854,1.25782,0.0238033,
2,0,0,1,0,1075.57,0.0165795,0.0162542,-0.404648,1,0.00214079,11,-6.57722e-06,-3.39292,-0.635454,-0.0928469,1.4616,0.0162542,
2,0,0,1,0,1077.07,0.00908845,0.00882173,-0.414775,1,0.00149803,11,-3.65903e-06,-3.38219,-0.551385,-0.107003,1.73003,0.00882173,
2,0,0,1,0,1078.57,0.00159739,0.00120693,-0.429046,1,0.000835919,11,-5.1783e-07,-3.3675, , , ,0.00120693,
2,0,0,1,0,1078.85,0.000199195,-0.000151629,-0.428454,1,0.000710379,11,6.49659e-08,-3.3681, , , ,-0.000151629,