File: Figure_codes/Fig_3-5/rawdata_trumpetplot_data/before 10th/20221101_1-115_002_TrumpetPlot_ParaChange_08_CV_C01_6.csv
mode,ox/red,error,control changes,counter inc.,time/s,control/V,Ewe/V,<I>/mA,cycle number,(Q-Qo)/C,I Range,P/W,log(|I|),Tafel slope mV/dec,alpha_eff,dI/d(E-IR),E-IR/V,
2,0,0,0,0,8558.96,2.44065e-05,-0.000248974,-2.46084,7,0.0000000E+000,11,6.12686e-07,-2.60892, , , ,-0.000248974,
2,1,0,1,0,8559.14,0.00729063,0.006972,1.54572,7,0.000147252,11,1.07767e-05,-2.81087,0.0788252,0.748491,44.3974,0.006972,
2,1,0,1,0,8559.33,0.014778,0.0145277,1.72515,7,0.000456366,11,2.50624e-05,-2.76317,0.212213,0.278022,18.655,0.0145277,
2,1,0,1,0,8559.52,0.0222743,0.0219961,1.83448,7,0.000791372,11,4.03514e-05,-2.73649,0.294637,0.200247,14.3912,0.0219961,
2,1,0,1,0,8559.7,0.0297626,0.0294655,1.95104,7,0.00114635,11,5.74885e-05,-2.70973,0.293966,0.200703,15.2578,0.0294655,
2,1,0,1,0,8559.89,0.0372544,0.036984,2.07632,7,0.00152361,11,7.67905e-05,-2.68271,0.260742,0.226277,18.35,0.036984,
2,1,0,1,0,8560.08,0.0447472,0.0444796,2.23405,7,0.00192809,11,9.93694e-05,-2.65091,0.217785,0.27091,23.7023,0.0444796,
2,1,0,1,0,8560.27,0.0522345,0.051949,2.43482,7,0.0023655,11,0.000126487,-2.61353,0.195578,0.30167,28.6145,0.051949,
2,1,0,1,0,8560.45,0.0597309,0.0594066,2.65636,7,0.00284309,11,0.000157805,-2.57571,0.199262,0.296093,30.6854,0.0594066,
2,1,0,1,0,8560.64,0.0672182,0.0669367,2.89543,7,0.00336304,11,0.000193811,-2.53829,0.211771,0.278603,31.4208,0.0669367,
2,1,0,1,0,8560.83,0.0747074,0.0744257,3.11252,7,0.00392558,11,0.000231651,-2.50689,0.268064,0.220097,26.6348,0.0744257,
2,1,0,1,0,8561.01,0.0822019,0.0818764,3.30108,7,0.0045279,11,0.000270281,-2.48134,0.316208,0.186586,24.0979,0.0818764,
2,1,0,1,0,8561.2,0.0896911,0.0893738,3.48609,7,0.00516458,11,0.000311565,-2.45766,0.30786,0.191646,26.1019,0.08937382,
2,1,0,1,0,8561.39,0.097182,0.0968557,3.68057,7,0.00583679,11,0.000356485,-2.43408,0.278187,0.212088,30.4628,0.0968557,
2,1,0,1,0,8561.58,0.104675,0.104409,3.93995,7,0.00654968,11,0.000411366,-2.40451,0.213587,0.276233,42.5382,0.104409,
2,1,0,1,0,8561.76,0.112162,0.111893,4.31127,7,0.00732081,11,0.0004824,-2.3654,0.178515,0.330505,55.5378,0.111893,
2,1,0,1,0,8561.95,0.119655,0.119365,4.77136,7,0.00817083,11,0.000569532,-2.32136,0.183277,0.321918,59.8555,0.119365,
2,1,0,1,0,8562.14,0.127146,0.126856,5.20161,7,0.00910695,11,0.000659857,-2.28386,0.213026,0.276961,56.314,0.126856,
2,1,0,1,0,8562.33,0.134635,0.134377,5.58859,7,0.0101202,11,0.000750976,-2.2527,0.308355,0.191338,41.7028,0.1343766,
2,1,0,1,0,8562.51,0.14213,0.141883,5.83481,7,0.0111948,11,0.000827858,-2.23397,0.629514,0.093723,21.3225,0.141883,
2,1,0,1,0,8562.7,0.149619,0.149299,5.77354,7,0.0122899,11,0.000861986,-2.23856,-0.309513,-0.190622,-42.8116,0.149299,
2,1,0,1,0,8562.89,0.157106,0.156855,5.12629,7,0.0133209,11,0.000804084,-2.2902,-0.0910184,-0.648221,-128.838,0.156855,
2,1,0,1,0,8563.07,0.164602,0.16432,4.03637,7,0.014181,11,0.000663257,-2.39401,-0.0665242,-0.886895,-140.012,0.16432,
2,1,0,1,0,8563.26,0.172091,0.171839,3.18693,7,0.014852,11,0.000547639,-2.49663,-0.0855613,-0.689564,-86.1284,0.171839,
2,1,0,1,0,8563.45,0.179582,0.179288,2.68693,7,0.0153994,11,0.000481733,-2.57074,-0.121097,-0.487212,-51.2621,0.179288,
2,1,0,1,0,8563.64,0.187074,0.186795,2.37575,7,0.0158724,11,0.000443779,-2.6242,-0.178818,-0.329945,-30.6767,0.186795,
2,1,0,1,0,8563.82,0.194563,0.194278,2.19095,7,0.0162992,11,0.000425652,-2.65937,-0.240949,-0.244865,-20.8738,0.194278,
2,1,0,1,0,8564.01,0.202059,0.20178,2.06448,7,0.0166972,11,0.000416571,-2.68519,-0.338028,-0.174542,-14.0374,0.20178,
2,1,0,1,0,8564.2,0.209546,0.209306,1.97707,7,0.017076,11,0.000413813,-2.70398,-0.401109,-0.147092,-11.3718,0.2093059,
2,1,0,1,0,8564.39,0.217035,0.216734,1.91705,7,0.0174413,11,0.000415491,-2.71737,-0.579147,-0.101874,-7.61988,0.216734,
2,1,0,1,0,8564.57,0.22453,0.224249,1.86858,7,0.0177972,11,0.000419028,-2.72849,-0.779426,-0.0756967,-5.54012,0.224249,
2,1,0,1,0,8564.76,0.232019,0.231789,1.83697,7,0.0181449,11,0.000425789,-2.7359,-1.26525,-0.0466313,-3.3394,0.231789,
2,1,0,1,0,8564.95,0.23951,0.239235,1.80439,7,0.0184866,11,0.000431673,-2.74367,-1.23918,-0.0476122,-3.34806,0.2392347,
2,1,0,1,0,8565.13,0.247003,0.246721,1.77775,7,0.0188228,11,0.000438609,-2.75013,-0.730718,-0.0807425,-5.60534,0.246721,
2,1,0,1,0,8565.32,0.25449,0.254204,1.75389,7,0.0191539,11,0.000445844,-2.756,-1.17308,-0.0502948,-3.43634,0.254204,
2,1,0,1,0,8565.51,0.261983,0.261767,1.72993,7,0.0194807,11,0.000452837,-2.76197,-1.42699,-0.0413457,-2.79545,0.261767,
2,1,0,1,0,8565.7,0.269474,0.269219,1.70649,7,0.0198035,11,0.00045942,-2.7679,-3.79994,-0.0155266,-1.03663,0.2692191,
2,1,0,1,0,8565.88,0.276963,0.276672,1.69259,7,0.0201224,11,0.000468294,-2.77145,-1.2647,-0.0466514,-3.07073,0.276672,
2,1,0,1,0,8566.07,0.284458,0.284209,1.66684,7,0.0204379,11,0.000473729,-2.77811,-2.32697,-0.0253549,-1.65415,0.284209,
2,1,0,1,0,8566.26,0.291947,0.291663,1.6494,7,0.0207496,11,0.000481069,-2.78267,-0.858511,-0.0687237,-4.42525,0.291663,
2,1,0,1,0,8566.45,0.299434,0.299141,1.63398,7,0.0210577,11,0.000488788,-2.78675,-0.00878364,-6.71703,-324.687,0.299141,
2,0,0,1,0,8566.6,0.294196,0.293892,-0.523975,7,0.0210519,11,-0.000153992,-3.28069,-0.0357247,-1.65152,33.3209,0.293892,
2,0,0,1,0,8566.79,0.286701,0.286421,-0.705193,7,0.020934,11,-0.000201982,-3.15169,-0.0890654,-0.662434,18.0644,0.286421,
2,0,0,1,0,8566.98,0.279212,0.278919,-0.816307,7,0.0207901,11,-0.000227683,-3.08815,-0.156492,-0.377017,12.0371,0.278919,
2,0,0,1,0,8567.17,0.271725,0.271417,-0.899895,7,0.0206281,11,-0.000244246,-3.04581,-0.166973,-0.353351,12.4481,0.271417,
2,0,0,1,0,8567.35,0.264228,0.263907,-0.978005,7,0.0204512,11,-0.000258102,-3.00966,-0.241332,-0.244476,9.2537,0.263907,
2,0,0,1,0,8567.54,0.256741,0.256433,-1.03396,7,0.0202622,11,-0.000265141,-2.9855,-0.336396,-0.175389,7.10356,0.256433,
2,0,0,1,0,8567.73,0.249248,0.248942,-1.0948,7,0.0200619,11,-0.000272541,-2.96067,-0.468335,-0.125978,5.37398,0.248942,
2,0,0,1,0,8567.92,0.241756,0.24145,-1.14099,7,0.0198513,11,-0.000275491,-2.94272,-0.381859,-0.154507,6.90853,0.24145,
2,0,0,1,0,8568.1,0.234268,0.233957,-1.19441,7,0.019631,11,-0.000279441,-2.92285,-0.422106,-0.139775,6.57669,0.233957,
2,0,0,1,0,8568.29,0.226772,0.226439,-1.25738,7,0.0194004,11,-0.000284719,-2.90053,-0.28895,-0.204187,9.95311,0.226439,
2,0,0,1,0,8568.48,0.219284,0.218956,-1.31055,7,0.0191599,11,-0.000286952,-2.88255,-0.38782,-0.152132,7.76142,0.218956,
2,0,0,1,0,8568.66,0.211796,0.211496,-1.36786,7,0.0189087,11,-0.000289298,-2.86396,-0.470385,-0.125429,6.7045,0.211496,
2,0,0,1,0,8568.85,0.204301,0.20399,-1.44383,7,0.0186448,11,-0.000294527,-2.84048,-0.481408,-0.122557,6.86708,0.20399,
2,0,0,1,0,8569.04,0.196812,0.196499,-1.5103,7,0.0183677,11,-0.000296773,-2.82094,-0.286607,-0.205857,12.2339,0.196499,
2,0,0,1,0,8569.23,0.189321,0.189021,-1.62166,7,0.0180731,11,-0.000306527,-2.79004,-0.245064,-0.240754,15.2618,0.189021,
2,0,0,1,0,8569.41,0.181828,0.181544,-1.76554,7,0.0177565,11,-0.000320524,-2.75312,-0.177365,-0.332646,22.7766,0.181544,
2,0,0,1,0,8569.6,0.174341,0.174044,-1.94848,7,0.0174094,11,-0.000339121,-2.7103,-0.145202,-0.40633,31.0734,0.174044,
2,0,0,1,0,8569.79,0.166848,0.16654,-2.24888,7,0.0170176,11,-0.000374528,-2.64803,-0.11068,-0.533069,46.6471,0.16654,
2,0,0,1,0,8569.98,0.159357,0.159042,-2.69089,7,0.016558,11,-0.000427964,-2.5701,-0.0860771,-0.685432,71.9959,0.159042,
2,0,0,1,0,8570.16,0.151868,0.151579,-3.35804,7,0.0159943,11,-0.000509007,-2.47391,-0.0729817,-0.808422,106.399,0.151579,
2,0,0,1,0,8570.35,0.144373,0.144043,-4.23159,7,0.0152833,11,-0.000609531,-2.3735,-0.0797936,-0.739408,122.029,0.144043,
2,0,0,1,0,8570.54,0.136884,0.136581,-5.09079,7,0.0144077,11,-0.000695306,-2.29322,-0.114149,-0.51687,102.357,0.136581,
2,0,0,1,0,8570.72,0.129393,0.129098,-5.6884,7,0.0133921,11,-0.000734362,-2.24501,-0.225438,-0.261713,57.9786,0.129098,
2,0,0,1,0,8570.91,0.1219,0.121604,-5.94382,7,0.0122969,11,-0.000722794,-2.22593,-2.4474,-0.0241072,5.56454,0.1216043,
2,0,0,1,0,8571.1,0.114413,0.114065,-5.82717,7,0.0111902,11,-0.000664675,-2.23454,0.374134,0.157697,-35.8385,0.1140648,
2,0,0,1,0,8571.29,0.10692,0.106607,-5.45489,7,0.0101293,11,-0.000581527,-2.26321,0.207036,0.284974,-60.6687,0.106607,
2,0,0,1,0,8571.47,0.0994284,0.0991082,-4.97602,7,0.00915099,11,-0.000493164,-2.30312,0.184906,0.31908,-61.9489,0.0991082,
2,0,0,1,0,8571.66,0.0919401,0.0916311,-4.55137,7,0.00826053,11,-0.000417047,-2.34186,0.233613,0.252554,-44.9805,0.0916311,
2,0,0,1,0,8571.85,0.0844447,0.0841078,-4.27797,7,0.0074346,11,-0.000359811,-2.36876,0.343307,0.171858,-28.65,0.0841078,
2,0,0,1,0,8572.04,0.0769565,0.0766559,-4.07768,7,0.00665328,11,-0.000312578,-2.38959,0.38286,0.154104,-24.5272,0.07665588,
2,0,0,1,0,8572.22,0.0694682,0.069159,-3.90846,7,0.00590481,11,-0.000270305,-2.40799,0.383961,0.153661,-23.4736,0.069159,
2,0,0,1,0,8572.41,0.0619728,0.0616706,-3.73519,7,0.00518716,11,-0.000230351,-2.42769,0.322102,0.183172,-26.6679,0.0616706,
2,0,0,1,0,8572.6,0.0544836,0.0541558,-3.5218,7,0.00450693,11,-0.000190726,-2.45324,0.290352,0.203202,-27.918,0.0541558,
2,0,0,1,0,8572.78,0.0469927,0.0466804,-3.28181,7,0.00386879,11,-0.000153196,-2.48389,0.246208,0.239635,-30.7192,0.0466804,
2,0,0,1,0,8572.97,0.0394999,0.0391583,-3.06948,7,0.00327475,11,-0.000120196,-2.51293,0.268786,0.219505,-26.1999,0.0391583,
2,0,0,1,0,8573.16,0.0320125,0.031662,-2.88867,7,0.00271811,11,-9.14609e-05,-2.5393,0.333039,0.177156,-20.0107,0.031662,
2,0,0,1,0,8573.35,0.0245198,0.0242081,-2.77967,7,0.00218707,11,-6.72906e-05,-2.55601,0.569158,0.103662,-11.2551,0.0242081,
2,0,0,1,0,8573.53,0.0170289,0.0166726,-2.727,7,0.00167125,11,-4.54663e-05,-2.56431,1.74687,0.0337747,-3.59764,0.0166726,
2,0,0,1,0,8573.72,0.0095397,0.00923095,-2.70933,7,0.00116173,11,-2.50097e-05,-2.56714,-3.07005,-0.0192179,2.037,0.00923095,
2,0,0,1,0,8573.91,0.00204518,0.00168396,-2.79187,7,0.000650788,11,-4.7014e-06,-2.5541,-0.738772,-0.0798623,8.52839,0.00168396,
2,0,0,1,0,8573.95,0.000177222,-0.00018904,-2.75307,7,0.000521352,11,5.20441e-07,-2.56018, , , ,-0.00018904,