File: Figure_codes/Fig_3-5/rawdata_trumpetplot_data/before 10th/20221101_1-115_002_TrumpetPlot_ParaChange_16_CV_C01_6.csv
mode,ox/red,error,control changes,counter inc.,time/s,control/V,Ewe/V,<I>/mA,cycle number,(Q-Qo)/C,I Range,P/W,log(|I|),Tafel slope mV/dec,alpha_eff,dI/d(E-IR),E-IR/V,
2,1,0,1,0,8608.85,2.44065e-05,-0.000821594,66.5148,7,0.0000000E+000,10,-5.46481e-05,-1.17708, , , ,-0.000821594,
2,1,0,1,0,8608.86,0.0131086,0.0127643,54.2584,7,0.000748269,10,0.000692573,-1.26553,-0.617936,-0.0954791,-206.06,0.0127643,
2,1,0,1,0,8608.88,0.0271416,0.0267564,53.5019,7,0.00150074,10,0.00143152,-1.27163,-8.09796,-0.00728578,-15.2386,0.0267564,
2,1,0,1,0,8608.89,0.0411248,0.0407527,53.5257,7,0.00224951,10,0.00218132,-1.27144,8.03037,0.00734711,15.3646,0.0407527,
2,1,0,1,0,8608.9,0.0551079,0.0547257,53.9157,7,0.00300125,10,0.00295057,-1.26828,3.09188,0.0190823,40.1946,0.0547257,
2,1,0,1,0,8608.92,0.0691409,0.0687549,54.7079,7,0.00376072,10,0.00376144,-1.26195,1.47617,0.0399683,85.5177,0.0687549,
2,1,0,1,0,8608.93,0.083124,0.0827755,56.2159,7,0.00453679,10,0.0046533,-1.25014,0.995063,0.0592927,130.374,0.0827755,
2,1,0,1,0,8608.95,0.0971071,0.0967475,58.463,7,0.00533874,10,0.00565614,-1.23312,0.691204,0.0853584,195.254,0.0967475,
2,1,0,1,0,8608.96,0.11114,0.110781,61.58,7,0.00617856,10,0.00682188,-1.21056,0.573571,0.102864,247.511,0.110781,
2,1,0,1,0,8608.97,0.125123,0.124779,65.3214,7,0.00706665,10,0.00815076,-1.18494,0.526361,0.11209,286.026,0.124779,
2,1,0,1,0,8608.99,0.139106,0.13876,69.6021,7,0.0080109,10,0.00965797,-1.15738,0.4927,0.119748,325.618,0.13876,
2,1,0,1,0,8609,0.153139,0.152797,74.4269,7,0.00901901,10,0.0113722,-1.12827,0.471871,0.125034,363.49,0.152797,
2,1,0,1,0,8609.02,0.167123,0.166798,79.8014,7,0.0100986,10,0.0133107,-1.09799,0.454829,0.129719,404.246,0.166798,
2,1,0,1,0,8609.03,0.181106,0.180747,85.6424,7,0.011257,10,0.0154796,-1.06731,0.466024,0.126603,423.046,0.180747,
2,1,0,1,0,8609.04,0.195139,0.194779,91.4816,7,0.0124981,10,0.0178187,-1.03867,0.543716,0.108513,386.638,0.194779,
2,1,0,1,0,8609.06,0.209122,0.208808,96.3234,7,0.0138148,10,0.0201131,-1.01627,0.810125,0.0728282,272.538,0.208808,
2,1,0,1,0,8609.07,0.223105,0.222781,98.5935,7,0.0151837,10,0.0219648,-1.00615,27.5622,0.00214062,8.17106,0.222781,
2,1,0,1,0,8609.09,0.237138,0.236842,95.9238,7,0.0165525,10,0.0227188,-1.01807,-0.513739,-0.114844,-424.93,0.236842,
2,1,0,1,0,8609.1,0.251121,0.250876,86.8215,7,0.0178376,10,0.0217815,-1.06137,-0.238122,-0.247772,-830.984,0.250876,
2,1,0,1,0,8609.11,0.265104,0.264915,73.5261,7,0.018961,10,0.0194782,-1.13356,-0.174344,-0.33841,-968.805,0.264915,
2,1,0,1,0,8609.13,0.279137,0.278908,60.5722,7,0.0198961,10,0.0168941,-1.21773,-0.168444,-0.350264,-832.205,0.278908,
2,1,0,1,0,8609.14,0.29312,0.292871,50.7304,7,0.0206699,10,0.0148575,-1.29473,-0.200665,-0.294023,-590.5,0.292871,
2,1,0,1,0,8609.15,0.298714,0.298737,42.941,7,0.021064,10,0.0128281,-1.36713,0.0238199,2.47692,3209.25,0.2987369,
2,1,0,1,0,8609.16,0.28473,0.284689,11.3543,7,0.0214126,10,0.00323245,-1.94484,0.0121235,4.86658,1559.2,0.284689,
2,0,0,1,0,8609.18,0.270747,0.270506,-4.22406,7,0.0214494,10,-0.00114263,-2.37427,-0.0359203,-1.64253,810.532,0.270506,
2,0,0,1,0,8609.19,0.256714,0.256528,-12.6372,7,0.0213248,10,-0.00324179,-1.89835,-0.0595617,-0.990569,452.83,0.256528,
2,0,0,1,0,8609.21,0.242731,0.242509,-17.5338,7,0.0211104,10,-0.0042521,-1.75612,-0.140475,-0.420002,281.589,0.2425088,
2,0,0,1,0,8609.22,0.228748,0.228493,-20.781,7,0.0208406,10,-0.00474833,-1.68233,-0.237595,-0.248322,200.017,0.228493,
2,0,0,1,0,8609.23,0.214715,0.214468,-23.2639,7,0.020531,10,-0.00498936,-1.63332,-0.332333,-0.177533,160.754,0.214468,
2,0,0,1,0,8609.25,0.200732,0.20047,-25.4108,7,0.0201899,10,-0.00509411,-1.59498,-0.379867,-0.155318,154.01,0.20047,
2,0,0,1,0,8609.26,0.186735,0.186503,-27.6342,7,0.0198187,10,-0.00515387,-1.55855,-0.367216,-0.160668,173.686,0.186503,
2,0,0,1,0,8609.28,0.172716,0.172485,-30.3121,7,0.0194132,10,-0.00522837,-1.51838,-0.325771,-0.181109,215.019,0.172485,
2,0,0,1,0,8609.29,0.158733,0.158497,-33.8461,7,0.0189651,10,-0.00536451,-1.47049,-0.261074,-0.22599,300.1,0.158497,
2,0,0,1,0,8609.3,0.144719,0.144495,-38.8514,7,0.0184578,10,-0.00561386,-1.41059,-0.213165,-0.276781,421.929,0.144495,
2,0,0,1,0,8609.32,0.130717,0.130454,-45.6462,7,0.0178675,10,-0.00595471,-1.34059,-0.193266,-0.305279,545.283,0.130454,
2,0,0,1,0,8609.33,0.116733,0.116565,-53.9502,7,0.017171,10,-0.00628873,-1.26801,-0.197352,-0.298958,629.187,0.1165654,
2,0,0,1,0,8609.35,0.102703,0.102496,-63.0634,7,0.0163514,10,-0.00646374,-1.20022,-0.226783,-0.260161,637.381,0.102496,
2,0,0,1,0,8609.36,0.0887172,0.0886332,-71.642,7,0.015407,10,-0.00634986,-1.14483,-0.281358,-0.209697,584.279,0.0886332,
2,0,0,1,0,8609.37,0.0747341,0.0746221,-79.1951,7,0.0143486,10,-0.0059097,-1.1013,-0.371006,-0.159027,489.768,0.0746221,
2,0,0,1,0,8609.39,0.0607011,0.0605272,-85.3563,7,0.0131945,10,-0.00516637,-1.06876,-0.54395,-0.108466,359.286,0.0605272,
2,0,0,1,0,8609.4,0.046718,0.0464259,-89.0576,7,0.0119701,10,-0.00413458,-1.05033,-1.19871,-0.0492196,170.259,0.0464259,
2,0,0,1,0,8609.42,0.0327349,0.0324465,-90.1804,7,0.0107125,10,-0.00292604,-1.04489,93.3845,0.000631796,-2.21477,0.0324465,
2,0,0,1,0,8609.43,0.0187018,0.018394,-89.2973,7,0.00945498,10,-0.00164254,-1.04916,1.87807,0.0314152,-109.212,0.018394,
2,0,0,1,0,8609.44,0.00471873,0.0044359,-87.1931,7,0.00821874,10,-0.00038678,-1.05952,1.14572,0.0514961,-175.054,0.0044359,
2,0,0,1,0,8609.46,-0.00926438,-0.00956677,-84.3313,7,0.00701694,10,0.000806778,-1.07401,0.772296,0.0763955,-250.747,-0.00956677,
2,0,0,1,0,8609.47,-0.0232974,-0.0236331,-80.2573,7,0.00586406,10,0.00189673,-1.09552,0.552627,0.106763,-333.363,-0.0236331,
2,0,0,1,0,8609.49,-0.0372805,-0.0376379,-75.0803,7,0.00477658,10,0.00282586,-1.12447,0.464082,0.127133,-372.586,-0.0376379,
2,0,0,1,0,8609.5,-0.0512637,-0.0515748,-70.1893,7,0.00376139,10,0.00362,-1.15373,0.529508,0.111424,-306.055,-0.0515748,
2,0,0,1,0,8609.51,-0.0652967,-0.065639,-66.7154,7,0.00280546,10,0.00437913,-1.17577,0.790497,0.0746366,-194.888,-0.065639,
2,0,0,1,0,8609.53,-0.0792798,-0.0795833,-64.6209,7,0.00188777,10,0.00514274,-1.18963,1.44136,0.0409335,-103.566,-0.0795833,
2,0,0,1,0,8609.54,-0.0932629,-0.0935754,-63.7414,7,0.000990406,10,0.00596463,-1.19558,4.82918,0.0122174,-30.4563,-0.0935754,
2,0,0,1,0,8609.56,-0.107296,-0.107635,-63.7822,7,9.88864e-05,10,0.00686522,-1.1953,-5.95189,-0.00991281,24.6916,-0.107635,
2,0,0,1,0,8609.57,-0.121279,-0.121572,-64.3275,7,-0.000797219,10,0.00782044,-1.1916,-2.56003,-0.0230466,57.9249,-0.121572,
2,0,0,1,0,8609.58,-0.135262,-0.135588,-65.3476,7,-0.00170459,10,0.00886032,-1.18477,-1.74555,-0.0338002,86.2782,-0.135588,
2,0,0,1,0,8609.6,-0.149295,-0.149557,-66.7704,7,-0.00262915,10,0.00998601,-1.17542,-1.40743,-0.0419203,109.241,-0.149557,
2,0,0,1,0,8609.61,-0.163278,-0.163569,-68.3588,7,-0.00357496,10,0.0111814,-1.16521,-1.29989,-0.0453886,121.129,-0.1635686,
2,0,0,1,0,8609.63,-0.177261,-0.177548,-70.1412,7,-0.00454441,10,0.0124534,-1.15403,-1.19988,-0.0491715,134.661,-0.177548,
2,0,0,1,0,8609.64,-0.191295,-0.191585,-72.2028,7,-0.00554065,10,0.0138329,-1.14145,-1.07115,-0.0550809,155.182,-0.191585,
2,0,0,1,1,8609.65,-0.199984,-0.200418,-73.278,7,-0.00621874,10,0.0146862,-1.13503,-0.0352168,-1.67534,4147.48,-0.200418,
2,0,0,1,1,8609.66,-0.186686,-0.1871,-42.6217,7,-0.00695399,10,0.00797452,-1.37037,-0.0525584,-1.12256,1858.77,-0.1871001,
2,0,0,1,1,8609.68,-0.172667,-0.17308,-20.568,7,-0.00738616,10,0.00355991,-1.68681,-0.0326933,-1.80465,1364.03,-0.17308,
2,0,0,1,1,8609.69,-0.158684,-0.159127,-3.74668,7,-0.00754979,10,0.000596197,-2.42635,-0.0329317,-1.79158,1070.79,-0.159127,
2,1,0,1,1,8609.7,-0.14467,-0.145174,9.64878,7,-0.00750422,10,-0.00140075,-2.01553,0.0189544,3.11273,862.404,-0.145174,
2,1,0,1,1,8609.72,-0.130668,-0.13114,20.5657,7,-0.00728938,10,-0.002697,-1.68686,0.0638878,0.923495,709.72,-0.13114,
2,1,0,1,1,8609.73,-0.116685,-0.117061,29.5394,7,-0.00693559,10,-0.00345792,-1.5296,0.115874,0.509174,576.551,-0.117061,
2,1,0,1,1,8609.75,-0.102654,-0.10303,36.8722,7,-0.00646867,10,-0.00379894,-1.4333,0.17892,0.329756,469.496,-0.10303,
2,1,0,1,1,8609.76,-0.0886685,-0.0890252,42.7422,7,-0.00590933,10,-0.00380513,-1.36914,0.258247,0.228463,378.875,-0.0890252,
2,1,0,1,1,8609.77,-0.0746854,-0.0750607,47.4944,7,-0.00527588,10,-0.00356497,-1.32336,0.356712,0.1654,305.403,-0.0750607,
2,1,0,1,1,8609.79,-0.0606523,-0.0610294,51.3943,7,-0.00458272,10,-0.00313656,-1.28909,0.481047,0.122649,244.983,-0.0610294,
2,1,0,1,1,8609.8,-0.0466692,-0.0470055,54.3759,7,-0.00384138,10,-0.00255596,-1.26459,0.662917,0.0890006,188.384,-0.0470055,
2,1,0,1,1,8609.82,-0.0326861,-0.0330495,56.6638,7,-0.0030631,10,-0.00187271,-1.24669,0.919554,0.0641616,141.632,-0.0330495,
2,1,0,1,1,8609.83,-0.018653,-0.0190033,58.411,7,-0.00225691,10,-0.00111,-1.23351,1.33194,0.0442963,100.749,-0.0190033,
2,1,0,1,1,8609.84,-0.00466992,-0.00502717,59.4804,7,-0.00143095,10,-0.000299018,-1.22563, , , ,-0.005027168,
2,1,0,1,1,8609.85,-0.000175352,-0.000611633,59.6984,7,-0.00116278,10,-3.65135e-05,-1.22404, , , ,-0.000611633,