File: Figure_codes/Fig_3-5/rawdata_trumpetplot_data/before 10th/20221101_1-115_002_TrumpetPlot_ParaChange_04_CV_C01_3.csv
mode,ox/red,error,control changes,counter inc.,time/s,control/V,Ewe/V,<I>/mA,cycle number,(Q-Qo)/C,I Range,P/W,log(|I|),Tafel slope mV/dec,alpha_eff,dI/d(E-IR),E-IR/V,
2,0,0,1,0,4053.69,2.44065e-05,-0.000382585,-0.369723,4,0.0000000E+000,11,1.41451e-07,-3.43212, , , ,-0.000382585,
2,0,0,1,0,4060.95,0.00729061,0.00701479,-0.0934033,4,-0.000829291,11,-6.55205e-07,-4.02964,-0.0346694,-1.70179,6.3232,0.00701479,
2,0,0,1,0,4068.44,0.0147815,0.0144598,-0.061801,4,-0.00125034,11,-8.93633e-07,-4.209,-0.0484693,-1.21727,2.9359,0.0144598,
2,0,0,1,0,4075.93,0.0222725,0.0220015,-0.0441665,4,-0.0014964,11,-9.71727e-07,-4.35491,-0.0583276,-1.01153,1.75407,0.0220015,
2,0,0,1,0,4083.43,0.0297635,0.0294923,-0.0313538,4,-0.00163319,11,-9.24693e-07,-4.50371,-0.0497109,-1.18686,1.46089,0.0294923,
2,0,0,1,0,4090.92,0.0372544,0.0369543,-0.0217996,4,-0.00168689,11,-8.0559e-07,-4.66155,-0.0450697,-1.30908,1.11736,0.0369543,
2,0,0,1,0,4098.41,0.0447454,0.0444387,-0.0123254,4,-0.00166844,11,-5.47724e-07,-4.9092,-0.0216458,-2.7257,1.31196,0.0444387,
2,0,0,1,0,4105.9,0.0522363,0.0519612,-0.00307499,4,-0.00157885,11,-1.5978e-07,-5.51216,-0.00228429,-25.8286,1.49706,0.0519612,
2,1,0,1,0,4113.39,0.0597273,0.0594265,0.0074397,4,-0.00141428,11,4.42116e-07,-5.12844,0.014248,4.14095,1.13812,0.0594265,
2,1,0,1,0,4120.88,0.0672183,0.0669395,0.0180569,4,-0.00116944,11,1.20872e-06,-4.74336,0.0292293,2.01852,1.39018,0.0669395,
2,1,0,1,0,4128.37,0.0747092,0.074426,0.0290006,4,-0.000842618,11,2.1584e-06,-4.53759,0.0420989,1.40146,1.5879,0.074426,
2,1,0,1,0,4135.86,0.0822001,0.0818826,0.0379991,4,-0.000436749,11,3.11147e-06,-4.42023,0.0679288,0.868557,1.30706,0.0818826,
2,1,0,1,0,4143.35,0.0896911,0.0894095,0.0474851,4,4.11327e-05,11,4.24562e-06,-4.32344,0.084166,0.700996,1.33603,0.0894095,
2,1,0,1,0,4150.84,0.0971821,0.0969056,0.0576113,4,0.000589073,11,5.58285e-06,-4.23949,0.0795188,0.741963,1.65384,0.0969056,
2,1,0,1,0,4158.34,0.104673,0.104391,0.0700703,4,0.00121377,11,7.31469e-06,-4.15447,0.0830192,0.710679,1.90753,0.104391,
2,1,0,1,0,4165.83,0.112164,0.111879,0.0852937,4,0.00194184,11,9.54261e-06,-4.06908,0.085006,0.694068,2.29515,0.111879,
2,1,0,1,0,4173.32,0.119655,0.119392,0.107835,4,0.00281402,11,1.28746e-05,-3.96724,0.08021,0.735569,3.08048,0.119392,
2,1,0,1,0,4180.81,0.127146,0.126875,0.129381,4,0.00386431,11,1.64151e-05,-3.88813,0.099664,0.591989,3.03206,0.126875,
2,1,0,1,0,4188.3,0.134637,0.134316,0.15067,4,0.00508527,11,2.02374e-05,-3.82197,0.198068,0.297877,1.75545,0.134316,
2,1,0,1,0,4195.79,0.142128,0.14182,0.157374,4,0.00641161,11,2.23187e-05,-3.80307,-0.857196,-0.0688291,-0.421393,0.14182,
2,1,0,1,0,4203.28,0.149619,0.149321,0.143187,4,0.00770903,11,2.13809e-05,-3.8441,-0.098567,-0.598577,-3.32489,0.149321,
2,1,0,1,0,4210.77,0.15711,0.156829,0.111305,4,0.00882356,11,1.74559e-05,-3.95349,-0.0559823,-1.0539,-4.56227,0.156829,
2,1,0,1,0,4218.26,0.164601,0.164317,0.0832867,4,0.00969968,11,1.36854e-05,-4.07942,-0.0646413,-0.912729,-2.96909,0.164317,
2,1,0,1,0,4225.75,0.172091,0.171799,0.0653448,4,0.0104033,11,1.12262e-05,-4.18479,-0.088183,-0.669063,-1.72332,0.171799,
2,1,0,1,0,4233.24,0.179582,0.179346,0.0566706,4,0.0110074,11,1.01636e-05,-4.24664,-0.126306,-0.46712,-1.02874,0.179346,
2,1,0,1,0,4240.74,0.187073,0.1868,0.0511982,4,0.0115555,11,9.56385e-06,-4.29075,-0.165011,-0.357551,-0.715323,0.1868,
2,1,0,1,0,4248.23,0.194564,0.194253,0.0474197,4,0.0120707,11,9.21141e-06,-4.32404,-0.331793,-0.177822,-0.333881,0.194253,
2,1,0,1,0,4255.72,0.202055,0.201767,0.0462966,4,0.012567,11,9.34112e-06,-4.33445,-0.479806,-0.122966,-0.221816,0.201767,
2,1,0,1,0,4263.21,0.209546,0.209311,0.0455375,4,0.0130523,11,9.53147e-06,-4.34163,0.60741,0.0971337,0.172102,0.209311,
2,1,0,1,0,4270.7,0.217037,0.216775,0.0452824,4,0.0135321,11,9.81609e-06,-4.34407,8.67773,0.00679901,0.0120192,0.2167749,
2,1,0,1,0,4278.19,0.224528,0.224221,0.0449878,4,0.0140103,11,1.00872e-05,-4.3469,1.11262,0.0530278,0.0940181,0.224221,
2,1,0,1,0,4285.68,0.232019,0.231727,0.045494,4,0.01449,11,1.05422e-05,-4.34205,3.65857,0.0161265,0.028775,0.231727,
2,1,0,1,0,4293.17,0.23951,0.239193,0.0462075,4,0.0149715,11,1.10525e-05,-4.33529,-1.90032,-0.0310473,-0.0563465,0.239193,
2,1,0,1,0,4300.66,0.247001,0.246721,0.0465615,4,0.0154565,11,1.14877e-05,-4.33197,2.73184,0.0215971,0.0397486,0.246721,
2,1,0,1,0,4308.15,0.254492,0.254213,0.0477561,4,0.0159451,11,1.21402e-05,-4.32097,1.24771,0.0472865,0.0882071,0.254213,
2,1,0,1,0,4315.65,0.261983,0.261675,0.0485057,4,0.0164379,11,1.26927e-05,-4.31421,2.05699,0.0286827,0.0541404,0.261675,
2,1,0,1,0,4323.14,0.269474,0.269187,0.0491683,4,0.016935,11,1.32354e-05,-4.30831,0.852809,0.0691831,0.132445,0.269187,
2,1,0,1,0,4330.63,0.276965,0.276678,0.0494479,4,0.0174374,11,1.36811e-05,-4.30585,1.4236,0.0414444,0.0806451,0.276678,
2,1,0,1,0,4338.12,0.284456,0.284184,0.0501786,4,0.0179439,11,1.426e-05,-4.29948,0.415005,0.142167,0.2801,0.284184,
2,1,0,1,0,4345.61,0.291947,0.291625,0.0513108,4,0.0184554,11,1.49635e-05,-4.28979,34.8305,0.00169392,0.00339971,0.291625,
2,1,0,1,0,4353.1,0.299438,0.299159,0.0519555,4,0.018971,11,1.5543e-05,-4.28437,-0.00605214,-9.74863,-14.2679,0.299159,
2,1,0,1,0,4359.94,0.293745,0.293438,0.011363,4,0.0190222,11,3.33435e-06,-4.94451,0.0171463,3.44097,1.57015,0.293438,
2,1,0,1,0,4367.43,0.286254,0.285953,0.00348495,4,0.018949,11,9.96529e-07,-5.4578,0.0084747,6.9619,0.901066,0.285953,
2,1,0,1,0,4374.92,0.278763,0.278466,-0.00232225,4,0.0188238,11,-6.46667e-07,-5.63409,-0.00514754,-11.4618,0.841145,0.278466,
2,1,0,1,0,4382.41,0.271272,0.270985,-0.00688405,4,0.0186588,11,-1.86547e-06,-5.16216,-0.0350657,-1.68256,0.45431,0.270985,
2,0,0,1,0,4389.91,0.263781,0.26349,-0.0108565,4,0.0184605,11,-2.86058e-06,-4.96431,-0.0527341,-1.11882,0.485583,0.26349,
2,0,0,1,0,4397.4,0.25629,0.256031,-0.0151296,4,0.0182327,11,-3.87366e-06,-4.82017,-0.0643603,-0.916715,0.521537,0.256031,
2,0,0,1,0,4404.89,0.248799,0.24846,-0.0184855,4,0.0179774,11,-4.59291e-06,-4.73317,-0.102481,-0.575718,0.411709,0.24846,
2,0,0,1,0,4412.38,0.241308,0.241011,-0.0216172,4,0.017696,11,-5.20998e-06,-4.6652,-0.124002,-0.475799,0.398104,0.241011,
2,0,0,1,0,4419.87,0.233817,0.233525,-0.0247005,4,0.0173892,11,-5.76818e-06,-4.60729,-0.146022,-0.40405,0.397877,0.233525,
2,0,0,1,0,4427.36,0.226326,0.226051,-0.0276626,4,0.0170563,11,-6.25318e-06,-4.55811,-0.161251,-0.365889,0.400413,0.226051,
2,0,0,1,0,4434.85,0.218835,0.218541,-0.0318589,4,0.0166974,11,-6.9625e-06,-4.49677,-0.215796,-0.273406,0.333379,0.2185415,
2,0,0,1,0,4442.34,0.211344,0.211025,-0.0349813,4,0.0163116,11,-7.38195e-06,-4.45616,-0.161952,-0.364304,0.496583,0.211025,
2,0,0,1,0,4449.83,0.203853,0.203541,-0.0391026,4,0.0158954,11,-7.95899e-06,-4.40779,-0.148971,-0.396049,0.605229,0.203541,
2,0,0,1,0,4457.32,0.196362,0.196076,-0.0436825,4,0.0154461,11,-8.56509e-06,-4.35969,-0.119309,-0.494515,0.844748,0.196076,
2,0,0,1,0,4464.82,0.188871,0.188558,-0.0498666,4,0.0149561,11,-9.40278e-06,-4.30219,-0.113589,-0.519417,1.00277,0.188558,
2,0,0,1,0,4472.31,0.18138,0.18111,-0.0570387,4,0.0144154,11,-1.03303e-05,-4.24383,-0.134704,-0.437999,0.971548,0.18111,
2,0,0,1,0,4479.8,0.173889,0.173585,-0.067268,4,0.0138067,11,-1.16767e-05,-4.17219,-0.0870844,-0.677504,1.78544,0.173585,
2,0,0,1,0,4487.29,0.166398,0.166127,-0.0837556,4,0.0130987,11,-1.3914e-05,-4.07699,-0.0763772,-0.772482,2.52436,0.166127,
2,0,0,1,0,4494.78,0.158907,0.158658,-0.108579,4,0.012237,11,-1.7227e-05,-3.96425,-0.060498,-0.975239,4.1379,0.158658,
2,0,0,1,0,4502.27,0.151417,0.151091,-0.143956,4,0.0111414,11,-2.17505e-05,-3.84177,-0.0705536,-0.836243,4.70169,0.1510912,
2,0,0,1,0,4509.76,0.143926,0.143655,-0.178222,4,0.00977343,11,-2.56024e-05,-3.74904,-0.0952986,-0.619107,4.27848,0.143655,
2,0,0,1,0,4517.25,0.136435,0.136122,-0.197399,4,0.00820156,11,-2.68705e-05,-3.70465,-0.449996,-0.131112,1.00001,0.136122,
2,0,0,1,0,4524.74,0.128944,0.128625,-0.196449,4,0.00656636,11,-2.52683e-05,-3.70675,0.345509,0.170763,-1.30342,0.128625,
2,0,0,1,0,4532.23,0.121453,0.121162,-0.183453,4,0.00498751,11,-2.22275e-05,-3.73648,0.198657,0.296995,-2.12177,0.121162,
2,0,0,1,0,4539.72,0.113962,0.11364,-0.165301,4,0.00352547,11,-1.87847e-05,-3.78173,0.180765,0.326392,-2.11826,0.11364,
2,0,0,1,0,4547.22,0.106471,0.106165,-0.151652,4,0.00218431,11,-1.61001e-05,-3.81915,0.246183,0.239659,-1.42619,0.106165,
2,0,0,1,0,4554.71,0.0989798,0.0986911,-0.141938,4,0.000933321,11,-1.4008e-05,-3.8479,0.34703,0.170014,-0.944335,0.0986911,
2,0,0,1,0,4562.2,0.0914889,0.091174,-0.135681,4,-0.000256614,11,-1.23706e-05,-3.86748,0.447221,0.131926,-0.698336,0.091174,
2,0,0,1,0,4569.69,0.083998,0.0836737,-0.12984,4,-0.00139952,11,-1.08642e-05,-3.88659,0.294458,0.200368,-1.0154,0.0836737,
2,0,0,1,0,4577.18,0.076507,0.0761798,-0.124383,4,-0.00249761,11,-9.47545e-06,-3.90524,0.297983,0.197998,-0.954514,0.0761798,
2,0,0,1,0,4584.67,0.069016,0.068688,-0.117516,4,-0.00354775,11,-8.07192e-06,-3.9299,0.306933,0.192224,-0.881252,0.068688,
2,0,0,1,0,4592.16,0.0615251,0.0612207,-0.111413,4,-0.00454944,11,-6.82081e-06,-3.95306,0.266459,0.221423,-0.95935,0.0612207,
2,0,0,1,0,4599.65,0.0540342,0.053747,-0.106422,4,-0.0055063,11,-5.71987e-06,-3.97297,0.488007,0.1209,-0.498562,0.053747,
2,0,0,1,0,4607.14,0.0465432,0.0462605,-0.10229,4,-0.00642945,11,-4.73199e-06,-3.99017,0.603758,0.0977213,-0.390242,0.04626048,
2,0,0,1,0,4614.63,0.0390522,0.0387326,-0.100695,4,-0.00733196,11,-3.90018e-06,-3.99699,1.57774,0.0373953,-0.146261,0.0387326,
2,0,0,1,0,4622.13,0.0315613,0.0312144,-0.100201,4,-0.00822661,11,-3.1277e-06,-3.99913,6.55564,0.00899988,-0.0351907,0.0312144,
2,0,0,1,0,4629.62,0.0240703,0.0237788,-0.101059,4,-0.00912346,11,-2.40307e-06,-3.99542,-1.56323,-0.0377424,0.148877,0.0237788,
2,0,0,1,0,4637.11,0.0165794,0.0162998,-0.102917,4,-0.0100319,11,-1.67752e-06,-3.98751,-0.504234,-0.117009,0.470303,0.0162998,
2,0,0,1,0,4644.6,0.00908843,0.00880052,-0.106013,4,-0.0109604,11,-9.32972e-07,-3.97464,-0.46389,-0.127185,0.527165,0.00880052,
2,0,0,1,0,4652.09,0.00159744,0.00129278,-0.11085,4,-0.0119193,11,-1.43305e-07,-3.95526, , , ,0.00129278,
2,0,0,1,0,4653.49,0.000199235,-0.000159223,-0.11183,4,-0.0121018,11,1.78058e-08,-3.95144, , , ,-0.0001592226,