File: Figure_codes/Fig_1A/20230224_2-6_BareFTO_superfine.TXT
2theta,intensity,,,,
5,404.167,Sample,alpha-MnO2_on_FTO,,
5.04,383.75,Comments,meas_very_fine,,
5.08,402.083,Filename,C:\data\BCRT\Yatsuzuka\20230224_2-6_XRD_afterCV60scans\20230224_2-6_BareFTO_superfine.raw,,
5.12,402.5,Goniometer,Ultima+,theta-theta,goniometer
5.16,379.583,Attachment,Standard,sample,holder
5.2,406.25,Monochromater,Fixed,Monochromator,
5.24,387.5,ScanningMode,2Theta/Theta,,
5.28,382.083,ScanningType,Continuos,Scanning,
5.32,377.5,X-Ray,40kV/40mA,,
5.36,372.5,DivSlit,1,deg.,
5.4,360.833,DivH.L.Slit,10mm,,
5.44,357.917,SctSlit,1,deg.,
5.48,365,RecSlit,0.6mm,,
5.52,367.083,Monochro,RS,No,Use
5.56,365.833,Start,5,,
5.6,362.917,Stop,50,,
5.64,354.583,Step,0.04,,
5.68,350.417,Speed,1,,
5.72,346.667,Offset,0,,
5.76,347.083,TempUnit,Celsius,,
5.8,347.917,StartTime,2023/02/24,15:32:43,
5.84,336.25,StartTemp,0,,
5.88,334.167,StopTime,2023/02/24,16:17:54,
5.92,318.75,StopTemp,0,,
5.96,350.833,,,,
6.12,303.75,,,,
6.28,305.417,,,,
6.44,315,,,,
6.6,293.75,,,,
6.76,305,,,,
6.92,262.083,,,,
7.08,282.917,,,,
7.24,259.583,,,,
7.4,232.917,,,,
7.56,247.5,,,,
7.72,225.417,,,,
7.88,235.417,,,,
8.04,232.5,,,,
8.2,216.667,,,,
8.36,234.583,,,,
8.52,221.667,,,,
8.68,225,,,,
8.84,199.583,,,,
9,207.917,,,,
9.16,201.25,,,,
9.32,192.083,,,,
9.48,193.75,,,,
9.64,189.583,,,,
9.8,190,,,,
9.96,184.583,,,,
10.12,177.5,,,,
10.28,184.167,,,,
10.44,172.917,,,,
10.6,162.5,,,,
10.76,183.333,,,,
10.92,178.75,,,,
11.08,181.667,,,,
11.24,158.75,,,,
11.4,177.083,,,,
11.56,165.833,,,,
11.72,152.083,,,,
11.88,190,,,,
12.04,164.167,,,,
12.2,170.417,,,,
12.36,158.75,,,,
12.52,163.75,,,,
12.68,168.333,,,,
12.84,169.583,,,,
13,167.917,,,,
13.16,163.75,,,,
13.32,162.5,,,,
13.48,166.667,,,,
13.64,179.167,,,,
13.8,167.5,,,,
13.96,173.75,,,,
14.12,176.667,,,,
14.28,167.917,,,,
14.44,168.333,,,,
14.6,170.833,,,,
14.76,164.583,,,,
14.92,163.75,,,,
15.08,179.583,,,,
15.24,159.583,,,,
15.4,180,,,,
15.56,184.583,,,,
15.72,187.083,,,,
15.88,192.083,,,,
16.04,202.5,,,,
16.2,205.833,,,,
16.36,207.917,,,,
16.52,219.167,,,,
16.68,206.25,,,,
16.84,199.583,,,,
17,213.75,,,,
17.16,229.583,,,,
17.32,213.333,,,,
17.48,224.167,,,,
17.64,235,,,,
17.8,246.667,,,,
17.96,249.167,,,,
18.12,262.917,,,,
18.28,256.25,,,,
18.44,262.5,,,,
18.6,288.75,,,,
18.76,269.167,,,,
18.92,288.75,,,,
19.08,289.583,,,,
19.24,302.5,,,,
19.4,328.333,,,,
19.56,339.583,,,,
19.72,346.25,,,,
19.88,356.667,,,,
20.04,336.667,,,,
20.2,368.333,,,,
20.36,361.25,,,,
20.52,387.083,,,,
20.68,396.25,,,,
20.84,381.667,,,,
21,404.167,,,,
21.16,437.917,,,,
21.32,420.833,,,,
21.48,425.833,,,,
21.64,429.583,,,,
21.8,440.833,,,,
21.96,452.083,,,,
22.12,434.167,,,,
22.28,474.167,,,,
22.44,449.167,,,,
22.6,488.75,,,,
22.76,480,,,,
22.92,459.583,,,,
23.08,460,,,,
23.24,475,,,,
23.4,499.583,,,,
23.56,490.833,,,,
23.72,452.917,,,,
23.88,494.583,,,,
24.04,483.75,,,,
24.2,474.583,,,,
24.36,516.25,,,,
24.52,534.167,,,,
24.68,526.667,,,,
24.84,498.333,,,,
25,495.833,,,,
25.16,470.417,,,,
25.32,499.583,,,,
25.48,502.083,,,,
25.64,518.75,,,,
25.8,513.333,,,,
25.96,556.667,,,,
26.12,583.75,,,,
26.28,694.583,,,,
26.44,964.167,,,,
26.6,1163.75,,,,
26.76,810.833,,,,
26.92,600.417,,,,
27.08,528.333,,,,
27.24,492.5,,,,
27.4,463.333,,,,
27.56,429.583,,,,
27.72,430,,,,
27.88,421.25,,,,
28.04,429.583,,,,
28.2,386.25,,,,
28.36,393.75,,,,
28.52,357.917,,,,
28.68,350,,,,
28.84,370.833,,,,
29,374.167,,,,
29.16,340,,,,
29.32,360.417,,,,
29.48,347.5,,,,
29.64,350.833,,,,
29.8,350.417,,,,
29.96,325,,,,
30.12,338.75,,,,
30.28,312.5,,,,
30.44,331.25,,,,
30.6,347.917,,,,
30.76,342.917,,,,
30.92,346.667,,,,
31.08,391.667,,,,
31.24,979.167,,,,
31.4,936.667,,,,
31.56,618.75,,,,
31.72,512.083,,,,
31.88,442.917,,,,
32.04,413.75,,,,
32.2,401.25,,,,
32.36,386.25,,,,
32.52,361.25,,,,
32.68,360,,,,
32.84,375.417,,,,
33,360.833,,,,
33.16,405.417,,,,
33.32,400,,,,
33.48,448.75,,,,
33.64,547.917,,,,
33.8,705.417,,,,
33.96,627.917,,,,
34.12,470,,,,
34.28,382.917,,,,
34.44,341.25,,,,
34.6,338.333,,,,
34.76,296.667,,,,
34.92,282.5,,,,
35.08,281.667,,,,
35.24,275.833,,,,
35.4,270.417,,,,
35.56,262.083,,,,
35.72,250.417,,,,
35.88,250.417,,,,
36.04,252.5,,,,
36.2,262.083,,,,
36.36,247.5,,,,
36.52,250.833,,,,
36.68,260,,,,
36.84,252.083,,,,
37,265.833,,,,
37.16,259.583,,,,
37.32,261.667,,,,
37.48,302.5,,,,
37.64,386.25,,,,
37.8,769.167,,,,
37.96,3005,,,,
38.12,1940,,,,
38.28,550,,,,
38.44,333.75,,,,
38.6,260,,,,
38.76,249.583,,,,
38.92,228.75,,,,
39.08,248.333,,,,
39.24,236.667,,,,
39.4,232.917,,,,
39.56,204.167,,,,
39.72,218.75,,,,
39.88,201.25,,,,
40.04,233.333,,,,
40.2,224.167,,,,
40.36,213.75,,,,
40.52,244.167,,,,
40.68,229.167,,,,
40.84,214.583,,,,
41,212.917,,,,
41.16,217.917,,,,
41.32,224.583,,,,
41.48,228.333,,,,
41.64,237.5,,,,
41.8,219.583,,,,
41.96,229.167,,,,
42.12,240,,,,
42.28,245.833,,,,
42.44,239.583,,,,
42.6,231.667,,,,
42.76,235.833,,,,
42.92,230.417,,,,
43.08,245.417,,,,
43.24,241.25,,,,
43.4,227.083,,,,
43.56,226.667,,,,
43.72,227.5,,,,
43.88,222.083,,,,
44.04,232.917,,,,
44.2,223.75,,,,
44.36,225.417,,,,
44.52,232.917,,,,
44.68,216.667,,,,
44.84,215.417,,,,
45,230.417,,,,
45.16,223.333,,,,
45.32,231.25,,,,
45.48,222.917,,,,
45.64,217.5,,,,
45.8,219.583,,,,
45.96,222.917,,,,
46.12,221.667,,,,
46.28,200.833,,,,
46.44,225.417,,,,
46.6,228.333,,,,
46.76,218.333,,,,
46.92,230,,,,
47.08,205,,,,
47.24,212.083,,,,
47.4,235.417,,,,
47.56,220.833,,,,
47.72,219.583,,,,
47.88,203.75,,,,
48.04,212.083,,,,
48.2,217.5,,,,
48.36,224.167,,,,
48.52,215.833,,,,
48.68,232.5,,,,
48.84,224.167,,,,
49,212.5,,,,
49.16,223.75,,,,
49.32,220.833,,,,
49.48,197.5,,,,
49.64,212.5,,,,
49.8,202.083,,,,
49.96,222.083,,,,
50,250.417,,,,