File: Figure_codes/Fig_1A/20230315_2-7_003_pxrd_non-sprayed_wide.TXT
2theta,intensity,,,,
5,116.563,Sample,alpha-MnO2_on_FTO,,
5.08,106.771,Comments,meas_very_fine,,
5.16,113.646,Filename,C:\data\BCRT\Yatsuzuka\20230315_2-7_pxrd_non-sprayed\20230315_2-7_003_pxrd_non-sprayed_wide.raw,,
5.24,106.042,Goniometer,Ultima+,theta-theta,goniometer
5.32,102.708,Attachment,Standard,sample,holder
5.4,103.542,Monochromater,Fixed,Monochromator,
5.48,99.375,ScanningMode,2Theta/Theta,,
5.56,92.9167,ScanningType,Continuos,Scanning,
5.64,89.8958,X-Ray,40kV/40mA,,
5.72,81.875,DivSlit,1/2,deg.,
5.8,81.4583,DivH.L.Slit,10mm,,
5.88,82.2917,SctSlit,1/2,deg.,
5.96,80.2083,RecSlit,0.3mm,,
6.04,71.6667,Monochro,RS,No,Use
6.12,75.5208,Start,5,,
6.2,75.5208,Stop,80.04,,
6.28,75.7292,Step,0.08,,
6.36,78.2292,Speed,0.5,,
6.44,70.625,Offset,0,,
6.52,61.7708,TempUnit,Celsius,,
6.6,68.4375,StartTime,2023/03/15,12:39:40,
6.68,69.4792,StartTemp,0,,
6.76,61.875,StopTime,2023/03/15,15:10:04,
6.84,63.5417,StopTemp,0,,
6.92,58.6458,,,,
7.24,54.5833,,,,
7.56,48.3333,,,,
7.88,47.2917,,,,
8.2,39.4792,,,,
8.52,46.25,,,,
8.84,36.6667,,,,
9.16,41.0417,,,,
9.48,34.1667,,,,
9.8,33.125,,,,
10.12,31.9792,,,,
10.44,36.0417,,,,
10.76,32.6042,,,,
11.08,39.375,,,,
11.4,45.9375,,,,
11.72,58.125,,,,
12.04,84.0625,,,,
12.36,116.771,,,,
12.68,143.333,,,,
13,142.292,,,,
13.32,98.3333,,,,
13.64,76.4583,,,,
13.96,50.9375,,,,
14.28,37.5,,,,
14.6,34.4792,,,,
14.92,26.3542,,,,
15.24,27.6042,,,,
15.56,24.5833,,,,
15.88,27.5,,,,
16.2,28.4375,,,,
16.52,33.75,,,,
16.84,40.2083,,,,
17.16,54.375,,,,
17.48,81.875,,,,
17.8,117.188,,,,
18.12,133.438,,,,
18.44,130.104,,,,
18.76,104.479,,,,
19.08,71.9792,,,,
19.4,50.9375,,,,
19.72,39.7917,,,,
20.04,33.0208,,,,
20.36,26.6667,,,,
20.68,23.3333,,,,
21,24.375,,,,
21.32,23.0208,,,,
21.64,20.625,,,,
21.96,16.9792,,,,
22.28,19.8958,,,,
22.6,17.9167,,,,
22.92,16.7708,,,,
23.24,14.8958,,,,
23.56,18.8542,,,,
23.88,17.7083,,,,
24.2,18.4375,,,,
24.52,20.8333,,,,
24.84,23.5417,,,,
25.16,28.75,,,,
25.48,28.125,,,,
25.8,31.5625,,,,
26.12,31.875,,,,
26.44,30.2083,,,,
26.76,30.9375,,,,
27.08,31.25,,,,
27.4,41.1458,,,,
27.72,61.9792,,,,
28.04,85.1042,,,,
28.36,123.021,,,,
28.68,150.625,,,,
29,158.229,,,,
29.32,118.021,,,,
29.64,82.7083,,,,
29.96,57.3958,,,,
30.28,37.8125,,,,
30.6,24.1667,,,,
30.92,22.0833,,,,
31.24,18.125,,,,
31.56,16.6667,,,,
31.88,16.1458,,,,
32.2,15.625,,,,
32.52,15.4167,,,,
32.84,16.6667,,,,
33.16,16.4583,,,,
33.48,14.1667,,,,
33.8,16.5625,,,,
34.12,15.7292,,,,
34.44,19.375,,,,
34.76,19.2708,,,,
35.08,22.6042,,,,
35.4,23.2292,,,,
35.72,34.0625,,,,
36.04,42.3958,,,,
36.36,54.6875,,,,
36.68,73.125,,,,
37,101.563,,,,
37.32,175.938,,,,
37.64,272.813,,,,
37.96,222.5,,,,
38.28,108.542,,,,
38.6,64.6875,,,,
38.92,47.7083,,,,
39.24,40.7292,,,,
39.56,37.0833,,,,
39.88,32.3958,,,,
40.2,26.1458,,,,
40.52,28.75,,,,
40.84,35.3125,,,,
41.16,41.6667,,,,
41.48,55.8333,,,,
41.8,83.6458,,,,
42.12,100.938,,,,
42.44,78.2292,,,,
42.76,45.1042,,,,
43.08,29.0625,,,,
43.4,18.4375,,,,
43.72,15.3125,,,,
44.04,13.3333,,,,
44.36,13.9583,,,,
44.68,13.2292,,,,
45,13.4375,,,,
45.32,17.7083,,,,
45.64,15.625,,,,
45.96,19.5833,,,,
46.28,22.2917,,,,
46.6,21.0417,,,,
46.92,25.9375,,,,
47.24,23.9583,,,,
47.56,25.2083,,,,
47.88,22.3958,,,,
48.2,19.1667,,,,
48.52,25.7292,,,,
48.84,27.2917,,,,
49.16,42.1875,,,,
49.48,68.4375,,,,
49.8,90,,,,
50.12,102.188,,,,
50.44,84.8958,,,,
50.76,57.3958,,,,
51.08,39.5833,,,,
51.4,25.3125,,,,
51.72,19.2708,,,,
52.04,19.2708,,,,
52.36,20.4167,,,,
52.68,18.75,,,,
53,16.7708,,,,
53.32,16.9792,,,,
53.64,16.9792,,,,
53.96,17.7083,,,,
54.28,20.2083,,,,
54.6,19.2708,,,,
54.92,21.9792,,,,
55.24,28.6458,,,,
55.56,32.6042,,,,
55.88,45.8333,,,,
56.2,49.1667,,,,
56.52,51.25,,,,
56.84,47.3958,,,,
57.16,38.75,,,,
57.48,34.4792,,,,
57.8,32.0833,,,,
58.12,25.5208,,,,
58.44,22.0833,,,,
58.76,28.2292,,,,
59.08,36.7708,,,,
59.4,45.5208,,,,
59.72,66.4583,,,,
60.04,84.375,,,,
60.36,98.4375,,,,
60.68,85.7292,,,,
61,64.7917,,,,
61.32,40.3125,,,,
61.64,28.3333,,,,
61.96,21.9792,,,,
62.28,16.9792,,,,
62.6,15.1042,,,,
62.92,12.5,,,,
63.24,9.89583,,,,
63.56,9.89583,,,,
63.88,10.7292,,,,
64.2,11.4583,,,,
64.52,11.25,,,,
64.84,15.3125,,,,
65.16,26.7708,,,,
65.48,73.9583,,,,
65.8,45.8333,,,,
66.12,23.4375,,,,
66.44,20.7292,,,,
66.76,24.1667,,,,
67.08,27.1875,,,,
67.4,28.4375,,,,
67.72,24.1667,,,,
68.04,27.1875,,,,
68.36,41.7708,,,,
68.68,47.9167,,,,
69,53.4375,,,,
69.32,63.2292,,,,
69.64,68.75,,,,
69.96,63.5417,,,,
70.28,49.5833,,,,
70.6,34.2708,,,,
70.92,26.7708,,,,
71.24,24.5833,,,,
71.56,20,,,,
71.88,19.375,,,,
72.2,18.125,,,,
72.52,27.2917,,,,
72.84,33.9583,,,,
73.16,40.5208,,,,
73.48,34.1667,,,,
73.8,24.4792,,,,
74.12,17.2917,,,,
74.44,13.75,,,,
74.76,13.0208,,,,
75.08,11.4583,,,,
75.4,9.79167,,,,
75.72,10.4167,,,,
76.04,11.1458,,,,
76.36,10.8333,,,,
76.68,12.2917,,,,
77,13.6458,,,,
77.32,18.75,,,,
77.64,19.8958,,,,
77.96,18.75,,,,
78.28,18.8542,,,,
78.6,20.625,,,,
78.92,20.3125,,,,
79.24,18.6458,,,,
79.56,16.3542,,,,
79.88,13.0208,,,,
80.04,13.125,,,,