File: Figure_codes/Fig_1A/20230112_2-4_003_FTOsubstrate_fine_m.TXT
2theta,intensity,,,,
5,437.5,Sample,FTO,,
5.04,377.083,Comments,meas,,
5.08,418.75,Filename,C:\data\BCRT\Yatsuzuka\20230112_2-4_XRD_alphaMnO2\20230112_2-4_003_FTOsubstrate_fine.raw,,
5.12,420.833,Goniometer,Ultima+,theta-theta,goniometer
5.16,368.75,Attachment,Standard,sample,holder
5.2,375,Monochromater,Fixed,Monochromator,
5.24,381.25,ScanningMode,2Theta/Theta,,
5.28,387.5,ScanningType,Continuos,Scanning,
5.32,350,X-Ray,40kV/40mA,,
5.36,412.5,DivSlit,1,deg.,
5.4,425,DivH.L.Slit,10mm,,
5.44,320.833,SctSlit,1,deg.,
5.48,314.583,RecSlit,0.6mm,,
5.52,427.083,Monochro,RS,No,Use
5.56,358.333,Start,5,,
5.6,354.167,Stop,50,,
5.64,354.167,Step,0.04,,
5.68,343.75,Speed,5,,
5.72,322.917,Offset,0,,
5.76,325,TempUnit,Celsius,,
5.8,335.417,StartTime,2023/01/12,14:59:00,
5.84,310.417,StartTemp,0,,
5.88,333.333,StopTime,2023/01/12,15:08:10,
5.92,322.917,StopTemp,0,,
5.96,320.833,,,,
6.12,310.417,,,,
6.28,350,,,,
6.44,322.917,,,,
6.6,258.333,,,,
6.76,262.5,,,,
6.92,237.5,,,,
7.08,277.083,,,,
7.24,254.167,,,,
7.4,239.583,,,,
7.56,239.583,,,,
7.72,277.083,,,,
7.88,222.917,,,,
8.04,243.75,,,,
8.2,227.083,,,,
8.36,195.833,,,,
8.52,181.25,,,,
8.68,181.25,,,,
8.84,183.333,,,,
9,206.25,,,,
9.16,195.833,,,,
9.32,210.417,,,,
9.48,212.5,,,,
9.64,204.167,,,,
9.8,185.417,,,,
9.96,195.833,,,,
10.12,183.333,,,,
10.28,160.417,,,,
10.44,170.833,,,,
10.6,214.583,,,,
10.76,183.333,,,,
10.92,191.667,,,,
11.08,214.583,,,,
11.24,158.333,,,,
11.4,197.917,,,,
11.56,175,,,,
11.72,154.167,,,,
11.88,162.5,,,,
12.04,177.083,,,,
12.2,191.667,,,,
12.36,170.833,,,,
12.52,172.917,,,,
12.68,166.667,,,,
12.84,154.167,,,,
13,156.25,,,,
13.16,156.25,,,,
13.32,160.417,,,,
13.48,162.5,,,,
13.64,170.833,,,,
13.8,160.417,,,,
13.96,154.167,,,,
14.12,131.25,,,,
14.28,168.75,,,,
14.44,133.333,,,,
14.6,158.333,,,,
14.76,200,,,,
14.92,202.083,,,,
15.08,162.5,,,,
15.24,200,,,,
15.4,183.333,,,,
15.56,200,,,,
15.72,195.833,,,,
15.88,216.667,,,,
16.04,195.833,,,,
16.2,185.417,,,,
16.36,158.333,,,,
16.52,222.917,,,,
16.68,206.25,,,,
16.84,181.25,,,,
17,183.333,,,,
17.16,210.417,,,,
17.32,229.167,,,,
17.48,227.083,,,,
17.64,200,,,,
17.8,229.167,,,,
17.96,277.083,,,,
18.12,222.917,,,,
18.28,237.5,,,,
18.44,204.167,,,,
18.6,268.75,,,,
18.76,285.417,,,,
18.92,264.583,,,,
19.08,285.417,,,,
19.24,268.75,,,,
19.4,293.75,,,,
19.56,304.167,,,,
19.72,304.167,,,,
19.88,354.167,,,,
20.04,322.917,,,,
20.2,331.25,,,,
20.36,410.417,,,,
20.52,387.5,,,,
20.68,389.583,,,,
20.84,395.833,,,,
21,466.667,,,,
21.16,427.083,,,,
21.32,450,,,,
21.48,412.5,,,,
21.64,477.083,,,,
21.8,420.833,,,,
21.96,450,,,,
22.12,466.667,,,,
22.28,450,,,,
22.44,443.75,,,,
22.6,510.417,,,,
22.76,472.917,,,,
22.92,477.083,,,,
23.08,495.833,,,,
23.24,406.25,,,,
23.4,462.5,,,,
23.56,456.25,,,,
23.72,422.917,,,,
23.88,483.333,,,,
24.04,427.083,,,,
24.2,466.667,,,,
24.36,554.167,,,,
24.52,554.167,,,,
24.68,543.75,,,,
24.84,508.333,,,,
25,491.667,,,,
25.16,512.5,,,,
25.32,514.583,,,,
25.48,472.917,,,,
25.64,493.75,,,,
25.8,516.667,,,,
25.96,520.833,,,,
26.12,564.583,,,,
26.28,645.833,,,,
26.44,887.5,,,,
26.6,1150,,,,
26.76,772.917,,,,
26.92,618.75,,,,
27.08,520.833,,,,
27.24,510.417,,,,
27.4,464.583,,,,
27.56,422.917,,,,
27.72,456.25,,,,
27.88,385.417,,,,
28.04,333.333,,,,
28.2,372.917,,,,
28.36,383.333,,,,
28.52,393.75,,,,
28.68,356.25,,,,
28.84,356.25,,,,
29,318.75,,,,
29.16,404.167,,,,
29.32,312.5,,,,
29.48,322.917,,,,
29.64,397.917,,,,
29.8,350,,,,
29.96,339.583,,,,
30.12,354.167,,,,
30.28,341.667,,,,
30.44,375,,,,
30.6,291.667,,,,
30.76,329.167,,,,
30.92,289.583,,,,
31.08,331.25,,,,
31.24,735.417,,,,
31.4,706.25,,,,
31.56,443.75,,,,
31.72,439.583,,,,
31.88,414.583,,,,
32.04,360.417,,,,
32.2,427.083,,,,
32.36,337.5,,,,
32.52,377.083,,,,
32.68,333.333,,,,
32.84,322.917,,,,
33,352.083,,,,
33.16,379.167,,,,
33.32,360.417,,,,
33.48,441.667,,,,
33.64,539.583,,,,
33.8,760.417,,,,
33.96,587.5,,,,
34.12,450,,,,
34.28,360.417,,,,
34.44,354.167,,,,
34.6,312.5,,,,
34.76,295.833,,,,
34.92,325,,,,
35.08,275,,,,
35.24,308.333,,,,
35.4,252.083,,,,
35.56,225,,,,
35.72,281.25,,,,
35.88,222.917,,,,
36.04,239.583,,,,
36.2,237.5,,,,
36.36,241.667,,,,
36.52,260.417,,,,
36.68,252.083,,,,
36.84,279.167,,,,
37,260.417,,,,
37.16,262.5,,,,
37.32,314.583,,,,
37.48,408.333,,,,
37.64,560.417,,,,
37.8,1402.08,,,,
37.96,7295.83,,,,
38.12,5137.5,,,,
38.28,968.75,,,,
38.44,439.583,,,,
38.6,347.917,,,,
38.76,233.333,,,,
38.92,231.25,,,,
39.08,239.583,,,,
39.24,193.75,,,,
39.4,220.833,,,,
39.56,197.917,,,,
39.72,210.417,,,,
39.88,227.083,,,,
40.04,214.583,,,,
40.2,202.083,,,,
40.36,195.833,,,,
40.52,210.417,,,,
40.68,218.75,,,,
40.84,220.833,,,,
41,233.333,,,,
41.16,214.583,,,,
41.32,175,,,,
41.48,177.083,,,,
41.64,229.167,,,,
41.8,218.75,,,,
41.96,218.75,,,,
42.12,191.667,,,,
42.28,247.917,,,,
42.44,206.25,,,,
42.6,212.5,,,,
42.76,247.917,,,,
42.92,237.5,,,,
43.08,197.917,,,,
43.24,183.333,,,,
43.4,218.75,,,,
43.56,243.75,,,,
43.72,227.083,,,,
43.88,239.583,,,,
44.04,195.833,,,,
44.2,247.917,,,,
44.36,239.583,,,,
44.52,252.083,,,,
44.68,216.667,,,,
44.84,177.083,,,,
45,233.333,,,,
45.16,241.667,,,,
45.32,212.5,,,,
45.48,243.75,,,,
45.64,229.167,,,,
45.8,218.75,,,,
45.96,241.667,,,,
46.12,216.667,,,,
46.28,193.75,,,,
46.44,235.417,,,,
46.6,237.5,,,,
46.76,218.75,,,,
46.92,220.833,,,,
47.08,187.5,,,,
47.24,243.75,,,,
47.4,229.167,,,,
47.56,222.917,,,,
47.72,212.5,,,,
47.88,183.333,,,,
48.04,168.75,,,,
48.2,233.333,,,,
48.36,237.5,,,,
48.52,237.5,,,,
48.68,202.083,,,,
48.84,218.75,,,,
49,231.25,,,,
49.16,185.417,,,,
49.32,204.167,,,,
49.48,200,,,,
49.64,187.5,,,,
49.8,212.5,,,,
49.96,177.083,,,,
50,227.083,,,,