File: Figure_codes/Fig_S7/20230224_2-6_XRD_afterCV60scans.TXT
2theta,intensity,,,,
5,513.75,Sample,alpha-MnO2_on_FTO,,
5.04,539.167,Comments,meas_very_fine,,
5.08,492.5,Filename,C:\data\BCRT\Yatsuzuka\20230224_2-6_XRD_afterCV60scans\20230224_2-6_XRD_afterCV60scans.raw,,
5.12,492.083,Goniometer,Ultima+,theta-theta,goniometer
5.16,512.5,Attachment,Standard,sample,holder
5.2,507.917,Monochromater,Fixed,Monochromator,
5.24,461.667,ScanningMode,2Theta/Theta,,
5.28,471.667,ScanningType,Continuos,Scanning,
5.32,475,X-Ray,40kV/40mA,,
5.36,472.917,DivSlit,1,deg.,
5.4,428.333,DivH.L.Slit,10mm,,
5.44,443.75,SctSlit,1,deg.,
5.48,443.75,RecSlit,0.6mm,,
5.52,448.75,Monochro,RS,No,Use
5.56,408.333,Start,5,,
5.6,413.333,Stop,50,,
5.64,420.417,Step,0.04,,
5.68,410,Speed,1,,
5.72,423.75,Offset,0,,
5.76,392.083,TempUnit,Celsius,,
5.8,390,StartTime,2023/02/24,14:43:02,
5.84,385.417,StartTemp,0,,
5.88,403.75,StopTime,2023/02/24,15:28:13,
5.92,368.333,StopTemp,0,,
5.96,390,,,,
6.12,375.833,,,,
6.28,352.917,,,,
6.44,368.333,,,,
6.6,321.25,,,,
6.76,301.25,,,,
6.92,324.167,,,,
7.08,280,,,,
7.24,283.333,,,,
7.4,266.667,,,,
7.56,266.667,,,,
7.72,252.083,,,,
7.88,272.083,,,,
8.04,236.25,,,,
8.2,247.5,,,,
8.36,250.833,,,,
8.52,208.75,,,,
8.68,226.25,,,,
8.84,222.917,,,,
9,217.5,,,,
9.16,230,,,,
9.32,212.917,,,,
9.48,206.25,,,,
9.64,186.25,,,,
9.8,202.917,,,,
9.96,199.167,,,,
10.12,177.917,,,,
10.28,184.167,,,,
10.44,178.75,,,,
10.6,193.333,,,,
10.76,187.917,,,,
10.92,191.667,,,,
11.08,192.917,,,,
11.24,175,,,,
11.4,192.083,,,,
11.56,228.333,,,,
11.72,223.333,,,,
11.88,225.417,,,,
12.04,267.917,,,,
12.2,293.75,,,,
12.36,295.417,,,,
12.52,302.5,,,,
12.68,301.667,,,,
12.84,279.583,,,,
13,250.417,,,,
13.16,227.917,,,,
13.32,211.667,,,,
13.48,200,,,,
13.64,178.333,,,,
13.8,172.917,,,,
13.96,174.167,,,,
14.12,164.583,,,,
14.28,172.917,,,,
14.44,160.833,,,,
14.6,159.583,,,,
14.76,160.417,,,,
14.92,158.333,,,,
15.08,161.25,,,,
15.24,166.667,,,,
15.4,161.25,,,,
15.56,161.25,,,,
15.72,155,,,,
15.88,169.583,,,,
16.04,170,,,,
16.2,169.583,,,,
16.36,179.167,,,,
16.52,197.917,,,,
16.68,196.667,,,,
16.84,192.083,,,,
17,222.5,,,,
17.16,232.5,,,,
17.32,255.833,,,,
17.48,295.833,,,,
17.64,303.75,,,,
17.8,315.417,,,,
17.96,341.25,,,,
18.12,333.75,,,,
18.28,320,,,,
18.44,319.583,,,,
18.6,277.917,,,,
18.76,282.5,,,,
18.92,278.75,,,,
19.08,259.167,,,,
19.24,255,,,,
19.4,262.917,,,,
19.56,265.833,,,,
19.72,267.083,,,,
19.88,272.917,,,,
20.04,270.417,,,,
20.2,285.833,,,,
20.36,291.25,,,,
20.52,262.5,,,,
20.68,286.25,,,,
20.84,281.25,,,,
21,299.583,,,,
21.16,312.5,,,,
21.32,312.083,,,,
21.48,327.083,,,,
21.64,320.833,,,,
21.8,340,,,,
21.96,347.5,,,,
22.12,337.083,,,,
22.28,358.333,,,,
22.44,337.083,,,,
22.6,352.917,,,,
22.76,376.25,,,,
22.92,344.583,,,,
23.08,350.833,,,,
23.24,327.083,,,,
23.4,359.583,,,,
23.56,374.167,,,,
23.72,381.25,,,,
23.88,357.917,,,,
24.04,372.5,,,,
24.2,383.333,,,,
24.36,432.083,,,,
24.52,416.25,,,,
24.68,431.667,,,,
24.84,412.083,,,,
25,394.167,,,,
25.16,400.417,,,,
25.32,402.083,,,,
25.48,395.417,,,,
25.64,397.083,,,,
25.8,430.833,,,,
25.96,446.667,,,,
26.12,465.417,,,,
26.28,550.417,,,,
26.44,868.333,,,,
26.6,1086.67,,,,
26.76,632.083,,,,
26.92,510.417,,,,
27.08,438.75,,,,
27.24,420.833,,,,
27.4,393.75,,,,
27.56,403.333,,,,
27.72,406.667,,,,
27.88,411.667,,,,
28.04,438.333,,,,
28.2,427.083,,,,
28.36,472.5,,,,
28.52,464.167,,,,
28.68,479.583,,,,
28.84,459.583,,,,
29,438.75,,,,
29.16,425.417,,,,
29.32,371.667,,,,
29.48,361.667,,,,
29.64,300,,,,
29.8,310,,,,
29.96,275.417,,,,
30.12,280,,,,
30.28,279.583,,,,
30.44,265,,,,
30.6,278.75,,,,
30.76,269.583,,,,
30.92,284.167,,,,
31.08,335.417,,,,
31.24,829.583,,,,
31.4,753.333,,,,
31.56,491.25,,,,
31.72,402.083,,,,
31.88,388.75,,,,
32.04,330.417,,,,
32.2,319.167,,,,
32.36,324.583,,,,
32.52,282.917,,,,
32.68,300.417,,,,
32.84,313.75,,,,
33,312.5,,,,
33.16,290,,,,
33.32,335,,,,
33.48,370.833,,,,
33.64,441.667,,,,
33.8,561.25,,,,
33.96,493.333,,,,
34.12,355,,,,
34.28,312.083,,,,
34.44,282.5,,,,
34.6,252.083,,,,
34.76,233.75,,,,
34.92,228.75,,,,
35.08,221.667,,,,
35.24,243.75,,,,
35.4,230,,,,
35.56,246.667,,,,
35.72,249.167,,,,
35.88,237.5,,,,
36.04,214.583,,,,
36.2,235,,,,
36.36,234.167,,,,
36.52,237.083,,,,
36.68,267.083,,,,
36.84,261.25,,,,
37,294.583,,,,
37.16,307.083,,,,
37.32,333.333,,,,
37.48,378.333,,,,
37.64,429.583,,,,
37.8,816.25,,,,
37.96,3397.92,,,,
38.12,2328.33,,,,
38.28,542.917,,,,
38.44,320.833,,,,
38.6,255.417,,,,
38.76,232.5,,,,
38.92,210,,,,
39.08,214.583,,,,
39.24,185,,,,
39.4,189.583,,,,
39.56,187.083,,,,
39.72,195,,,,
39.88,195.833,,,,
40.04,190.417,,,,
40.2,208.333,,,,
40.36,212.083,,,,
40.52,215,,,,
40.68,218.75,,,,
40.84,202.083,,,,
41,199.583,,,,
41.16,227.917,,,,
41.32,197.083,,,,
41.48,219.583,,,,
41.64,222.5,,,,
41.8,234.167,,,,
41.96,230.833,,,,
42.12,217.083,,,,
42.28,233.333,,,,
42.44,205,,,,
42.6,211.25,,,,
42.76,217.917,,,,
42.92,205.417,,,,
43.08,197.917,,,,
43.24,208.75,,,,
43.4,205.833,,,,
43.56,197.083,,,,
43.72,183.75,,,,
43.88,189.583,,,,
44.04,195.833,,,,
44.2,172.083,,,,
44.36,188.333,,,,
44.52,208.333,,,,
44.68,202.5,,,,
44.84,192.083,,,,
45,204.583,,,,
45.16,185.833,,,,
45.32,205.833,,,,
45.48,203.333,,,,
45.64,213.75,,,,
45.8,205,,,,
45.96,207.083,,,,
46.12,211.25,,,,
46.28,194.583,,,,
46.44,207.917,,,,
46.6,205,,,,
46.76,202.5,,,,
46.92,196.667,,,,
47.08,207.917,,,,
47.24,195.417,,,,
47.4,188.75,,,,
47.56,180.833,,,,
47.72,185.417,,,,
47.88,203.75,,,,
48.04,188.333,,,,
48.2,192.917,,,,
48.36,181.25,,,,
48.52,185.417,,,,
48.68,202.5,,,,
48.84,208.333,,,,
49,195,,,,
49.16,211.25,,,,
49.32,213.333,,,,
49.48,206.667,,,,
49.64,242.917,,,,
49.8,230.833,,,,
49.96,232.083,,,,
50,220,,,,