File: Figure_codes/Fig_2_S1_S6/20220924_003_MultiCV_0_850mV_1-84_C_02_CV_C01_50.csv
mode,ox/red,error,control changes,counter inc.,time/s,control/V,Ewe/V,<I>/mA,cycle number,(Q-Qo)/C,I Range,P/W,log(|I|),Tafel slope mV/dec,alpha_eff,E-IR/V,
2,0,0,0,0,18529.7,2.17368e-05,-0.000447339,-0.178898,51,0.0000000E+000,10,8.00281e-08,-3.74739, , ,-0.000127112,
2,1,0,0,0,18533.4,0.0187771,0.0184205,0.261307,51,0.000502472,10,4.81341e-06,-3.58285,0.077613,0.760182,0.0179527,
2,1,0,1,0,18537.2,0.0375824,0.037231,0.340967,51,0.00169002,10,1.26946e-05,-3.46729,0.301358,0.19578,0.0366207,
2,1,0,1,0,18540.9,0.0563878,0.0560798,0.375409,51,0.00307202,10,2.10528e-05,-3.4255,0.511601,0.115324,0.0554078,
2,1,0,0,0,18544.7,0.0751931,0.0748712,0.405297,51,0.00456526,10,3.03451e-05,-3.39223,0.596018,0.0989903,0.0741457,
2,1,0,1,0,18548.5,0.0939985,0.09372,0.454765,51,0.00619785,10,4.26205e-05,-3.34221,0.224264,0.263083,0.0929059,
2,1,0,1,0,18552.2,0.112804,0.112521,0.562923,51,0.00811429,10,6.33406e-05,-3.24955,0.158337,0.372623,0.111513,
2,1,0,0,0,18556,0.131609,0.131312,0.803907,51,0.0106579,10,0.000105563,-3.09479,0.102438,0.575956,0.129873,
2,1,0,1,0,18559.7,0.150415,0.150152,1.17341,51,0.014398,10,0.000176189,-2.93055,0.143802,0.410287,0.148051,
2,1,0,1,0,18563.5,0.16922,0.168962,1.39514,51,0.0193449,10,0.000235726,-2.85538,0.723828,0.0815111,0.166465,
2,1,0,0,0,18567.3,0.188025,0.18763,1.29973,51,0.0245475,10,0.000243867,-2.88615,-0.221463,-0.26641,0.185303,
2,1,0,1,0,18571,0.206831,0.206536,0.916595,51,0.0287783,10,0.00018931,-3.03782,-0.107821,-0.547202,0.204895,
2,1,0,1,0,18574.8,0.225636,0.225413,0.635184,51,0.031648,10,0.000143179,-3.1971,-0.160006,-0.368735,0.224276,
2,1,0,0,0,18578.5,0.244441,0.244185,0.522074,51,0.0338178,10,0.000127483,-3.28227,-0.336141,-0.175522,0.243251,
2,1,0,1,0,18582.3,0.263247,0.262977,0.470095,51,0.0356954,10,0.000123624,-3.32781,-0.415835,-0.141883,0.262135,
2,1,0,1,0,18586.1,0.282052,0.281749,0.439734,51,0.037422,10,0.000123895,-3.35681,-0.925552,-0.0637458,0.280962,
2,1,0,0,0,18589.8,0.300857,0.300627,0.418907,51,0.0390576,10,0.000125935,-3.37788,-1.26631,-0.0465922,0.299877,
2,1,0,0,0,18593.6,0.319663,0.319408,0.403821,51,0.0406285,10,0.000128984,-3.39381,-1.86065,-0.0317094,0.318686,
2,1,0,1,0,18597.3,0.338468,0.338229,0.391759,51,0.0421482,10,0.000132504,-3.40698,-1.1109,-0.05311,0.337527,
2,1,0,0,0,18601.1,0.357273,0.356972,0.380044,51,0.043622,10,0.000135665,-3.42017,0.810909,0.0727578,0.356292,
2,1,0,0,0,18604.9,0.376079,0.375773,0.371419,51,0.0450548,10,0.000139569,-3.43014,9.02334,0.0065386,0.375108,
2,1,0,1,0,18608.6,0.394884,0.394546,0.362054,51,0.0464497,10,0.000142847,-3.44123,-0.735948,-0.0801687,0.393898,
2,1,0,0,0,18612.4,0.41369,0.413433,0.354934,51,0.0478116,10,0.000146741,-3.44985,-8.05128,-0.00732802,0.412797,
2,1,0,0,0,18616.2,0.432495,0.432205,0.348152,51,0.0491486,10,0.000150473,-3.45823,-0.610345,-0.0966666,0.431582,
2,1,0,1,0,18619.9,0.4513,0.450996,0.344323,51,0.0504665,10,0.000155288,-3.46303,8.45923,0.00697463,0.45038,
2,1,0,0,0,18623.7,0.470106,0.469864,0.343128,51,0.0517732,10,0.000161224,-3.46454,-1.41491,-0.0416986,0.46925,
2,1,0,0,0,18627.4,0.488911,0.488637,0.341726,51,0.0530755,10,0.00016698,-3.46632,-2.03896,-0.0289363,0.488025,
2,1,0,1,0,18631.2,0.507716,0.507504,0.342784,51,0.0543796,10,0.000173965,-3.46498,11.1087,0.00531113,0.506891,
2,1,0,0,0,18635,0.526522,0.526296,0.347457,51,0.0556911,10,0.000182865,-3.4591,5.16399,0.0114253,0.525674,
2,1,0,0,0,18638.7,0.545327,0.545106,0.351384,51,0.0570186,10,0.000191542,-3.45422,3.2988,0.0178853,0.544477,
2,1,0,1,0,18642.5,0.564132,0.563907,0.358296,51,0.0583689,10,0.000202046,-3.44576,4.07828,0.0144669,0.563266,
2,1,0,1,0,18646.2,0.582938,0.582708,0.37054,51,0.0597551,10,0.000215917,-3.43116,3.76229,0.0156819,0.582045,
2,1,0,0,0,18650,0.601743,0.601433,0.38791,51,0.0611946,10,0.000233302,-3.41127,1.08197,0.0545301,0.600739,
2,1,0,1,0,18653.8,0.620548,0.62033,0.412631,51,0.0627114,10,0.000255967,-3.38444,0.661132,0.0892409,0.619591,
2,1,0,1,0,18657.5,0.639354,0.639131,0.451981,51,0.0643471,10,0.000288875,-3.34488,0.44208,0.13346,0.638322,
2,1,0,0,0,18661.3,0.658159,0.657989,0.522892,51,0.0661813,10,0.000344057,-3.28159,0.241219,0.244591,0.657053,
2,1,0,1,0,18665,0.676965,0.676666,0.64377,51,0.0683646,10,0.000435617,-3.19127,0.165341,0.356839,0.675513,
2,1,0,1,0,18668.8,0.69577,0.695505,0.853382,51,0.0711633,10,0.000593531,-3.06886,0.133324,0.44253,0.693977,
2,1,0,0,0,18672.6,0.714575,0.714401,1.17251,51,0.0749506,10,0.000837646,-2.93088,0.139653,0.422475,0.712303,
2,1,0,1,0,18676.3,0.733381,0.733145,1.6009,51,0.0801489,10,0.00117369,-2.79564,0.134105,0.439954,0.73028,
2,1,0,1,0,18680.1,0.752186,0.751918,2.13365,51,0.0871592,10,0.00160433,-2.67088,0.155662,0.379026,0.748098,
2,1,0,0,0,18683.9,0.770991,0.770728,2.75623,51,0.0963381,10,0.0021243,-2.55969,0.158902,0.371299,0.765794,
2,1,0,1,0,18687.6,0.789797,0.789567,3.4792,51,0.108042,10,0.00274706,-2.45852,0.181607,0.324877,0.783339,
2,1,0,1,0,18691.4,0.808602,0.808311,4.32136,51,0.122684,10,0.00349301,-2.36438,0.172322,0.342382,0.800576,
2,1,0,0,0,18695.1,0.827407,0.827169,5.2984,51,0.140744,10,0.00438267,-2.27586,0.209481,0.281649,0.817685,
2,1,0,0,0,18698.9,0.846213,0.846008,6.39868,51,0.16272,10,0.00541334,-2.19391,0.215263,0.274084,0.834555,
2,1,0,0,0,18702.6,0.83501,0.834842,5.34682,51,0.185403,10,0.00446375,-2.2719,0.148257,0.397957,0.825272,
2,1,0,1,0,18706.4,0.816204,0.815975,4.12947,51,0.203103,10,0.00336954,-2.38411,0.16769,0.35184,0.808583,
2,1,0,0,0,18710.2,0.797399,0.797145,3.18502,51,0.216779,10,0.00253892,-2.49689,0.148393,0.397594,0.791444,
2,1,0,0,0,18713.9,0.778594,0.778287,2.43644,51,0.227292,10,0.00189625,-2.61324,0.145557,0.405339,0.773925,
2,1,0,1,0,18717.7,0.759788,0.7596,1.82158,51,0.235251,10,0.00138367,-2.73955,0.135108,0.436689,0.75634,
2,1,0,0,0,18721.4,0.740983,0.740666,1.31766,51,0.241111,10,0.000975945,-2.8802,0.12879,0.45811,0.738307,
2,1,0,0,0,18725.2,0.722177,0.721941,0.908703,51,0.245253,10,0.00065603,-3.04158,0.102763,0.574134,0.720314,
2,1,0,1,0,18729,0.703372,0.70314,0.583814,51,0.248017,10,0.000410503,-3.23373,0.0971056,0.607586,0.702095,
2,1,0,1,0,18732.7,0.684567,0.684406,0.343167,51,0.249727,10,0.000234866,-3.46449,0.0777872,0.75848,0.683791,
2,1,0,0,0,18736.5,0.665761,0.665557,0.170919,51,0.250663,10,0.000113757,-3.76721,0.0496053,1.18939,0.665251,
2,1,0,1,0,18740.3,0.646956,0.646766,0.0466337,51,0.251046,10,3.01611e-05,-4.3313,0.0194649,3.0311,0.646682,
2,0,0,1,0,18744,0.628151,0.627879,-0.0399121,51,0.251035,10,-2.50599e-05,-4.3989,-0.0221119,-2.66825,0.62795,
2,0,0,0,0,18747.8,0.609345,0.609078,-0.104813,51,0.250744,10,-6.38394e-05,-3.97958,-0.0774291,-0.761988,0.609265,
2,0,0,1,0,18751.5,0.59054,0.590229,-0.149835,51,0.250245,10,-8.84371e-05,-3.82439,-0.173727,-0.339614,0.590497,
2,0,0,1,0,18755.3,0.571735,0.571495,-0.182176,51,0.249601,10,-0.000104112,-3.73951,-0.31341,-0.188252,0.571821,
2,0,0,0,0,18759.1,0.552929,0.552684,-0.20286,51,0.248861,10,-0.000112117,-3.6928,-0.389905,-0.151319,0.553047,
2,0,0,1,0,18762.8,0.534124,0.533912,-0.216787,51,0.248058,10,-0.000115745,-3.66397,-2.09312,-0.0281876,0.5343,
2,0,0,1,0,18766.6,0.515319,0.515063,-0.224958,51,0.247215,10,-0.000115868,-3.6479,-1.41085,-0.0418188,0.515466,
2,0,0,0,0,18770.3,0.496513,0.4963,-0.230131,51,0.246345,10,-0.000114214,-3.63802,-8.53762,-0.00691059,0.496712,
2,0,0,1,0,18774.1,0.477708,0.477404,-0.23862,51,0.245448,10,-0.000113918,-3.62229,-0.700914,-0.0841758,0.477831,
2,0,0,1,0,18777.9,0.458902,0.458641,-0.246577,51,0.244521,10,-0.00011309,-3.60805,3.67639,0.0160483,0.459082,
2,0,0,0,0,18781.6,0.440097,0.439926,-0.257117,51,0.243559,10,-0.000113112,-3.58987,-0.611975,-0.0964092,0.440386,
2,0,0,0,0,18785.4,0.421292,0.421115,-0.269234,51,0.242556,10,-0.000113379,-3.56987,-0.874472,-0.0674693,0.421597,
2,0,0,1,0,18789.1,0.402486,0.40219,-0.28361,51,0.241504,10,-0.000114065,-3.54728,-0.56875,-0.103736,0.402698,
2,0,0,0,0,18792.9,0.383681,0.383408,-0.298524,51,0.240395,10,-0.000114457,-3.52502,-7.52909,-0.00783627,0.383943,
2,0,0,0,0,18796.7,0.364876,0.364569,-0.314717,51,0.239223,10,-0.000114736,-3.50208,-0.781733,-0.0754734,0.365132,
2,0,0,1,0,18800.4,0.34607,0.345959,-0.33409,51,0.237978,10,-0.000115581,-3.47614,-0.78142,-0.0755036,0.346557,
2,0,0,0,0,18804.2,0.327265,0.327062,-0.355228,51,0.236657,10,-0.000116182,-3.44949,-0.453298,-0.130157,0.327698,
2,0,0,0,0,18807.9,0.30846,0.308185,-0.374296,51,0.235261,10,-0.000115352,-3.42678,-0.771846,-0.0764401,0.308855,
2,0,0,1,0,18811.7,0.289654,0.289403,-0.393637,51,0.233793,10,-0.00011392,-3.4049,-0.883805,-0.0667568,0.290108,
2,0,0,0,0,18815.5,0.270849,0.270612,-0.416754,51,0.232248,10,-0.000112779,-3.38012,-0.784892,-0.0751696,0.271358,
2,0,0,0,0,18819.2,0.252044,0.25182,-0.439171,51,0.230621,10,-0.000110592,-3.35737,-0.705167,-0.0836681,0.252606,
2,0,0,1,0,18823,0.233238,0.232924,-0.467332,51,0.228898,10,-0.000108853,-3.33037,-0.916516,-0.0643742,0.23376,
2,0,0,1,0,18826.8,0.214433,0.214123,-0.506469,51,0.227049,10,-0.000108447,-3.29545,-0.292149,-0.201952,0.215029,
2,0,0,0,0,18830.5,0.195627,0.19536,-0.570583,51,0.225014,10,-0.000111469,-3.24368,-0.268489,-0.219748,0.196381,
2,0,0,1,0,18834.3,0.176822,0.176483,-0.695973,51,0.222633,10,-0.000122827,-3.15741,-0.170995,-0.34504,0.177728,
2,0,0,1,0,18838,0.158017,0.157787,-0.959056,51,0.219541,10,-0.000151326,-3.01816,-0.109836,-0.537163,0.159503,
2,0,0,0,0,18841.8,0.139211,0.138957,-1.3,51,0.21525,10,-0.000180644,-2.88606,-0.225272,-0.261906,0.141284,
2,0,0,1,0,18845.6,0.120406,0.120165,-1.46381,51,0.209937,10,-0.0001759,-2.83451,-9.39037,-0.00628303,0.122786,
2,0,0,1,0,18849.3,0.101601,0.101412,-1.36566,51,0.204535,10,-0.000138495,-2.86466,0.322483,0.182955,0.103857,
2,0,0,0,0,18853.1,0.0827953,0.082592,-1.15019,51,0.199771,10,-9.49966e-05,-2.93923,0.269762,0.218711,0.0846509,
2,0,0,1,0,18856.8,0.06399,0.0637242,-0.974762,51,0.195776,10,-6.2116e-05,-3.0111,0.365206,0.161553,0.0654691,
2,0,0,1,0,18860.6,0.0451846,0.0449328,-0.883816,51,0.192278,10,-3.97123e-05,-3.05364,0.769872,0.0766361,0.0465148,
2,0,0,0,0,18864.4,0.0263792,0.0260268,-0.846861,51,0.189006,10,-2.20411e-05,-3.07219,2.09089,0.0282177,0.0275427,
2,0,0,1,0,18868.1,0.00757389,0.00721622,-0.836574,51,0.185816,10,-6.03691e-06,-3.0775,-8.15702,-0.00723303,0.00871369,
2,0,0,0,0,18869.6,0.00017178,-0.000294641,-0.845148,51,0.184556,10,2.49015e-07,-3.07307, , ,0.00121817,