File: Figure_codes/Fig_2_S1_S6/20220924_003_MultiCV_0_850mV_1-84_C_02_CV_C01_40.csv
mode,ox/red,error,control changes,counter inc.,time/s,control/V,Ewe/V,<I>/mA,cycle number,(Q-Qo)/C,I Range,P/W,log(|I|),Tafel slope mV/dec,alpha_eff,E-IR/V,
2,0,0,0,0,14829.7,2.17368e-05,-0.000351903,-0.189711,41,0.0000000E+000,10,6.67597e-08,-3.72191, , ,-1.23209e-05,
2,1,0,0,0,14833.5,0.0187771,0.0185255,0.267097,41,0.000527299,10,4.94809e-06,-3.57333,0.0789562,0.74725,0.0180474,
2,1,0,1,0,14837.2,0.0375824,0.0373742,0.34551,41,0.00173635,10,1.29132e-05,-3.46154,0.277129,0.212897,0.0367557,
2,1,0,1,0,14841,0.0563878,0.0561466,0.379162,41,0.00313496,10,2.12887e-05,-3.42118,0.684923,0.086141,0.0554679,
2,1,0,0,0,14844.8,0.0751931,0.0748808,0.40716,41,0.00464269,10,3.04884e-05,-3.39024,0.784363,0.0752203,0.074152,
2,1,0,1,0,14848.5,0.0939985,0.0938058,0.458847,41,0.00629013,10,4.30425e-05,-3.33833,0.300702,0.196207,0.0929845,
2,1,0,1,0,14852.3,0.112804,0.112588,0.571561,41,0.00823117,10,6.43508e-05,-3.24294,0.179647,0.328422,0.111565,
2,1,0,0,0,14856,0.131609,0.13136,0.828044,41,0.0108349,10,0.000108772,-3.08195,0.0984827,0.59909,0.129878,
2,1,0,1,0,14859.8,0.150415,0.150161,1.22637,41,0.0147294,10,0.000184153,-2.91138,0.135499,0.435428,0.147966,
2,1,0,1,0,14863.6,0.16922,0.168991,1.44888,41,0.0198912,10,0.000244848,-2.83897,1.06645,0.0553236,0.166397,
2,1,0,0,0,14867.3,0.188025,0.18784,1.32271,41,0.0252411,10,0.000248457,-2.87854,-0.197075,-0.299378,0.185472,
2,1,0,1,0,14871.1,0.206831,0.206545,0.905621,41,0.0294849,10,0.000187051,-3.04305,-0.0984912,-0.599038,0.204924,
2,1,0,1,0,14874.9,0.225636,0.225442,0.626299,41,0.032312,10,0.000141194,-3.20322,-0.161895,-0.364433,0.22432,
2,1,0,0,0,14878.6,0.244441,0.244195,0.51757,41,0.0344557,10,0.000126388,-3.28603,-0.353308,-0.166993,0.243268,
2,1,0,1,0,14882.4,0.263247,0.263072,0.465441,41,0.036318,10,0.000122445,-3.33214,-0.539069,-0.109448,0.262239,
2,1,0,1,0,14886.1,0.282052,0.281845,0.436073,41,0.0380354,10,0.000122905,-3.36044,-0.842162,-0.0700578,0.281064,
2,1,0,0,0,14889.9,0.300857,0.300588,0.417044,41,0.0396663,10,0.000125359,-3.37982,-1.1933,-0.0494428,0.299842,
2,1,0,0,0,14893.7,0.319663,0.319437,0.403172,41,0.041235,10,0.000128788,-3.39451,-1.37083,-0.0430396,0.318715,
2,1,0,1,0,14897.4,0.338468,0.338181,0.390986,41,0.0427528,10,0.000132224,-3.40784,-1.08243,-0.0545069,0.337481,
2,1,0,0,0,14901.2,0.357273,0.35702,0.378156,41,0.0442274,10,0.000135009,-3.42233,-7.79957,-0.00756452,0.356343,
2,1,0,0,0,14904.9,0.376079,0.37585,0.370705,41,0.0456627,10,0.000139329,-3.43097,-9.62914,-0.00612723,0.375186,
2,1,0,1,0,14908.7,0.394884,0.394727,0.360794,41,0.0470616,10,0.000142415,-3.44274,-1.29669,-0.0455004,0.394081,
2,1,0,0,0,14912.5,0.41369,0.413413,0.353376,41,0.0484271,10,0.000146091,-3.45176,-13.2409,-0.00445589,0.412781,
2,1,0,0,0,14916.2,0.432495,0.432358,0.34943,41,0.0497706,10,0.000151079,-3.45664,-1.1756,-0.050187,0.431732,
2,1,0,1,0,14920,0.4513,0.45113,0.345809,41,0.0510961,10,0.000156005,-3.46116,-1.31799,-0.0447653,0.450511,
2,1,0,0,0,14923.7,0.470106,0.469921,0.344063,41,0.0524103,10,0.000161683,-3.46336,-1.20262,-0.0490596,0.469306,
2,1,0,0,0,14927.5,0.488911,0.488713,0.343803,41,0.0537196,10,0.000168021,-3.46369,3.82134,0.0154396,0.488098,
2,1,0,1,0,14931.3,0.507716,0.507466,0.346042,41,0.0550315,10,0.000175605,-3.46087,3.77621,0.0156241,0.506847,
2,1,0,0,0,14935,0.526522,0.526296,0.350242,41,0.0563528,10,0.000184331,-3.45563,25.3025,0.00233178,0.525669,
2,1,0,0,0,14938.8,0.545327,0.545106,0.354863,41,0.0576905,10,0.000193438,-3.44994,-5.44558,-0.0108345,0.544471,
2,1,0,1,0,14942.6,0.564132,0.56386,0.362482,41,0.059052,10,0.000204389,-3.44071,0.672976,0.0876703,0.563211,
2,1,0,1,0,14946.3,0.582938,0.582718,0.375008,41,0.0604519,10,0.000218524,-3.42596,2.93837,0.0200791,0.582047,
2,1,0,0,0,14950.1,0.601743,0.60149,0.393777,41,0.06191,10,0.000236853,-3.40475,0.582811,0.101234,0.600786,
2,1,0,1,0,14953.8,0.620548,0.62033,0.422081,41,0.0634539,10,0.000261829,-3.3746,0.543727,0.10851,0.619574,
2,1,0,1,0,14957.6,0.639354,0.639131,0.465655,41,0.0651316,10,0.000297615,-3.33194,0.382075,0.15442,0.638297,
2,1,0,0,0,14961.4,0.658159,0.657893,0.545549,41,0.0670375,10,0.000358913,-3.26317,0.223499,0.263983,0.656917,
2,1,0,1,0,14965.1,0.676965,0.676694,0.686949,41,0.0693454,10,0.000464855,-3.16308,0.157768,0.373968,0.675465,
2,1,0,1,0,14968.9,0.69577,0.695591,0.930874,41,0.0723636,10,0.000647507,-3.03111,0.123685,0.477017,0.693925,
2,1,0,0,0,14972.6,0.714575,0.714335,1.29899,41,0.0765242,10,0.000927916,-2.88639,0.120215,0.490787,0.712009,
2,1,0,1,0,14976.4,0.733381,0.733069,1.79578,41,0.0823184,10,0.00131643,-2.74575,0.134808,0.43766,0.729854,
2,1,0,1,0,14980.2,0.752186,0.752042,2.4101,41,0.0902121,10,0.0018125,-2.61796,0.14816,0.398217,0.747728,
2,1,0,0,0,14983.9,0.770991,0.770814,3.12591,41,0.100606,10,0.0024095,-2.50502,0.171354,0.344316,0.765219,
2,1,0,1,0,14987.7,0.789797,0.789644,3.95816,41,0.113909,10,0.00312553,-2.40251,0.170532,0.345975,0.782558,
2,1,0,1,0,14991.4,0.808602,0.808416,4.91967,41,0.130574,10,0.00397714,-2.30806,0.184546,0.319704,0.79961,
2,1,0,0,0,14995.2,0.827407,0.827265,6.02731,41,0.151128,10,0.00498618,-2.21988,0.206678,0.285468,0.816476,
2,1,0,0,0,14999,0.846213,0.846008,7.27879,41,0.176126,10,0.00615792,-2.13794,0.205586,0.286984,0.832979,
2,1,0,0,0,15002.7,0.83501,0.834871,6.10036,41,0.20196,10,0.00509302,-2.21464,0.135719,0.434721,0.823951,
2,1,0,1,0,15006.5,0.816204,0.815946,4.74203,41,0.22222,10,0.00386924,-2.32404,0.155892,0.378467,0.807458,
2,1,0,0,0,15010.2,0.797399,0.797221,3.66395,41,0.237936,10,0.00292098,-2.43605,0.149489,0.394678,0.790663,
2,1,0,0,0,15014,0.778594,0.778401,2.79691,41,0.250017,10,0.00217712,-2.55332,0.138565,0.425791,0.773395,
2,1,0,1,0,15017.8,0.759788,0.759524,2.08458,41,0.259139,10,0.00158329,-2.68098,0.120258,0.490611,0.755792,
2,1,0,0,0,15021.5,0.740983,0.740752,1.50027,41,0.265829,10,0.00111132,-2.82383,0.120803,0.488397,0.738066,
2,1,0,0,0,15025.3,0.722177,0.721998,1.02889,41,0.270536,10,0.000742859,-2.98763,0.0936298,0.630141,0.720156,
2,1,0,1,0,15029,0.703372,0.703169,0.660288,41,0.273667,10,0.000464293,-3.18027,0.0870081,0.678098,0.701987,
2,1,0,1,0,15032.8,0.684567,0.68431,0.38974,41,0.275602,10,0.000266703,-3.40922,0.0716194,0.823799,0.683613,
2,1,0,0,0,15036.6,0.665761,0.6655,0.198347,41,0.276673,10,0.000132,-3.70257,0.0542727,1.0871,0.665145,
2,1,0,1,0,15040.3,0.646956,0.646766,0.0642414,41,0.277139,10,4.15491e-05,-4.19219,0.0243657,2.42144,0.646651,
2,0,0,1,0,15044.1,0.628151,0.627936,-0.0306182,41,0.277179,10,-1.92263e-05,-4.51402,-0.0159664,-3.69526,0.627991,
2,0,0,0,0,15047.8,0.609345,0.609097,-0.0984724,41,0.27692,10,-5.99792e-05,-4.00669,-0.0732868,-0.805056,0.609273,
2,0,0,1,0,15051.6,0.59054,0.590315,-0.14672,41,0.276439,10,-8.6611e-05,-3.83351,-0.178433,-0.330656,0.590577,
2,0,0,1,0,15055.4,0.571735,0.571542,-0.180663,41,0.275805,10,-0.000103257,-3.74313,-0.190586,-0.309572,0.571866,
2,0,0,0,0,15059.1,0.552929,0.552646,-0.200848,41,0.275071,10,-0.000110998,-3.69713,-0.512691,-0.115079,0.553005,
2,0,0,1,0,15062.9,0.534124,0.533883,-0.213769,41,0.274273,10,-0.000114128,-3.67005,-0.506669,-0.116447,0.534266,
2,0,0,1,0,15066.7,0.515319,0.515168,-0.223232,41,0.273434,10,-0.000115002,-3.65124,-2.03685,-0.0289663,0.515568,
2,0,0,0,0,15070.4,0.496513,0.496252,-0.230034,41,0.272564,10,-0.000114155,-3.63821,-3.5462,-0.0166375,0.496664,
2,0,0,1,0,15074.2,0.477708,0.47749,-0.237082,41,0.271667,10,-0.000113204,-3.6251,-2.09647,-0.0281426,0.477914,
2,0,0,1,0,15077.9,0.458902,0.458612,-0.245506,41,0.270738,10,-0.000112592,-3.60994,-1.66287,-0.0354809,0.459052,
2,0,0,0,0,15081.7,0.440097,0.439888,-0.255027,41,0.269776,10,-0.000112183,-3.59341,-0.708948,-0.0832219,0.440344,
2,0,0,0,0,15085.5,0.421292,0.421058,-0.268728,41,0.268771,10,-0.00011315,-3.57069,-1.09575,-0.0538443,0.421539,
2,0,0,1,0,15089.2,0.402486,0.402295,-0.283447,41,0.267716,10,-0.00011403,-3.54753,-2.79526,-0.0211072,0.402802,
2,0,0,0,0,15093,0.383681,0.383446,-0.297129,41,0.266606,10,-0.000113933,-3.52706,-2.47007,-0.023886,0.383978,
2,0,0,0,0,15096.7,0.364876,0.364636,-0.313957,41,0.265433,10,-0.00011448,-3.50313,-0.532906,-0.110714,0.365198,
2,0,0,1,0,15100.5,0.34607,0.34593,-0.334038,41,0.26419,10,-0.000115554,-3.4762,-0.865561,-0.0681639,0.346528,
2,0,0,0,0,15104.3,0.327265,0.327072,-0.353242,41,0.262872,10,-0.000115536,-3.45193,-0.673101,-0.087654,0.327704,
2,0,0,0,0,15108,0.30846,0.308242,-0.37368,41,0.261478,10,-0.000115184,-3.4275,-0.683981,-0.0862597,0.308911,
2,0,0,1,0,15111.8,0.289654,0.289403,-0.393909,41,0.260009,10,-0.000113999,-3.4046,-0.771423,-0.076482,0.290108,
2,0,0,0,0,15115.5,0.270849,0.270612,-0.415541,41,0.258462,10,-0.00011245,-3.38139,-1.30942,-0.0450582,0.271356,
2,0,0,0,0,15119.3,0.252044,0.251792,-0.437601,41,0.256835,10,-0.000110184,-3.35892,-0.726141,-0.0812514,0.252575,
2,0,0,1,0,15123.1,0.233238,0.232981,-0.466728,41,0.255111,10,-0.000108739,-3.33094,-0.633766,-0.0930943,0.233816,
2,0,0,1,0,15126.8,0.214433,0.214199,-0.507074,41,0.253258,10,-0.000108615,-3.29493,-0.337475,-0.174828,0.215107,
2,0,0,0,0,15130.6,0.195627,0.195427,-0.573841,41,0.251212,10,-0.000112144,-3.24121,-0.281507,-0.209586,0.196454,
2,0,0,1,0,15134.3,0.176822,0.176588,-0.704144,41,0.248811,10,-0.000124343,-3.15234,-0.175835,-0.335542,0.177848,
2,0,0,1,0,15138.1,0.158017,0.157806,-0.97706,41,0.245673,10,-0.000154186,-3.01008,-0.107058,-0.551102,0.159555,
2,0,0,0,0,15141.9,0.139211,0.139052,-1.33769,41,0.24128,10,-0.000186009,-2.87364,-0.186653,-0.316095,0.141447,
2,0,0,1,0,15145.6,0.120406,0.120185,-1.5097,41,0.2358,10,-0.000181443,-2.82111,-53.4895,-0.00110302,0.122887,
2,0,0,1,0,15149.4,0.101601,0.101307,-1.39984,41,0.230238,10,-0.000141814,-2.85392,0.299731,0.196843,0.103813,
2,0,0,0,0,15153.2,0.0827953,0.0825634,-1.16666,41,0.225375,10,-9.63231e-05,-2.93306,0.215589,0.273669,0.0846517,
2,0,0,1,0,15156.9,0.06399,0.0637242,-0.979396,41,0.221344,10,-6.24113e-05,-3.00904,0.3313,0.178086,0.0654773,
2,0,0,1,0,15160.7,0.0451846,0.0449614,-0.885945,41,0.217839,10,-3.98333e-05,-3.05259,0.799578,0.0737889,0.0465472,
2,0,0,0,0,15164.4,0.0263792,0.0261127,-0.850178,41,0.214564,10,-2.22004e-05,-3.07049,4.0352,0.0146213,0.0276345,
2,0,0,1,0,15168.2,0.00757389,0.00736892,-0.842792,41,0.211364,10,-6.21047e-06,-3.07428,-173.185,-0.000340676,0.00887752,
2,0,0,0,0,15169.7,0.00017178,-0.000151486,-0.851515,41,0.210098,10,1.28993e-07,-3.06981, , ,0.00137273,