File: Figure_codes/Fig_2_S1_S6/20220924_003_MultiCV_0_850mV_1-84_C_02_CV_C01_10.csv
mode,ox/red,error,control changes,counter inc.,time/s,control/V,Ewe/V,<I>/mA,cycle number,(Q-Qo)/C,I Range,P/W,log(|I|),Tafel slope mV/dec,alpha_eff,E-IR/V,
2,0,0,0,0,3729.95,2.17368e-05,-0.000332815,-0.168721,11,0.0000000E+000,10,5.61531e-08,-3.77283, , ,-3.0804e-05,
2,1,0,0,0,3733.7,0.0187771,0.0185732,0.313235,11,0.000726989,10,5.81776e-06,-3.50413,0.115407,0.511236,0.0180125,
2,1,0,1,0,3737.46,0.0375824,0.0372406,0.370939,11,0.00206922,10,1.3814e-05,-3.4307,0.588337,0.100283,0.0365766,
2,1,0,1,0,3741.22,0.0563878,0.0561275,0.396805,11,0.00355203,10,2.22716e-05,-3.40142,1.1427,0.0516322,0.0554172,
2,1,0,0,0,3744.98,0.0751931,0.0750144,0.420984,11,0.00512231,10,3.15798e-05,-3.37573,0.872262,0.0676402,0.0742608,
2,1,0,1,0,3748.74,0.0939985,0.0936436,0.475929,11,0.00683366,10,4.45677e-05,-3.32246,0.231849,0.254476,0.0927917,
2,1,0,1,0,3752.5,0.112804,0.112578,0.607062,11,0.00887542,10,6.83419e-05,-3.21677,0.140352,0.420371,0.111492,
2,1,0,0,0,3756.27,0.131609,0.131475,0.924195,11,0.0117153,10,0.000121508,-3.03424,0.0819003,0.720388,0.12982,
2,1,0,1,0,3760.03,0.150415,0.150237,1.43971,11,0.0162059,10,0.000216298,-2.84173,0.139835,0.421926,0.14766,
2,1,0,1,0,3763.79,0.16922,0.168991,1.67613,11,0.0222541,10,0.00028325,-2.77569,-4.36273,-0.0135237,0.165991,
2,1,0,0,0,3767.55,0.188025,0.187744,1.42377,11,0.0282781,10,0.000267305,-2.84656,-0.126873,-0.46503,0.185196,
2,1,0,1,0,3771.31,0.206831,0.206574,0.868938,11,0.0326011,10,0.0001795,-3.06101,-0.0940971,-0.627012,0.205018,
2,1,0,1,0,3775.07,0.225636,0.225365,0.59867,11,0.0353069,10,0.000134919,-3.22281,-0.19299,-0.305715,0.224294,
2,1,0,0,0,3778.83,0.244441,0.244204,0.50603,11,0.0373887,10,0.000123575,-3.29582,-0.408002,-0.144607,0.243299,
2,1,0,1,0,3782.59,0.263247,0.263034,0.458315,11,0.0392242,10,0.000120552,-3.33884,-0.406647,-0.145089,0.262214,
2,1,0,1,0,3786.35,0.282052,0.281778,0.433302,11,0.0409308,10,0.000122095,-3.36321,-1.01526,-0.0581132,0.281002,
2,1,0,0,0,3790.12,0.300857,0.300607,0.415311,11,0.0425598,10,0.000124846,-3.38163,-0.761753,-0.077453,0.299864,
2,1,0,0,0,3793.88,0.319663,0.319418,0.403832,11,0.0441292,10,0.000128991,-3.3938,-1.19619,-0.0493234,0.318695,
2,1,0,1,0,3797.64,0.338468,0.3382,0.392317,11,0.0456514,10,0.000132682,-3.40636,-1.13919,-0.051791,0.337498,
2,1,0,0,0,3801.4,0.357273,0.357077,0.381842,11,0.0471329,10,0.000136347,-3.41812,-1.73244,-0.0340559,0.356394,
2,1,0,0,0,3805.16,0.376079,0.375878,0.371315,11,0.0485764,10,0.000139569,-3.43026,-0.643443,-0.0916942,0.375214,
2,1,0,1,0,3808.92,0.394884,0.394689,0.360996,11,0.0499851,10,0.000142481,-3.4425,-4.26118,-0.0138459,0.394043,
2,1,0,0,0,3812.68,0.41369,0.413528,0.355116,11,0.0513645,10,0.00014685,-3.44963,1.45891,0.0404412,0.412892,
2,1,0,0,0,3816.44,0.432495,0.432291,0.351014,11,0.0527231,10,0.00015174,-3.45468,-0.872178,-0.0676468,0.431662,
2,1,0,1,0,3820.2,0.4513,0.451101,0.349015,11,0.0540649,10,0.000157441,-3.45716,-2.15244,-0.0274107,0.450477,
2,1,0,0,0,3823.96,0.470106,0.469969,0.347288,11,0.0553978,10,0.000163215,-3.45931,3.31986,0.0177718,0.469348,
2,1,0,0,0,3827.73,0.488911,0.488598,0.348982,11,0.0567291,10,0.000170512,-3.4572,-2.87878,-0.0204948,0.487974,
2,1,0,1,0,3831.49,0.507716,0.507581,0.350845,11,0.0580673,10,0.000178082,-3.45488,1.16899,0.0504707,0.506953,
2,1,0,0,0,3835.25,0.526522,0.526324,0.357147,11,0.0594188,10,0.000187975,-3.44715,1.66525,0.0354302,0.525685,
2,1,0,0,0,3839.01,0.545327,0.545173,0.365526,11,0.0607935,10,0.000199275,-3.43708,1.03055,0.0572511,0.544519,
2,1,0,1,0,3842.77,0.564132,0.563946,0.376455,11,0.062205,10,0.0002123,-3.42429,1.52299,0.0387395,0.563272,
2,1,0,1,0,3846.53,0.582938,0.582756,0.397222,11,0.0636777,10,0.000231483,-3.40097,0.452894,0.130273,0.582045,
2,1,0,0,0,3850.29,0.601743,0.601614,0.428415,11,0.0652464,10,0.000257741,-3.36814,0.578779,0.101939,0.600848,
2,1,0,1,0,3854.05,0.620548,0.620463,0.482367,11,0.0669704,10,0.000299291,-3.31662,0.275428,0.214212,0.6196,
2,1,0,1,0,3857.81,0.639354,0.639111,0.577785,11,0.0689697,10,0.000369269,-3.23823,0.196101,0.300866,0.638077,
2,1,0,0,0,3861.58,0.658159,0.65796,0.755504,11,0.0714655,10,0.000497092,-3.12176,0.116909,0.504665,0.656608,
2,1,0,1,0,3865.34,0.676965,0.676799,1.0719,11,0.0748705,10,0.000725464,-2.96984,0.117287,0.503039,0.674881,
2,1,0,1,0,3869.1,0.69577,0.695524,1.61079,11,0.0798611,10,0.00112034,-2.79296,0.0873431,0.675497,0.692641,
2,1,0,0,0,3872.86,0.714575,0.714325,2.42736,11,0.0873946,10,0.00173392,-2.61487,0.10933,0.539649,0.70998,
2,1,0,1,0,3876.62,0.733381,0.733116,3.51536,11,0.0985217,10,0.00257717,-2.45403,0.0994061,0.593525,0.726824,
2,1,0,1,0,3880.38,0.752186,0.751994,4.83455,11,0.114193,10,0.00363555,-2.31564,0.131221,0.449622,0.74334,
2,1,0,0,0,3884.14,0.770991,0.770738,6.30641,11,0.135124,10,0.00486058,-2.20022,0.160785,0.366949,0.759449,
2,1,0,1,0,3887.9,0.789797,0.789567,7.92265,11,0.161867,10,0.00625547,-2.10113,0.189035,0.312112,0.775386,
2,1,0,1,0,3891.66,0.808602,0.808368,9.68116,11,0.194956,10,0.00782594,-2.01407,0.194769,0.302923,0.791039,
2,1,0,0,0,3895.43,0.827407,0.827236,11.5936,11,0.234937,10,0.0095906,-1.93578,0.215775,0.273432,0.806484,
2,1,0,0,0,3899.19,0.846213,0.846085,13.6668,11,0.282416,10,0.0115633,-1.86433,0.187094,0.315349,0.821621,
2,1,0,0,0,3902.93,0.835009,0.83489,11.7964,11,0.331351,10,0.00984868,-1.92825,0.137425,0.429326,0.813775,
2,1,0,1,0,3906.69,0.816204,0.81606,9.45796,11,0.371172,10,0.00771826,-2.0242,0.148127,0.398306,0.799131,
2,1,0,0,0,3910.45,0.797399,0.797202,7.44637,11,0.402837,10,0.00593626,-2.12806,0.143135,0.412197,0.783873,
2,1,0,0,0,3914.21,0.778593,0.778392,5.71749,11,0.427478,10,0.00445045,-2.24279,0.112526,0.524324,0.768157,
2,1,0,1,0,3917.97,0.759788,0.759619,4.24501,11,0.446104,10,0.00322459,-2.37212,0.104183,0.566309,0.752021,
2,1,0,0,0,3921.73,0.740983,0.740847,3.01358,11,0.459653,10,0.0022326,-2.52092,0.0947178,0.622903,0.735453,
2,1,0,0,0,3925.49,0.722177,0.721931,2.02531,11,0.469031,10,0.00146213,-2.69351,0.0981689,0.601005,0.718306,
2,1,0,1,0,3929.26,0.703372,0.70314,1.2741,11,0.475139,10,0.000895873,-2.8948,0.0852485,0.692094,0.700859,
2,1,0,1,0,3933.02,0.684567,0.684291,0.74107,11,0.478844,10,0.000507108,-3.13014,0.065177,0.905228,0.682965,
2,1,0,0,0,3936.78,0.665761,0.665557,0.390299,11,0.480901,10,0.000259766,-3.4086,0.0551565,1.06968,0.664858,
2,1,0,1,0,3940.54,0.646956,0.646756,0.166149,11,0.481891,10,0.000107458,-3.7795,0.0417723,1.41242,0.646458,
2,1,0,1,0,3944.3,0.628151,0.627907,0.019797,11,0.482194,10,1.24307e-05,-4.7034,0.0074625,7.9062,0.627872,
2,0,0,0,0,3948.06,0.609345,0.60924,-0.0737645,11,0.482054,10,-4.49403e-05,-4.13215,-0.0378542,-1.55861,0.609372,
2,0,0,1,0,3951.82,0.59054,0.59042,-0.1369,11,0.48162,10,-8.08287e-05,-3.8636,-0.119328,-0.494437,0.590665,
2,0,0,1,0,3955.58,0.571735,0.571552,-0.174056,11,0.481,10,-9.94822e-05,-3.75931,-0.262853,-0.22446,0.571863,
2,0,0,0,0,3959.34,0.552929,0.552646,-0.197213,11,0.48027,10,-0.000108989,-3.70506,-0.424917,-0.138851,0.552999,
2,0,0,1,0,3963.11,0.534124,0.533874,-0.208675,11,0.479476,10,-0.000111406,-3.68053,-0.530058,-0.111308,0.534247,
2,0,0,1,0,3966.87,0.515318,0.515015,-0.218455,11,0.478642,10,-0.000112508,-3.66064,-3.26201,-0.018087,0.515406,
2,0,0,0,0,3970.63,0.496513,0.496424,-0.22503,11,0.477778,10,-0.00011171,-3.64776,15.0909,0.00390964,0.496827,
2,0,0,1,0,3974.39,0.477708,0.477499,-0.234453,11,0.476884,10,-0.000111951,-3.62994,-5.33614,-0.0110567,0.477919,
2,0,0,1,0,3978.15,0.458902,0.458708,-0.244169,11,0.47596,10,-0.000112002,-3.61231,-0.721059,-0.0818241,0.459145,
2,0,0,0,0,3981.91,0.440097,0.439945,-0.254917,11,0.474998,10,-0.000112149,-3.5936,-0.467011,-0.126335,0.440401,
2,0,0,0,0,3985.67,0.421292,0.421106,-0.267955,11,0.473991,10,-0.000112838,-3.57194,-0.492834,-0.119716,0.421585,
2,0,0,1,0,3989.43,0.402486,0.402276,-0.283006,11,0.472932,10,-0.000113847,-3.5482,-1.8812,-0.031363,0.402783,
2,0,0,0,0,3993.19,0.383681,0.383504,-0.29831,11,0.471816,10,-0.000114403,-3.52533,-1.09488,-0.0538871,0.384038,
2,0,0,0,0,3996.95,0.364876,0.364617,-0.314775,11,0.470636,10,-0.000114772,-3.502,-0.455023,-0.129664,0.36518,
2,0,0,1,0,4000.72,0.34607,0.345844,-0.334226,11,0.469384,10,-0.00011559,-3.47596,-1.46282,-0.0403329,0.346443,
2,0,0,0,0,4004.48,0.327265,0.327072,-0.353807,11,0.468059,10,-0.00011572,-3.45123,-0.559667,-0.10542,0.327705,
2,0,0,0,0,4008.24,0.30846,0.308319,-0.371953,11,0.466659,10,-0.00011468,-3.42951,-0.486879,-0.12118,0.308984,
2,0,0,1,0,4012,0.289654,0.289422,-0.392559,11,0.465185,10,-0.000113615,-3.40609,-0.966668,-0.0610344,0.290125,
2,0,0,0,0,4015.76,0.270849,0.270688,-0.415469,11,0.463632,10,-0.000112463,-3.38146,-0.705275,-0.0836553,0.271432,
2,0,0,0,0,4019.52,0.252043,0.251897,-0.439561,11,0.461995,10,-0.000110724,-3.35698,-0.56542,-0.104347,0.252683,
2,0,0,1,0,4023.28,0.233238,0.232962,-0.471323,11,0.460251,10,-0.0001098,-3.32668,-0.447013,-0.131987,0.233806,
2,0,0,1,0,4027.04,0.214433,0.214142,-0.518881,11,0.458355,10,-0.000111114,-3.28493,-0.297123,-0.198571,0.215071,
2,0,0,0,0,4030.8,0.195627,0.195398,-0.604734,11,0.456218,10,-0.000118164,-3.21844,-0.186708,-0.316002,0.196481,
2,0,0,1,0,4034.57,0.176822,0.176578,-0.769538,11,0.453629,10,-0.000135883,-3.11377,-0.164285,-0.359132,0.177955,
2,0,0,1,0,4038.33,0.158017,0.157834,-1.11221,11,0.450122,10,-0.000175545,-2.95381,-0.104297,-0.565693,0.159825,
2,0,0,0,0,4042.09,0.139211,0.138938,-1.57104,11,0.445019,10,-0.000218277,-2.80381,-0.186159,-0.316934,0.14175,
2,0,0,1,0,4045.85,0.120406,0.120146,-1.72552,11,0.438633,10,-0.000207315,-2.76308,0.908775,0.0649225,0.123235,
2,0,0,1,0,4049.61,0.101601,0.101336,-1.50415,11,0.432457,10,-0.000152425,-2.82271,0.228082,0.258679,0.104028,
2,0,0,0,0,4053.37,0.0827953,0.0825252,-1.15551,11,0.427432,10,-9.53584e-05,-2.93723,0.160018,0.36871,0.0845936,
2,0,0,1,0,4057.13,0.0639899,0.0637338,-0.937424,11,0.423521,10,-5.97456e-05,-3.02806,0.297035,0.19863,0.0654118,
2,0,0,1,0,4060.89,0.0451846,0.0449614,-0.853994,11,0.420149,10,-3.83968e-05,-3.06855,0.836954,0.0704937,0.04649,
2,0,0,0,0,4064.65,0.0263792,0.0261604,-0.828806,11,0.416969,10,-2.16819e-05,-3.08155,-18.5922,-0.00317338,0.0276439,
2,0,0,1,0,4068.42,0.00757389,0.00736892,-0.829701,11,0.413831,10,-6.114e-06,-3.08108,-1.61156,-0.0366106,0.00885408,
2,0,0,0,0,4069.9,0.000171779,-0.000170573,-0.843013,11,0.412577,10,1.43795e-07,-3.07417, , ,0.00133842,