File: Figure_codes/Fig_2_S1_S6/20220924_003_MultiCV_0_850mV_1-84_C_02_CV_C01_1.csv
mode,ox/red,error,control changes,counter inc.,time/s,control/V,Ewe/V,<I>/mA,cycle number,(Q-Qo)/C,I Range,P/W,log(|I|),Tafel slope mV/dec,alpha_eff,E-IR/V,
2,0,0,0,0,400.013,2.17368e-05,-0.000275554,-0.185258,2,0.0000000E+000,10,5.10486e-08,-3.73222, , ,5.60589e-05,
2,1,0,0,0,403.724,0.018577,0.0182869,0.337923,2,0.000979808,10,6.17956e-06,-3.47118,0.278528,0.211828,0.017682,
2,1,0,1,0,407.445,0.0371823,0.0369161,0.371536,2,0.00235696,10,1.37156e-05,-3.43,0.242901,0.242898,0.036251,
2,1,0,0,0,411.166,0.0557876,0.0554976,0.397327,2,0.00382593,10,2.20507e-05,-3.40085,0.410854,0.143603,0.0547864,
2,1,0,0,0,414.887,0.0743929,0.0741459,0.424923,2,0.0053847,10,3.15063e-05,-3.37169,-8.08504,-0.00729742,0.0733853,
2,1,0,1,0,418.608,0.0929982,0.0927847,0.488319,2,0.00710812,10,4.53085e-05,-3.3113,0.178219,0.331053,0.0919106,
2,1,0,0,0,422.329,0.111603,0.111318,0.651052,2,0.00922601,10,7.24741e-05,-3.18638,0.114642,0.514646,0.110153,
2,1,0,0,0,426.051,0.130209,0.12989,1.04647,2,0.0123235,10,0.000135926,-2.98027,0.0727602,0.810883,0.128017,
2,1,0,1,0,429.772,0.148814,0.148606,1.73418,2,0.0175173,10,0.000257709,-2.76091,0.105311,0.560246,0.145501,
2,1,0,0,0,433.493,0.167419,0.167197,1.98634,2,0.0247438,10,0.00033211,-2.70195,-0.352832,-0.167218,0.163641,
2,1,0,1,0,437.214,0.186025,0.185788,1.25824,2,0.0310372,10,0.000233766,-2.90024,-0.070795,-0.833392,0.183535,
2,1,0,1,0,440.935,0.20463,0.204388,0.714246,2,0.0345448,10,0.000145984,-3.14615,-0.13397,-0.440396,0.20311,
2,1,0,0,0,444.656,0.223235,0.222979,0.556335,2,0.0368926,10,0.000124051,-3.25466,-0.238488,-0.247392,0.221983,
2,1,0,1,0,448.377,0.241841,0.241618,0.485937,2,0.0388581,10,0.000117411,-3.31342,-1.47267,-0.0400633,0.240748,
2,1,0,1,0,452.098,0.260446,0.260285,0.454992,2,0.0406461,10,0.000118428,-3.342,-0.852494,-0.0692087,0.259471,
2,1,0,0,0,455.819,0.279051,0.278733,0.43558,2,0.042335,10,0.000121411,-3.36093,-0.372642,-0.158329,0.277954,
2,1,0,1,0,459.54,0.297656,0.297401,0.420627,2,0.0439599,10,0.000125095,-3.3761,-0.838773,-0.0703409,0.296648,
2,1,0,1,0,463.261,0.316262,0.316087,0.40616,2,0.0455362,10,0.000128382,-3.3913,-2.03251,-0.0290282,0.31536,
2,1,0,0,0,466.982,0.334867,0.334573,0.396029,2,0.0470719,10,0.000132501,-3.40227,-2.37688,-0.0248225,0.333864,
2,1,0,1,0,470.703,0.353472,0.353241,0.389669,2,0.0485725,10,0.000137647,-3.4093,1.96376,0.0300444,0.352543,
2,1,0,0,0,474.424,0.372078,0.371755,0.380524,2,0.0500399,10,0.000141462,-3.41962,-1.85807,-0.0317533,0.371074,
2,1,0,0,0,478.145,0.390683,0.390442,0.371691,2,0.0514784,10,0.000145124,-3.42982,-1.00361,-0.0587879,0.389777,
2,1,0,1,0,481.866,0.409288,0.409042,0.365396,2,0.0528895,10,0.000149462,-3.43724,4.2779,0.0137918,0.408388,
2,1,0,0,0,485.587,0.427894,0.427595,0.36354,2,0.0542811,10,0.000155448,-3.43945,-1.59193,-0.0370619,0.426945,
2,1,0,0,0,489.309,0.446499,0.446263,0.359243,2,0.0556568,10,0.000160317,-3.44461,-11.1619,-0.00528584,0.44562,
2,1,0,1,0,493.03,0.465104,0.464911,0.35851,2,0.0570232,10,0.000166675,-3.4455,2.73053,0.0216076,0.464269,
2,1,0,0,0,496.751,0.483709,0.483588,0.357368,2,0.0583904,10,0.000172819,-3.44688,-0.764225,-0.0772024,0.482948,
2,1,0,0,0,500.472,0.502315,0.502122,0.362028,2,0.0597668,10,0.000181782,-3.44126,4.8658,0.0121254,0.501474,
2,1,0,1,0,504.193,0.52092,0.520694,0.368784,2,0.0611646,10,0.000192023,-3.43323,1.46578,0.0402516,0.520034,
2,1,0,0,0,507.914,0.539525,0.539256,0.3819,2,0.0625968,10,0.000205942,-3.41805,0.905109,0.0651856,0.538572,
2,1,0,1,0,511.635,0.558131,0.557885,0.405012,2,0.0640919,10,0.00022595,-3.39253,0.757285,0.0779099,0.55716,
2,1,0,1,0,515.356,0.576736,0.57641,0.444309,2,0.065697,10,0.000256104,-3.35231,0.422771,0.139555,0.575614,
2,1,0,0,0,519.077,0.595341,0.595077,0.517135,2,0.0675015,10,0.000307735,-3.2864,0.25095,0.235106,0.594151,
2,1,0,1,0,522.798,0.613947,0.613764,0.654933,2,0.0696805,10,0.000401974,-3.1838,0.159141,0.370741,0.612591,
2,1,0,1,0,526.519,0.632552,0.632297,0.915797,2,0.0725816,10,0.000579056,-3.0382,0.0992427,0.594502,0.630658,
2,1,0,0,0,530.24,0.651157,0.650936,1.3803,2,0.0768065,10,0.000898488,-2.86003,0.0868146,0.679609,0.648465,
2,1,0,1,0,533.961,0.669762,0.669518,2.13619,2,0.083278,10,0.00143021,-2.67036,0.0899348,0.656031,0.665694,
2,1,0,1,0,537.682,0.688368,0.688156,3.25537,2,0.0932224,10,0.0022402,-2.4874,0.0933225,0.632216,0.682329,
2,1,0,0,0,541.403,0.706973,0.706766,4.77204,2,0.108069,10,0.00337272,-2.3213,0.108755,0.542502,0.698224,
2,1,0,1,0,545.124,0.725578,0.72531,6.64109,2,0.129246,10,0.00481685,-2.17776,0.109478,0.538919,0.713422,
2,1,0,0,0,548.845,0.744184,0.743939,8.74356,2,0.157858,10,0.00650468,-2.05831,0.14067,0.41942,0.728288,
2,1,0,0,0,552.567,0.762789,0.762597,10.978,2,0.194569,10,0.00837178,-1.95948,0.160157,0.368388,0.742946,
2,1,0,1,0,556.288,0.781394,0.781197,13.3224,2,0.239797,10,0.0104074,-1.87542,0.185204,0.318567,0.75735,
2,1,0,0,0,560.009,0.799999,0.799884,15.7976,2,0.293979,10,0.0126363,-1.80141,0.21801,0.27063,0.771606,
2,1,0,0,0,563.73,0.818605,0.81836,18.4204,2,0.357633,10,0.0150745,-1.7347,0.196435,0.300354,0.785388,
2,1,0,1,0,567.451,0.83721,0.837037,21.2091,2,0.431417,10,0.0177528,-1.67348,0.244394,0.241414,0.799073,
2,1,0,1,0,571.152,0.844212,0.843947,21.7866,2,0.513773,10,0.0183868,-1.66181,0.178494,0.330544,0.804949,
2,1,0,0,0,574.873,0.825607,0.825375,18.4665,2,0.588427,10,0.0152418,-1.73361,0.183679,0.321212,0.79232,
2,1,0,0,0,578.595,0.807002,0.806822,15.4826,2,0.651516,10,0.0124917,-1.81016,0.175333,0.336502,0.779108,
2,1,0,1,0,582.316,0.788396,0.788164,12.6495,2,0.70375,10,0.0099699,-1.89793,0.152069,0.387982,0.765522,
2,1,0,0,0,586.037,0.769791,0.76965,10.02,2,0.745818,10,0.0077119,-1.99913,0.122012,0.483559,0.751714,
2,1,0,0,0,589.758,0.751186,0.75104,7.6578,2,0.778588,10,0.00575131,-2.1159,0.11585,0.509278,0.737332,
2,1,0,1,0,593.479,0.73258,0.732334,5.57372,2,0.803068,10,0.00408183,-2.25385,0.104619,0.563954,0.722357,
2,1,0,0,0,597.2,0.713975,0.713733,3.84105,2,0.820428,10,0.00274149,-2.41555,0.0865694,0.681534,0.706858,
2,1,0,1,0,600.921,0.69537,0.695104,2.47204,2,0.832022,10,0.00171832,-2.60695,0.0867257,0.680306,0.690679,
2,1,0,1,0,604.642,0.676764,0.676523,1.46283,2,0.839206,10,0.000989637,-2.83481,0.0645034,0.914681,0.673904,
2,1,0,0,0,608.363,0.658159,0.657979,0.764714,2,0.843224,10,0.000503166,-3.1165,0.0521946,1.13038,0.65661,
2,1,0,1,0,612.084,0.639554,0.63936,0.314299,2,0.845127,10,0.00020095,-3.50266,0.0368873,1.59947,0.638797,
2,1,0,1,0,615.805,0.620949,0.620664,0.0485353,2,0.84572,10,3.01241e-05,-4.31394,0.0105272,5.60451,0.620577,
2,0,0,0,0,619.526,0.602343,0.602168,-0.0930921,2,0.845579,10,-5.60571e-05,-4.03109,-0.0299688,-1.96872,0.602335,
2,0,0,1,0,623.247,0.583738,0.583577,-0.161855,2,0.845061,10,-9.44548e-05,-3.79087,-0.134662,-0.438134,0.583867,
2,0,0,1,0,626.968,0.565133,0.564957,-0.195247,2,0.844361,10,-0.000110306,-3.70942,-0.291024,-0.202732,0.565307,
2,0,0,0,0,630.689,0.546527,0.546252,-0.211693,2,0.843571,10,-0.000115637,-3.67429,-0.46779,-0.126125,0.546631,
2,0,0,1,0,634.41,0.527922,0.527651,-0.222752,2,0.842729,10,-0.000117535,-3.65218,-0.655468,-0.0900121,0.52805,
2,0,0,0,0,638.131,0.509317,0.509041,-0.229469,2,0.841852,10,-0.000116809,-3.63928,3.9868,0.0147988,0.509452,
2,0,0,0,0,641.853,0.490711,0.490459,-0.239808,2,0.840944,10,-0.000117616,-3.62014,-0.915037,-0.0644782,0.490889,
2,0,0,1,0,645.574,0.472106,0.471964,-0.247589,2,0.840004,10,-0.000116853,-3.60627,0.480442,0.122804,0.472407,
2,0,0,0,0,649.295,0.453501,0.453363,-0.259168,2,0.839029,10,-0.000117497,-3.58642,-0.39481,-0.149439,0.453827,
2,0,0,0,0,653.016,0.434896,0.434629,-0.272323,2,0.838011,10,-0.00011836,-3.56492,-1.20316,-0.0490377,0.435116,
2,0,0,1,0,656.737,0.41629,0.416219,-0.285213,2,0.836945,10,-0.000118711,-3.54483,-0.838709,-0.0703462,0.41673,
2,0,0,0,0,660.458,0.397685,0.397437,-0.300101,2,0.835822,10,-0.000119271,-3.52273,-5.21468,-0.0113142,0.397975,
2,0,0,0,0,664.179,0.37908,0.378865,-0.317267,2,0.834638,10,-0.000120202,-3.49857,-1.30526,-0.0452018,0.379433,
2,0,0,1,0,667.9,0.360474,0.360293,-0.338023,2,0.833384,10,-0.000121787,-3.47105,-6.01538,-0.0098082,0.360899,
2,0,0,0,0,671.621,0.341869,0.341674,-0.356539,2,0.832061,10,-0.00012182,-3.44789,-1.31483,-0.0448728,0.342312,
2,0,0,1,0,675.342,0.323264,0.323025,-0.373491,2,0.830664,10,-0.000120647,-3.42772,-1.25941,-0.0468472,0.323694,
2,0,0,1,0,679.063,0.304658,0.304463,-0.392241,2,0.829197,10,-0.000119423,-3.40645,-0.808153,-0.073006,0.305165,
2,0,0,0,0,682.784,0.286053,0.285834,-0.416229,2,0.827657,10,-0.000118972,-3.38067,-0.59029,-0.0999509,0.286579,
2,0,0,1,0,686.505,0.267448,0.267195,-0.437776,2,0.826036,10,-0.000116972,-3.35875,5.18626,0.0113762,0.267979,
2,0,0,1,0,690.226,0.248843,0.248594,-0.465554,2,0.824319,10,-0.000115734,-3.33203,-0.37886,-0.15573,0.249428,
2,0,0,0,0,693.947,0.230237,0.230089,-0.505552,2,0.822475,10,-0.000116322,-3.29623,-0.47749,-0.123563,0.230994,
2,0,0,1,0,697.668,0.211632,0.211365,-0.571842,2,0.820443,10,-0.000120867,-3.24272,-0.265769,-0.221997,0.212388,
2,0,0,1,0,701.39,0.193027,0.192859,-0.692598,2,0.818078,10,-0.000133574,-3.15952,-0.177594,-0.332218,0.194099,
2,0,0,0,0,705.111,0.174421,0.174192,-0.933686,2,0.815065,10,-0.000162641,-3.0298,-0.111276,-0.530212,0.175863,
2,0,0,1,0,708.832,0.155816,0.155544,-1.42585,2,0.810724,10,-0.000221782,-2.84593,-0.0984502,-0.599288,0.158096,
2,0,0,1,0,712.553,0.137211,0.136962,-1.99383,2,0.804251,10,-0.00027308,-2.70031,-0.190802,-0.309221,0.140531,
2,0,0,0,0,716.274,0.118605,0.118371,-1.98148,2,0.796518,10,-0.00023455,-2.70301,0.182358,0.323539,0.121918,
2,0,0,1,0,719.995,0.1,0.0997324,-1.29558,2,0.79034,10,-0.000129211,-2.88754,0.0882527,0.668535,0.102052,
2,0,0,0,0,723.716,0.0813949,0.0812178,-0.939255,2,0.786276,10,-7.62841e-05,-3.02722,0.268331,0.219878,0.082899,
2,0,0,0,0,727.437,0.0627896,0.0625599,-0.841079,2,0.782949,10,-5.26178e-05,-3.07516,0.595196,0.0991271,0.0640654,
2,0,0,1,0,731.158,0.0441843,0.0440261,-0.807856,2,0.779852,10,-3.55667e-05,-3.09267,4.05904,0.0145355,0.0454722,
2,0,0,0,0,734.879,0.025579,0.0253301,-0.810802,2,0.776807,10,-2.05377e-05,-3.09109,-4.21761,-0.013989,0.0267814,
2,0,0,0,0,738.6,0.00697372,0.00674858,-0.840747,2,0.773702,10,-5.67385e-06,-3.07533,-0.826441,-0.0713905,0.00825352,
2,0,0,0,0,739.961,0.000171779,-8.46803e-05,-0.861308,2,0.772526,10,7.29358e-08,-3.06484, , ,0.00145706,