File: Figure_codes/Fig_6/UV_vis_comp_Potential_BeforeCVs.csv
波長 (nm),0 mV,50 mV,100 mV,150 mV,200 mV,300 mV,400 mV,500 mV,600 mV,700 mV,800 mV,100-0,200-100,300-200,400-300,500-400,600-500,700-600,800-700,800 - 500,500 - 300,Raw data name,Mod column name
300,0.018,0.001,0.05,0.024,0.055,-0.001,0.071,0.072,0.035,0.037,0.014,0.032,0.005,-0.056,0.072,0.001,-0.037,0.002,-0.023,-0.058,0.073,20221215_1-140_006_0mV.spc - RawData,0 mV
307,0.026,0.022,0.044,0.013,0.005,0.014,0.049,0.022,0.055,0.046,0.028,0.018,-0.039,0.009,0.035,-0.027,0.033,-0.009,-0.018,0.006,0.008,20221215_1-140_013_500mV.spc - RawData,500 mV
314,0.029,0.011,0.022,0.022,-0.003,0.044,0.055,0.035,0.015,0.049,0.035,-0.007,-0.025,0.047,0.011,-0.02,-0.02,0.034,-0.014,0,-0.009,,200-100
321,0.02,0.008,0.01,0.005,0.001,0.031,0.026,0.027,0.034,0.017,0.021,-0.01,-0.009,0.03,-0.005,0.001,0.007,-0.017,0.004,-0.007,-0.003,,
328,-0.006,0.002,-0.002,0.005,0.02,0.014,0.009,0.023,0.032,0.02,0.029,0.004,0.022,-0.006,-0.005,0.014,0.009,-0.012,0.009,0.006,0.009,,
335,0.011,0.01,0.016,0.011,0.016,0.019,0.029,0.017,0.03,0.045,0.021,0.005,0,0.003,0.01,-0.012,0.013,0.015,-0.024,0.005,-0.002,,
342,-0.003,0.001,0.007,-0.006,0.007,0.011,0.015,0.016,0.024,0.027,0.025,0.01,0,0.004,0.004,0.001,0.008,0.003,-0.002,0.009,0.005,,
349,0.003,0.015,0.023,0.026,0.024,0.024,0.034,0.042,0.036,0.039,0.039,0.02,0.001,0,0.01,0.008,-0.006,0.003,0,-0.003,0.018,,
356,0.01,0.01,0.011,0.021,0.028,0.031,0.034,0.028,0.039,0.04,0.038,0.001,0.017,0.003,0.003,-0.006,0.011,0.001,-0.002,0.01,-0.003,,
363,-0.002,0.007,0.007,0.016,0.019,0.027,0.025,0.039,0.033,0.037,0.032,0.009,0.012,0.008,-0.002,0.014,-0.006,0.004,-0.005,-0.007,0.012,,
370,0.01,0.006,0.006,0.011,0.025,0.017,0.026,0.031,0.036,0.038,0.034,-0.004,0.019,-0.008,0.009,0.005,0.005,0.002,-0.004,0.003,0.014,,
377,-0.001,0.008,0.01,0.017,0.022,0.028,0.031,0.032,0.034,0.041,0.038,0.011,0.012,0.006,0.003,0.001,0.002,0.007,-0.003,0.007,0.003,,
384,0,0.008,0.008,0.017,0.024,0.023,0.026,0.039,0.036,0.043,0.04,0.008,0.016,-0.001,0.003,0.013,-0.003,0.007,-0.003,0.001,0.016,,
391,-0.004,0.004,0.004,0.013,0.017,0.02,0.031,0.032,0.033,0.037,0.04,0.008,0.013,0.003,0.011,0.001,0.001,0.004,0.003,0.008,0.012,,
398,-0.002,0.004,0.011,0.016,0.024,0.026,0.033,0.039,0.042,0.039,0.043,0.013,0.013,0.002,0.007,0.006,0.003,-0.003,0.004,0.004,0.013,,
405,0,0.005,0.009,0.015,0.025,0.029,0.035,0.035,0.042,0.044,0.046,0.009,0.016,0.004,0.006,0,0.007,0.002,0.002,0.011,0.006,,
412,0.005,0.007,0.009,0.019,0.024,0.034,0.035,0.042,0.04,0.048,0.048,0.004,0.015,0.01,0.001,0.007,-0.002,0.008,0,0.006,0.008,,
419,0.001,0.009,0.011,0.019,0.026,0.03,0.038,0.039,0.041,0.049,0.048,0.01,0.015,0.004,0.008,0.001,0.002,0.008,-0.001,0.01,0.008,,
426,0,0.006,0.01,0.017,0.025,0.033,0.034,0.043,0.049,0.051,0.053,0.01,0.015,0.008,0.001,0.009,0.006,0.002,0.002,0.01,0.01,,
433,0.002,0.005,0.008,0.014,0.027,0.036,0.039,0.045,0.048,0.052,0.055,0.006,0.019,0.009,0.003,0.006,0.003,0.004,0.003,0.01,0.009,,
440,-0.002,0.008,0.011,0.018,0.029,0.039,0.045,0.047,0.051,0.054,0.056,0.013,0.018,0.01,0.006,0.002,0.004,0.003,0.002,0.009,0.008,,
447,0.001,0.008,0.013,0.018,0.03,0.04,0.047,0.048,0.052,0.056,0.061,0.012,0.017,0.01,0.007,0.001,0.004,0.004,0.005,0.013,0.008,,
454,0.002,0.005,0.008,0.016,0.029,0.039,0.045,0.051,0.055,0.06,0.061,0.006,0.021,0.01,0.006,0.006,0.004,0.005,0.001,0.011,0.011,,
461,0.002,0.005,0.011,0.017,0.031,0.039,0.044,0.051,0.055,0.063,0.062,0.009,0.02,0.008,0.005,0.007,0.004,0.008,-0.001,0.011,0.012,,
468,0,0.008,0.013,0.022,0.033,0.045,0.049,0.056,0.061,0.066,0.068,0.013,0.02,0.012,0.004,0.007,0.005,0.005,0.002,0.012,0.011,,
475,-0.001,0.007,0.012,0.022,0.033,0.044,0.05,0.056,0.06,0.068,0.071,0.013,0.021,0.011,0.006,0.006,0.004,0.008,0.003,0.015,0.012,,
482,0.002,0.009,0.013,0.022,0.039,0.046,0.053,0.06,0.064,0.071,0.074,0.011,0.026,0.007,0.007,0.007,0.004,0.007,0.003,0.013,0.015,,
489,-0.001,0.009,0.014,0.022,0.038,0.047,0.054,0.061,0.066,0.072,0.076,0.015,0.024,0.009,0.007,0.007,0.005,0.006,0.004,0.015,0.014,,
496,0.003,0.008,0.014,0.024,0.036,0.047,0.056,0.06,0.068,0.073,0.076,0.011,0.022,0.011,0.009,0.004,0.008,0.005,0.003,0.016,0.013,,
503,0.001,0.008,0.015,0.022,0.038,0.046,0.055,0.06,0.067,0.072,0.077,0.014,0.023,0.008,0.009,0.005,0.007,0.005,0.005,0.016,0.014,,
510,0.002,0.008,0.015,0.02,0.035,0.046,0.053,0.059,0.067,0.071,0.075,0.013,0.02,0.011,0.007,0.006,0.008,0.004,0.004,0.016,0.013,,
517,-0.003,0.005,0.009,0.019,0.03,0.04,0.049,0.054,0.06,0.066,0.073,0.012,0.021,0.01,0.009,0.005,0.006,0.006,0.007,0.019,0.014,,
524,0,0.006,0.012,0.019,0.032,0.043,0.05,0.056,0.06,0.068,0.072,0.012,0.02,0.011,0.007,0.006,0.004,0.008,0.004,0.016,0.013,,
531,-0.002,0.004,0.009,0.018,0.029,0.039,0.046,0.052,0.057,0.065,0.071,0.011,0.02,0.01,0.007,0.006,0.005,0.008,0.006,0.018,0.014,,
538,-0.001,0.005,0.011,0.016,0.028,0.038,0.043,0.049,0.057,0.062,0.067,0.012,0.017,0.01,0.005,0.006,0.008,0.005,0.005,0.017,0.011,,
545,0,0.005,0.01,0.016,0.029,0.038,0.043,0.05,0.055,0.062,0.066,0.01,0.019,0.009,0.005,0.007,0.005,0.007,0.004,0.016,0.012,,
552,-0.002,0.004,0.009,0.015,0.025,0.034,0.04,0.045,0.052,0.056,0.063,0.011,0.016,0.009,0.006,0.005,0.007,0.004,0.007,0.018,0.011,,
559,-0.002,0.002,0.009,0.012,0.023,0.032,0.036,0.042,0.048,0.054,0.057,0.011,0.014,0.009,0.004,0.006,0.006,0.006,0.003,0.015,0.01,,
566,0,0.005,0.009,0.014,0.021,0.03,0.037,0.041,0.048,0.053,0.057,0.009,0.012,0.009,0.007,0.004,0.007,0.005,0.004,0.016,0.011,,
573,-0.001,0.002,0.006,0.011,0.02,0.026,0.032,0.038,0.043,0.049,0.051,0.007,0.014,0.006,0.006,0.006,0.005,0.006,0.002,0.013,0.012,,
580,-0.001,0.003,0.007,0.011,0.019,0.026,0.03,0.036,0.041,0.047,0.047,0.008,0.012,0.007,0.004,0.006,0.005,0.006,0,0.011,0.01,,
587,-0.001,0.003,0.007,0.01,0.015,0.024,0.028,0.032,0.037,0.043,0.045,0.008,0.008,0.009,0.004,0.004,0.005,0.006,0.002,0.013,0.008,,
594,-0.001,0.002,0.005,0.008,0.015,0.022,0.024,0.029,0.034,0.038,0.04,0.006,0.01,0.007,0.002,0.005,0.005,0.004,0.002,0.01,0.008,,
601,-0.001,0.001,0.004,0.008,0.012,0.018,0.022,0.025,0.031,0.034,0.036,0.005,0.008,0.006,0.004,0.003,0.006,0.003,0.002,0.011,0.008,,
608,-0.001,0.003,0.005,0.008,0.012,0.017,0.02,0.024,0.028,0.033,0.034,0.006,0.007,0.005,0.003,0.004,0.004,0.005,0.001,0.01,0.006,,
615,0,0.003,0.005,0.006,0.01,0.015,0.019,0.021,0.024,0.03,0.033,0.005,0.005,0.005,0.004,0.002,0.003,0.006,0.003,0.012,0.006,,
622,-0.001,0.002,0.001,0.004,0.005,0.011,0.013,0.017,0.02,0.024,0.026,0.002,0.004,0.006,0.002,0.004,0.003,0.004,0.002,0.008,0.006,,
629,0.001,0.001,0.003,0.005,0.007,0.011,0.012,0.015,0.02,0.022,0.024,0.002,0.004,0.004,0.001,0.003,0.005,0.002,0.002,0.009,0.005,,
636,-0.001,0.001,0,0.002,0.004,0.008,0.009,0.012,0.015,0.019,0.019,0.001,0.004,0.004,0.001,0.003,0.003,0.004,0,0.007,0.004,,
643,0,0.001,0.003,0.005,0.005,0.008,0.008,0.012,0.015,0.017,0.018,0.003,0.002,0.003,0,0.004,0.003,0.002,0.001,0.007,0.004,,
650,0,-0.001,0.003,0.002,0.005,0.006,0.006,0.009,0.011,0.013,0.014,0.003,0.002,0.001,0,0.003,0.002,0.002,0.001,0.006,0.003,,
657,-0.001,-0.001,0.002,0.002,0.002,0.005,0.005,0.006,0.009,0.013,0.013,0.003,0,0.003,0,0.001,0.003,0.004,0,0.007,0.001,,
664,0,0.001,0.003,0.004,0.006,0.006,0.008,0.007,0.01,0.01,0.011,0.003,0.003,0,0.002,-0.001,0.003,0,0.001,0.004,0.001,,
671,-0.002,-0.003,0.001,0.002,0.001,0.004,0.001,0.005,0.006,0.007,0.007,0.003,0,0.003,-0.003,0.004,0.001,0.001,0,0.002,0.001,,
678,0.003,0.002,0.003,0.003,0.002,0.007,0.005,0.007,0.008,0.009,0.009,0,-0.001,0.005,-0.002,0.002,0.001,0.001,0,0.003,0,,
685,0.003,0.002,0,0.002,0.002,0.005,0.004,0.006,0.007,0.008,0.006,-0.003,0.002,0.003,-0.001,0.002,0.001,0.001,-0.002,0,0.001,,
692,0,0.001,0.001,0.002,0.001,0,0,0.003,0.002,0.007,0.005,0.001,0,-0.001,0,0.003,-0.001,0.005,-0.002,0.002,0.003,,
699,0.004,0.003,0.004,0.002,0.001,0.002,0.002,0.003,0.005,0.008,0.008,0,-0.003,0.001,0,0.001,0.002,0.003,0,0.005,0,,
706,-0.003,-0.001,-0.001,-0.004,-0.002,-0.001,-0.003,-0.001,0.001,0,-0.001,0.002,-0.001,0.001,-0.002,0.002,0.002,-0.001,-0.001,0,0.001,,
713,-0.001,-0.003,0,0,-0.003,-0.002,-0.003,-0.001,-0.002,-0.003,-0.004,0.001,-0.003,0.001,-0.001,0.002,-0.001,-0.001,-0.001,-0.003,0.001,,
720,-0.001,-0.002,-0.002,-0.004,-0.003,-0.003,-0.004,0.001,-0.004,-0.003,0.003,-0.001,-0.001,0,-0.001,0.005,-0.005,0.001,0.006,0.002,0.004,,
727,0,-0.001,-0.001,-0.003,-0.003,-0.002,-0.001,-0.002,0,0.001,-0.005,-0.001,-0.002,0.001,0.001,-0.001,0.002,0.001,-0.006,-0.002,-0.001,,
734,0,0.003,-0.006,0.002,-0.003,0,-0.002,-0.005,-0.007,0,-0.004,-0.006,0.003,0.003,-0.002,-0.003,-0.002,0.007,-0.004,0.001,-0.005,,
741,0.001,-0.006,-0.003,0.003,-0.002,-0.007,-0.004,-0.007,-0.007,-0.004,-0.005,-0.004,0.001,-0.005,0.003,-0.003,0,0.003,-0.001,0.002,0,,
748,0.004,0.005,-0.002,0.006,0,0,-0.005,0.001,0.001,-0.006,-0.003,-0.006,0.002,0,-0.005,0.006,0,-0.007,0.003,-0.003,0.001,,
755,0,0.004,0.003,0,-0.002,-0.002,-0.004,-0.001,-0.005,-0.008,-0.008,0.003,-0.005,0,-0.002,0.003,-0.004,-0.003,0,-0.007,0,,
762,0.001,0.008,0.002,0.005,0.006,0,0.001,-0.005,0,0.001,0.004,0.001,0.004,-0.006,0.001,-0.006,0.005,0.001,0.003,0.008,-0.005,,
769,-0.003,-0.006,-0.001,-0.008,-0.01,-0.007,-0.011,-0.006,-0.01,-0.011,-0.014,0.002,-0.009,0.003,-0.004,0.005,-0.004,-0.001,-0.003,-0.008,0,,
776,-0.003,-0.003,-0.011,-0.009,-0.009,-0.011,-0.015,-0.01,-0.014,-0.012,-0.024,-0.008,0.002,-0.002,-0.004,0.005,-0.004,0.002,-0.012,-0.014,0.001,,
783,-0.002,-0.004,0.003,-0.003,-0.011,-0.004,0.002,-0.006,-0.008,-0.017,-0.009,0.005,-0.014,0.007,0.006,-0.008,-0.002,-0.009,0.008,-0.003,-0.002,,
790,0.004,-0.001,-0.004,0.007,-0.007,-0.001,-0.002,-0.004,-0.008,-0.001,-0.007,-0.008,-0.003,0.006,-0.001,-0.002,-0.004,0.007,-0.006,-0.004,-0.002,,
797,0.007,-0.002,-0.003,-0.002,-0.007,-0.006,-0.011,-0.006,-0.01,-0.01,-0.006,-0.01,-0.004,0.001,-0.005,0.005,-0.004,0,0.004,0,-0.001,,
800,-0.007,-0.008,-0.009,-0.015,-0.017,-0.011,-0.01,-0.013,-0.027,-0.017,-0.018,-0.002,-0.008,0.006,0.001,-0.003,-0.014,0.01,-0.001,-0.005,-0.001,,