File: Figure_codes/Fig_3-5/rawdata_trumpetplot_data/after 10th/20221101_1-115_003_TrumpetPlot_ParaChange_from10_every3_05_CV_C01_14.csv
mode,ox/red,error,control changes,counter inc.,time/s,control/V,Ewe/V,<I>/mA,cycle number,(Q-Qo)/C,I Range,P/W,log(|I|),Tafel slope mV/dec,alpha_eff,dI/d(E-IR),E-IR/V,
2,0,0,1,0,28701.8,2.44065e-05,-0.000458935,-0.757051,15,0.0000000E+000,10,3.47437e-07,-3.12087, , , ,-0.000458935,
2,1,0,1,0,28702.2,0.00729063,0.00699779,0.66192,15,0.000135558,10,4.63198e-06,-3.17919,0.0452086,1.30506,32.9555,0.00699779,
2,1,0,1,0,28702.6,0.0147802,0.0144767,0.820133,15,0.000421762,10,1.18728e-05,-3.08612,0.111825,0.527609,16.8363,0.0144767,
2,1,0,1,0,28703,0.0222725,0.0219612,0.926597,15,0.000755381,10,2.03492e-05,-3.03311,0.160271,0.368127,13.2879,0.0219612,
2,1,0,1,0,28703.3,0.0297644,0.0294304,1.02723,15,0.00112703,10,3.02319e-05,-2.98833,0.18624,0.316796,12.6649,0.0294304,
2,1,0,1,0,28703.7,0.0372544,0.0369375,1.12469,15,0.00153548,10,4.15433e-05,-2.94897,0.206439,0.285798,12.5483,0.0369375,
2,1,0,1,0,28704.1,0.0447449,0.0444487,1.2179,15,0.00198034,10,5.41343e-05,-2.91439,0.228404,0.258315,12.2795,0.0444487,
2,1,0,1,0,28704.5,0.0522363,0.0518882,1.3086,15,0.00246018,10,6.79011e-05,-2.88319,0.243025,0.242773,12.4016,0.0518882,
2,1,0,1,0,28704.8,0.0597291,0.0593617,1.39317,15,0.00297248,10,8.27012e-05,-2.85599,0.277008,0.212991,11.5568,0.0593617,
2,1,0,1,0,28705.2,0.0672182,0.0669458,1.46669,15,0.00351362,10,9.81889e-05,-2.83366,0.367648,0.160479,9.16907,0.0669458,
2,1,0,1,0,28705.6,0.0747092,0.0743835,1.52836,15,0.00408018,10,0.000113685,-2.81578,0.531161,0.111077,6.61424,0.0743835,
2,1,0,1,0,28706,0.0822001,0.0818998,1.57824,15,0.00466796,10,0.000129257,-2.80183,0.616791,0.0956564,5.89951,0.08189977,
2,1,0,1,0,28706.3,0.0896911,0.0893944,1.63966,15,0.00527613,10,0.000146576,-2.78525,0.413729,0.142606,9.14591,0.0893944,
2,1,0,1,0,28706.7,0.097182,0.0968545,1.73451,15,0.00591301,10,0.000167995,-2.76082,0.223438,0.264056,17.895,0.0968545,
2,1,0,1,0,28707.1,0.104673,0.104331,1.88197,15,0.00659497,10,0.000196348,-2.72539,0.202759,0.290985,21.3392,0.104331,
2,1,0,1,0,28707.4,0.112164,0.111849,2.0377,15,0.00733575,10,0.000227914,-2.69086,0.254135,0.23216,18.4273,0.111849,
2,1,0,1,0,28707.8,0.119655,0.119329,2.15357,15,0.00812797,10,0.000256983,-2.66684,0.501964,0.117538,9.87118,0.119329,
2,1,0,1,0,28708.2,0.127146,0.126817,2.21911,15,0.00895413,10,0.000281422,-2.65382,0.647112,0.0911743,7.90887,0.126817,
2,1,0,1,0,28708.6,0.134637,0.13429,2.27278,15,0.00980365,10,0.000305212,-2.64344,5.51062,0.0107066,0.948614,0.13429,
2,1,0,1,0,28708.9,0.142128,0.141808,2.19033,15,0.0106521,10,0.000310607,-2.65949,-0.196522,-0.300221,-25.5253,0.1418083,
2,1,0,1,0,28709.3,0.149619,0.149259,1.87026,15,0.0114239,10,0.000279154,-2.7281,-0.0818199,-0.721096,-52.4737,0.149259,
2,1,0,1,0,28709.7,0.157108,0.156822,1.49215,15,0.0120556,10,0.000234002,-2.82619,-0.080731,-0.730822,-42.6343,0.156822,
2,1,0,1,0,28710.1,0.164601,0.164297,1.25774,15,0.0125717,10,0.000206643,-2.90041,-0.124642,-0.473355,-23.2972,0.164297,
2,1,0,1,0,28710.4,0.172092,0.171786,1.13334,15,0.0130234,10,0.000194692,-2.94564,-0.226571,-0.260404,-11.5707,0.171786,
2,1,0,1,0,28710.8,0.179582,0.179271,1.07129,15,0.0134409,10,0.00019205,-2.97009,-0.358504,-0.164573,-6.88717,0.179271,
2,1,0,1,0,28711.2,0.187073,0.186751,1.03257,15,0.0138398,10,0.000192832,-2.98608,-0.686517,-0.085941,-3.45438,0.186751,
2,1,0,1,0,28711.6,0.194564,0.194267,1.00849,15,0.0142271,10,0.000195917,-2.99633,-0.955257,-0.0617635,-2.42599,0.194267,
2,1,0,1,0,28711.9,0.202057,0.201805,0.988955,15,0.0146063,10,0.000199576,-3.00482,-1.02219,-0.057719,-2.22469,0.201805,
2,1,0,1,0,28712.3,0.209546,0.209248,0.974659,15,0.0149796,10,0.000203946,-3.01115,-0.784456,-0.0752113,-2.86432,0.209248,
2,1,0,1,0,28712.7,0.217037,0.216735,0.960364,15,0.0153476,10,0.000208145,-3.01756,-1.58499,-0.0372243,-1.39744,0.2167353,
2,1,0,1,0,28713.1,0.224528,0.224234,0.953388,15,0.0157119,10,0.000213782,-3.02073,-1.36791,-0.0431316,-1.6017,0.224234,
2,1,0,1,0,28713.4,0.232019,0.231712,0.944675,15,0.0160724,10,0.000218892,-3.02472,-8.50055,-0.00694072,-0.255584,0.231712,
2,1,0,1,0,28713.8,0.23951,0.239207,0.935003,15,0.0164299,10,0.000223659,-3.02919,-2.46014,-0.0239824,-0.875952,0.239207,
2,1,0,1,0,28714.2,0.247001,0.246734,0.927753,15,0.0167844,10,0.000228908,-3.03257,-1.29648,-0.0455078,-1.64392,0.246734,
2,1,0,1,0,28714.6,0.254492,0.254191,0.918785,15,0.0171361,10,0.000233547,-3.03679,-1.61768,-0.0364721,-1.31129,0.254191,
2,1,0,1,0,28714.9,0.261983,0.261613,0.911595,15,0.0174848,10,0.000238485,-3.0402,-1.5197,-0.0388233,-1.38379,0.261613,
2,1,0,1,0,28715.3,0.269474,0.269168,0.904461,15,0.0178308,10,0.000243452,-3.04361,-24.0747,-0.00245071,-0.0866475,0.269168,
2,1,0,1,0,28715.7,0.276965,0.276662,0.895661,15,0.018174,10,0.000247795,-3.04786,-2.16945,-0.0271958,-0.952389,0.276662,
2,1,0,1,0,28716.1,0.284456,0.284184,0.889372,15,0.0185141,10,0.000252745,-3.05092,-1.88232,-0.0313443,-1.08586,0.284184,
2,1,0,1,0,28716.4,0.291947,0.291603,0.880132,15,0.0188508,10,0.00025665,-3.05545,-1.6541,-0.0356689,-1.22539,0.291603,
2,1,0,1,0,28716.8,0.299436,0.299113,0.870327,15,0.0191844,10,0.000260326,-3.06032,-0.00355514,-16.5957,-334.359,0.299113,
2,0,0,1,0,28717.2,0.293745,0.293424,-0.165981,15,0.01921,10,-4.87029e-05,-3.77994,-0.0156081,-3.78009,22.5668,0.2934241,
2,0,0,1,0,28717.5,0.286254,0.285949,-0.277014,15,0.0191187,10,-7.92119e-05,-3.5575,-0.0602289,-0.979597,10.5118,0.285949,
2,0,0,1,0,28717.9,0.278763,0.278447,-0.342568,15,0.0189958,10,-9.53869e-05,-3.46525,-0.107363,-0.549538,7.37034,0.278447,
2,0,0,1,0,28718.3,0.271272,0.270965,-0.396023,15,0.0188512,10,-0.000107308,-3.40228,-0.135201,-0.436388,6.717,0.270965,
2,0,0,1,0,28718.7,0.263781,0.263454,-0.435737,15,0.0186894,10,-0.000114797,-3.36078,-0.183494,-0.321536,5.46146,0.263454,
2,0,0,1,0,28719,0.25629,0.25602,-0.475333,15,0.018513,10,-0.000121695,-3.323,-0.301266,-0.19584,3.60718,0.25602,
2,0,0,1,0,28719.4,0.248799,0.248495,-0.504919,15,0.0183238,10,-0.00012547,-3.29678,-0.261831,-0.225336,4.45118,0.248495,
2,0,0,1,0,28719.8,0.241308,0.241023,-0.531909,15,0.0181231,10,-0.000128202,-3.27416,-0.321637,-0.183436,3.82554,0.241023,
2,0,0,1,0,28720.2,0.233817,0.233522,-0.562408,15,0.0179117,10,-0.000131334,-3.24995,-0.303874,-0.194159,4.25983,0.233522,
2,0,0,1,0,28720.5,0.226326,0.226026,-0.588746,15,0.01769,10,-0.000133072,-3.23007,-0.416589,-0.141626,3.25744,0.226026,
2,0,0,1,0,28720.9,0.218835,0.218547,-0.616619,15,0.0174582,10,-0.00013476,-3.20998,-0.33746,-0.174836,4.20322,0.218547,
2,0,0,1,0,28721.3,0.211344,0.211089,-0.639267,15,0.0172169,10,-0.000134942,-3.19432,-0.466903,-0.126365,3.15224,0.211089,
2,0,0,1,0,28721.7,0.203855,0.203527,-0.666097,15,0.0169657,10,-0.000135569,-3.17646,-0.544759,-0.108305,2.82335,0.203527,
2,0,0,1,0,28722,0.196362,0.196059,-0.695789,15,0.0167048,10,-0.000136416,-3.15752,-0.445188,-0.132528,3.59797,0.196059,
2,0,0,1,0,28722.4,0.188871,0.188543,-0.724569,15,0.0164325,10,-0.000136612,-3.13992,-0.285408,-0.206721,5.84192,0.188543,
2,0,0,1,0,28722.8,0.18138,0.18108,-0.75992,15,0.0161484,10,-0.000137606,-3.11923,-0.394107,-0.149706,4.43831,0.18108,
2,0,0,1,0,28723.1,0.173891,0.173568,-0.802672,15,0.0158503,10,-0.000139318,-3.09546,-0.282857,-0.208586,6.52084,0.173568,
2,0,0,1,0,28723.5,0.166398,0.166014,-0.857467,15,0.0155342,10,-0.000142352,-3.06678,-0.277421,-0.212673,7.1154,0.166014,
2,0,0,1,0,28723.9,0.158906,0.1586,-0.928719,15,0.0151948,10,-0.000147295,-3.03212,-0.173819,-0.339434,12.3546,0.1586,
2,0,0,1,0,28724.3,0.151417,0.15113,-1.04962,15,0.0148197,10,-0.00015863,-2.97897,-0.116718,-0.505493,20.7872,0.15113,
2,0,0,1,0,28724.6,0.143926,0.143659,-1.25461,15,0.0143857,10,-0.000180237,-2.90149,-0.0809789,-0.728585,35.6887,0.1436595,
2,0,0,1,0,28725,0.136435,0.136118,-1.55639,15,0.0138558,10,-0.000211853,-2.80788,-0.0797883,-0.739457,44.8349,0.136118,
2,0,0,1,0,28725.4,0.128942,0.128626,-1.88429,15,0.013204,10,-0.000242368,-2.72485,-0.10699,-0.551454,40.4291,0.128626,
2,0,0,1,0,28725.8,0.121453,0.12114,-2.13753,15,0.0124417,10,-0.000258941,-2.67009,-0.185222,-0.318536,26.5097,0.1211402,
2,0,0,1,0,28726.1,0.113962,0.113654,-2.27149,15,0.011605,10,-0.000258163,-2.64369,-0.557435,-0.105842,9.37691,0.113654,
2,0,0,1,0,28726.5,0.106471,0.106209,-2.28996,15,0.0107403,10,-0.000243216,-2.64017,1.18103,0.0499564,-4.46568,0.106209,
2,0,0,1,0,28726.9,0.0989798,0.0986421,-2.22694,15,0.00988682,10,-0.00021967,-2.65229,0.654923,0.0900869,-7.81328,0.0986421,
2,0,0,1,0,28727.3,0.0914889,0.0911486,-2.1486,15,0.00906173,10,-0.000195842,-2.66785,0.478653,0.123263,-10.3153,0.0911486,
2,0,0,1,0,28727.6,0.083998,0.0836601,-2.07242,15,0.00826666,10,-0.000173379,-2.68352,0.492051,0.119906,-9.69059,0.0836601,
2,0,0,1,0,28728,0.076507,0.0761556,-2.01407,15,0.00749584,10,-0.000153382,-2.69593,0.614886,0.0959528,-7.53489,0.0761556,
2,0,0,1,0,28728.4,0.0690161,0.068707,-1.95587,15,0.00674658,10,-0.000134382,-2.70866,0.644335,0.0915672,-6.99894,0.068707,
2,0,0,1,0,28728.8,0.0615251,0.0611804,-1.90088,15,0.00601717,10,-0.000116297,-2.72105,0.653796,0.0902422,-6.70903,0.0611804,
2,0,0,1,0,28729.1,0.0540342,0.0536949,-1.85066,15,0.00530868,10,-9.93709e-05,-2.73267,0.632846,0.0932297,-6.72204,0.0536949,
2,0,0,1,0,28729.5,0.0465432,0.0462608,-1.78683,15,0.00462128,10,-8.26603e-05,-2.74792,0.538383,0.109587,-7.64956,0.04626077,
2,0,0,1,0,28729.9,0.0390523,0.0387381,-1.72402,15,0.00395751,10,-6.67855e-05,-2.76346,0.424557,0.138968,-9.33997,0.0387381,
2,0,0,1,0,28730.3,0.0315626,0.0312281,-1.65601,15,0.0033187,10,-5.1714e-05,-2.78094,0.440405,0.133968,-8.65668,0.0312281,
2,0,0,1,0,28730.6,0.0240704,0.0237649,-1.58946,15,0.0027051,10,-3.77735e-05,-2.79875,0.463023,0.127423,-7.91342,0.0237649,
2,0,0,1,0,28731,0.0165785,0.0162754,-1.53268,15,0.0021143,10,-2.49451e-05,-2.81455,0.628613,0.0938574,-5.62058,0.0162754,
2,0,0,1,0,28731.4,0.00908846,0.00873271,-1.49489,15,0.00154154,10,-1.30544e-05,-2.82539,1.1272,0.0523422,-3.05415,0.00873271,
2,0,0,1,0,28731.8,0.0015984,0.00120643,-1.48872,15,0.000979436,10,-1.79604e-06,-2.82719, , , ,0.00120643,
2,0,0,1,0,28731.8,0.000199195,-0.000189557,-1.47971,15,0.000874473,10,2.80489e-07,-2.82982, , , ,-0.000189557,