File: Figure_codes/Fig_3-5/rawdata_trumpetplot_data/after 10th/20221101_1-115_003_TrumpetPlot_ParaChange_from10_every3_08_CV_C01_30.csv
mode,ox/red,error,control changes,counter inc.,time/s,control/V,Ewe/V,<I>/mA,cycle number,(Q-Qo)/C,I Range,P/W,log(|I|),Tafel slope mV/dec,alpha_eff,dI/d(E-IR),E-IR/V,
2,0,0,0,0,60278.9,2.44065e-05,-0.000478022,-3.99891,31,0.0000000E+000,10,1.91157e-06,-2.39806, , , ,-0.000478022,
2,1,0,1,0,60279,0.00729419,0.00693263,0.277137,31,-0.000118824,10,1.92129e-06,-3.55731,0.0131811,4.47611,300.112,0.00693263,
2,1,0,1,0,60279.1,0.0147816,0.0144602,1.75042,31,-1.38434e-05,10,2.53114e-05,-2.75686,0.0291857,2.02154,135.304,0.0144602,
2,1,0,1,0,60279.2,0.0222707,0.0218937,2.50526,31,0.000189748,10,5.48493e-05,-2.60115,0.0759976,0.77634,75.5577,0.0218937,
2,1,0,1,0,60279.3,0.0297581,0.0294557,2.99672,31,0.000449186,10,8.82703e-05,-2.52335,0.125623,0.46966,54.68,0.0294557,
2,1,0,1,0,60279.4,0.0372544,0.0369022,3.36627,31,0.000748488,10,0.000124223,-2.47285,0.164546,0.358563,47.0784,0.0369022,
2,1,0,1,0,60279.5,0.0447507,0.0444177,3.69033,31,0.00108073,10,0.000163916,-2.43294,0.207679,0.284092,40.9793,0.0444177,
2,1,0,1,0,60279.6,0.0522381,0.0519218,4.00011,31,0.00144236,10,0.000207693,-2.39793,0.240658,0.245161,38.294,0.05192177,
2,1,0,1,0,60279.7,0.0597273,0.0593648,4.2866,31,0.00183162,10,0.000254473,-2.36789,0.250237,0.235776,39.4491,0.0593648,
2,1,0,1,0,60279.8,0.0672147,0.0668576,4.55593,31,0.00224678,10,0.000304598,-2.34142,0.303856,0.194171,34.5012,0.0668576,
2,1,0,1,0,60279.9,0.0747038,0.0743535,4.80512,31,0.00268593,10,0.000357277,-2.3183,0.375614,0.157076,29.417,0.0743535,
2,1,0,1,0,60280,0.0822055,0.0818718,5.01133,31,0.00314752,10,0.000410287,-2.30005,0.409894,0.14394,28.155,0.0818718,
2,1,0,1,0,60280.1,0.0896946,0.0893551,5.20111,31,0.00362702,10,0.000464746,-2.2839,0.463752,0.127223,25.8454,0.0893551,
2,1,0,1,0,60280.1,0.097182,0.0968121,5.4056,31,0.00412473,10,0.000523328,-2.26716,0.428915,0.137556,29.0529,0.0968121,
2,1,0,1,0,60280.2,0.104671,0.104296,5.68809,31,0.004644,10,0.000593247,-2.24503,0.29969,0.19687,43.6743,0.104296,
2,1,0,1,0,60280.3,0.112159,0.111783,6.0471,31,0.00519341,10,0.000675965,-2.21845,0.256289,0.230209,54.3646,0.111783,
2,1,0,1,0,60280.4,0.119655,0.119282,6.45584,31,0.00578048,10,0.000770066,-2.19005,0.297958,0.198014,49.8938,0.119282,
2,1,0,1,0,60280.5,0.127149,0.126785,6.81552,31,0.00640424,10,0.000864105,-2.1665,0.375488,0.157129,41.7759,0.126785,
2,1,0,1,0,60280.6,0.134639,0.134296,7.06995,31,0.00705614,10,0.00094947,-2.15058,0.584248,0.100985,27.8665,0.134296,
2,1,0,1,0,60280.7,0.142126,0.141804,7.21642,31,0.00772715,10,0.00102331,-2.14168,1.83112,0.0322207,9.0704,0.141804,
2,1,0,1,0,60280.8,0.149615,0.14925,7.15699,31,0.00840362,10,0.00106818,-2.14527,-0.51358,-0.11488,-32.0079,0.1492497,
2,1,0,1,0,60280.9,0.157102,0.156759,6.68483,31,0.00905584,10,0.0010479,-2.17491,-0.172238,-0.342549,-89.1467,0.156759,
2,1,0,1,0,60281,0.164606,0.164267,5.86848,31,0.00964705,10,0.000963998,-2.23147,-0.11396,-0.517725,-118.505,0.164267,
2,1,0,1,0,60281.1,0.172095,0.171741,5.05784,31,0.0101581,10,0.000868641,-2.29603,-0.11925,-0.49476,-97.7872,0.171741,
2,1,0,1,0,60281.2,0.179582,0.179229,4.4487,31,0.0106023,10,0.000797335,-2.35177,-0.156079,-0.378013,-65.7771,0.179229,
2,1,0,1,0,60281.3,0.18707,0.186731,4.02906,31,0.0109989,10,0.000752349,-2.3948,-0.192587,-0.306355,-48.1942,0.186731,
2,1,0,1,0,60281.4,0.194559,0.19422,3.75006,31,0.0113629,10,0.000728337,-2.42596,-0.269034,-0.219303,-32.0748,0.19422,
2,1,0,1,0,60281.5,0.202062,0.201741,3.54667,31,0.0117049,10,0.00071551,-2.45018,-0.419481,-0.14065,-19.4491,0.201741,
2,1,0,1,0,60281.5,0.20955,0.209219,3.39964,31,0.0120305,10,0.000711268,-2.46857,-0.424393,-0.139022,-18.4448,0.209219,
2,1,0,1,0,60281.6,0.217039,0.216688,3.29335,31,0.0123444,10,0.000713631,-2.48236,-0.559248,-0.105499,-13.5663,0.216688,
2,1,0,1,0,60281.7,0.224526,0.224189,3.21999,31,0.0126499,10,0.000721887,-2.49215,-0.927631,-0.0636028,-7.98197,0.224189,
2,1,0,1,0,60281.8,0.232016,0.231662,3.15309,31,0.012949,10,0.00073045,-2.50126,-1.22342,-0.0482254,-5.93845,0.231662,
2,1,0,1,0,60281.9,0.23951,0.239149,3.1117,31,0.0132434,10,0.000744159,-2.507,-1.33389,-0.0442317,-5.36848,0.239149,
2,1,0,1,0,60282,0.247006,0.246669,3.07364,31,0.0135339,10,0.00075817,-2.51235,-1.40525,-0.0419854,-5.02323,0.246669,
2,1,0,1,0,60282.1,0.254494,0.254152,3.03577,31,0.0138207,10,0.000771545,-2.51773,-1.78979,-0.0329648,-3.90919,0.254152,
2,1,0,1,0,60282.2,0.261983,0.261625,3.00981,31,0.0141047,10,0.000787442,-2.52146,-1.42039,-0.0415379,-4.88265,0.261625,
2,1,0,1,0,60282.3,0.26947,0.269111,2.98324,31,0.0143862,10,0.000802823,-2.52531,-2.49318,-0.0236645,-2.75674,0.269111,
2,1,0,1,0,60282.4,0.276959,0.276642,2.9568,31,0.0146654,10,0.000817975,-2.52918,-4.43147,-0.0133139,-1.53779,0.2766422,
2,1,0,1,0,60282.5,0.284461,0.284141,2.93564,31,0.0149429,10,0.000834136,-2.5323,-2.17073,-0.0271798,-3.11406,0.284141,
2,1,0,1,0,60282.6,0.29195,0.291637,2.9154,31,0.0152176,10,0.000850239,-2.5353,-1.81147,-0.0325703,-3.70037,0.291637,
2,1,0,1,0,60282.7,0.299438,0.299177,2.88339,31,0.01549,10,0.000862646,-2.5401,-0.0390346,-1.51148,-159.579,0.2991775,
2,1,0,1,0,60282.8,0.29424,0.293898,0.0310095,31,0.0155842,10,9.11364e-06,-4.5085,0.0169305,3.48484,218.284,0.293898,
2,0,0,1,0,60282.8,0.286753,0.286378,-0.880521,31,0.0155356,10,-0.000252162,-3.05526,-0.0265211,-2.22464,74.512,0.286378,
2,0,0,1,0,60282.9,0.279264,0.278958,-1.2666,31,0.015432,10,-0.000353329,-2.89736,-0.0776156,-0.760157,37.4549,0.278958,
2,0,0,1,0,60283,0.271776,0.271437,-1.49772,31,0.015301,10,-0.000406537,-2.82457,-0.131295,-0.44937,26.1747,0.271437,
2,0,0,1,0,60283.1,0.26428,0.263881,-1.65846,31,0.0151518,10,-0.000437635,-2.7803,-0.17882,-0.329941,21.3273,0.263881,
2,0,0,1,0,60283.2,0.256786,0.256437,-1.79014,31,0.0149889,10,-0.000459058,-2.74711,-0.263498,-0.223911,15.6538,0.256437,
2,0,0,1,0,60283.3,0.249296,0.248904,-1.898,31,0.0148151,10,-0.000472419,-2.7217,-0.380666,-0.154991,11.4828,0.248904,
2,0,0,1,0,60283.4,0.241809,0.241431,-1.99326,31,0.0146317,10,-0.000481235,-2.70044,-0.347708,-0.169683,13.2209,0.241431,
2,0,0,1,0,60283.5,0.23432,0.233942,-2.07576,31,0.0144399,10,-0.000485608,-2.68282,-0.417507,-0.141315,11.4824,0.2339422,
2,0,0,1,0,60283.6,0.226832,0.226474,-2.16527,31,0.0142404,10,-0.000490377,-2.66449,-0.501529,-0.11764,9.91103,0.226474,
2,0,0,1,0,60283.7,0.219329,0.218998,-2.24203,31,0.014033,10,-0.000491001,-2.64936,-0.422829,-0.139536,12.1885,0.218998,
2,0,0,1,0,60283.8,0.21184,0.211477,-2.30847,31,0.013819,10,-0.00048819,-2.63667,-0.543841,-0.108488,9.77288,0.211477,
2,0,0,1,0,60283.9,0.204353,0.203982,-2.39099,31,0.013598,10,-0.000487719,-2.62142,-0.722783,-0.0816289,7.60903,0.203982,
2,0,0,1,0,60284,0.196863,0.196527,-2.46502,31,0.0133701,10,-0.000484442,-2.60818,-0.53529,-0.110221,10.5897,0.196527,
2,0,0,1,0,60284.1,0.189376,0.189046,-2.53749,31,0.013135,10,-0.000479701,-2.5956,-0.513841,-0.114822,11.3992,0.189046,
2,0,0,1,0,60284.2,0.18188,0.181525,-2.62399,31,0.0128919,10,-0.00047632,-2.58104,-0.61809,-0.0954553,9.78459,0.181525,
2,0,0,1,0,60284.3,0.174385,0.174052,-2.72514,31,0.0126404,10,-0.000474317,-2.56461,-0.437834,-0.134754,14.3297,0.174052,
2,0,0,1,0,60284.3,0.166896,0.166539,-2.84046,31,0.0123791,10,-0.000473047,-2.54661,-0.372134,-0.158545,17.5717,0.166539,
2,0,0,1,0,60284.4,0.159409,0.159057,-2.99066,31,0.0121057,10,-0.000475686,-2.52423,-0.350364,-0.168396,19.65,0.159057,
2,0,0,1,0,60284.5,0.151919,0.151554,-3.19862,31,0.0118158,10,-0.000484766,-2.49504,-0.215047,-0.274358,34.2604,0.151554,
2,0,0,1,0,60284.6,0.144425,0.144069,-3.50705,31,0.0115018,10,-0.000505258,-2.45506,-0.154347,-0.382256,52.4274,0.144069,
2,0,0,1,0,60284.7,0.136929,0.136568,-4.0083,31,0.0111501,10,-0.000547405,-2.39704,-0.114595,-0.514855,80.6653,0.136568,
2,0,0,1,0,60284.8,0.129441,0.129062,-4.69844,31,0.0107426,10,-0.000606392,-2.32805,-0.109348,-0.539564,98.9346,0.129062,
2,0,0,1,0,60284.9,0.121952,0.121625,-5.44432,31,0.0102668,10,-0.000662166,-2.26406,-0.126707,-0.465642,98.8051,0.121625,
2,0,0,1,0,60285,0.114465,0.114126,-6.12397,31,0.00972346,10,-0.000698906,-2.21297,-0.175878,-0.33546,80.1543,0.114126,
2,0,0,1,0,60285.1,0.106976,0.106587,-6.68838,31,0.00912164,10,-0.000712894,-2.17468,-0.240685,-0.245133,63.9125,0.106587,
2,0,0,1,0,60285.2,0.0994721,0.0990732,-7.07579,31,0.00847357,10,-0.000701021,-2.15023,-0.398823,-0.147935,40.8043,0.0990732,
2,0,0,1,0,60285.3,0.0919847,0.0916162,-7.23589,31,0.00780072,10,-0.000662925,-2.14051,-2.24142,-0.0263226,7.43181,0.0916162,
2,0,0,1,0,60285.4,0.0844973,0.0841425,-7.20751,31,0.00712228,10,-0.000606458,-2.14221,1.07301,0.0549857,-15.4491,0.0841425,
2,0,0,1,0,60285.5,0.0770082,0.0766446,-7.05622,31,0.00645363,10,-0.000540821,-2.15143,0.743254,0.0793807,-21.8597,0.0766446,
2,0,0,1,0,60285.6,0.0695208,0.0691423,-6.89668,31,0.00579968,10,-0.000476853,-2.16136,0.846158,0.0697269,-18.7921,0.0691423,
2,0,0,1,0,60285.7,0.0620245,0.0616811,-6.78227,31,0.00515793,10,-0.000418338,-2.16862,0.948635,0.0621946,-16.4494,0.06168114,
2,0,0,1,0,60285.7,0.0545282,0.0541618,-6.6541,31,0.00452753,10,-0.000360398,-2.17691,1.21738,0.0484646,-12.5908,0.0541618,
2,0,0,1,0,60285.8,0.0470408,0.0466803,-6.52196,31,0.00390953,10,-0.000304447,-2.18562,0.860089,0.0685975,-17.4614,0.0466803,
2,0,0,1,0,60285.9,0.0395516,0.0391582,-6.37957,31,0.00330497,10,-0.000249812,-2.19521,0.651498,0.0905606,-22.5172,0.0391582,
2,0,0,1,0,60286,0.0320643,0.0316855,-6.1986,31,0.00271556,10,-0.000196406,-2.20771,0.573798,0.102824,-24.8773,0.0316855,
2,0,0,1,0,60286.1,0.0245751,0.0241835,-5.99343,31,0.00214387,10,-0.000144942,-2.22232,0.479682,0.122998,-28.7732,0.0241835,
2,0,0,1,0,60286.2,0.0170735,0.0166944,-5.77334,31,0.00159087,10,-9.63827e-05,-2.23857,0.449412,0.131283,-29.6064,0.0166944,
2,0,0,1,0,60286.3,0.00958429,0.00925003,-5.57853,31,0.00105877,10,-5.16016e-05,-2.25348,0.557048,0.105915,-23.0473,0.00925003,
2,0,0,1,0,60286.4,0.0020969,0.00169384,-5.437,31,0.00054407,10,-9.20942e-06,-2.26464,0.944663,0.0624561,-13.2044,0.001693842,
2,0,0,1,0,60286.4,0.000199195,-0.000227978,-5.39105,31,0.000415544,10,1.22904e-06,-2.26833, , , ,-0.000227978,