File: Figure_codes/Fig_3-5/rawdata_trumpetplot_data/after 10th/20221101_1-115_003_TrumpetPlot_ParaChange_from10_every3_07_CV_C01_30.csv
mode,ox/red,error,control changes,counter inc.,time/s,control/V,Ewe/V,<I>/mA,cycle number,(Q-Qo)/C,I Range,P/W,log(|I|),Tafel slope mV/dec,alpha_eff,dI/d(E-IR),E-IR/V,
2,0,0,0,0,60268.9,2.44065e-05,-0.00042076,-2.70776,31,0.0000000E+000,10,1.13932e-06,-2.56739, , , ,-0.00042076,
2,1,0,1,0,60269.1,0.007288,0.0069821,0.712312,31,-5.78609e-05,10,4.97344e-06,-3.14733,0.00606523,9.72758,210.325,0.0069821,
2,1,0,1,0,60269.2,0.0147816,0.0144072,1.67904,31,0.000102974,10,2.41903e-05,-2.77494,0.0467191,1.26287,82.1364,0.0144072,
2,1,0,1,0,60269.3,0.0222712,0.0219222,2.15445,31,0.00034682,10,4.72304e-05,-2.66666,0.101801,0.57956,48.4013,0.0219222,
2,1,0,1,0,60269.4,0.0297648,0.0294258,2.46628,31,0.000637504,10,7.25722e-05,-2.60796,0.15304,0.385521,36.9476,0.0294258,
2,1,0,1,0,60269.6,0.0372518,0.0368716,2.71769,31,0.000963054,10,0.000100205,-2.5658,0.185762,0.31761,33.7438,0.0368716,
2,1,0,1,0,60269.7,0.0447467,0.0444223,2.95758,31,0.00131991,10,0.000131383,-2.52906,0.232764,0.253475,29.3107,0.04442231,
2,1,0,1,0,60269.8,0.052235,0.0518738,3.18944,31,0.00170558,10,0.000165449,-2.49628,0.245735,0.240096,29.8732,0.0518738,
2,1,0,1,0,60269.9,0.0597299,0.0593944,3.41078,31,0.0021194,10,0.000202581,-2.46715,0.267538,0.220529,29.2878,0.0593944,
2,1,0,1,0,60270,0.0672156,0.066909,3.60439,31,0.00255868,10,0.000241166,-2.44317,0.316111,0.186643,26.241,0.066909,
2,1,0,1,0,60270.2,0.0747105,0.0743027,3.78024,31,0.00302207,10,0.000280882,-2.42248,0.406098,0.145285,21.4575,0.0743027,
2,1,0,1,0,60270.3,0.0821988,0.0818402,3.9403,31,0.00350603,10,0.000322475,-2.40447,0.515369,0.114481,17.5907,0.0818402,
2,1,0,1,0,60270.4,0.0896937,0.0893185,4.07913,31,0.0040084,10,0.000364341,-2.38943,0.461676,0.127795,20.3316,0.0893185,
2,1,0,1,0,60270.5,0.0971794,0.0968108,4.23769,31,0.00452877,10,0.000410255,-2.37287,0.358065,0.164775,27.2735,0.0968108,
2,1,0,1,0,60270.7,0.104674,0.104305,4.47981,31,0.00507401,10,0.000467266,-2.34874,0.262883,0.224434,39.2654,0.104305,
2,1,0,1,0,60270.8,0.112163,0.111783,4.79439,31,0.00565411,10,0.000535931,-2.31927,0.242117,0.243683,45.6182,0.111783,
2,1,0,1,0,60270.9,0.119657,0.119316,5.13802,31,0.00627662,10,0.000613048,-2.2892,0.293346,0.201128,40.2826,0.119316,
2,1,0,1,0,60271,0.127143,0.126834,5.38412,31,0.00693627,10,0.000682888,-2.26889,0.426294,0.138402,29.1117,0.126834,
2,1,0,1,0,60271.2,0.134638,0.134296,5.55379,31,0.00762244,10,0.00074585,-2.25541,0.848678,0.0695199,15.0716,0.134296,
2,1,0,1,0,60271.3,0.142126,0.14177,5.61771,31,0.00832304,10,0.000796425,-2.25044,-2.95686,-0.0199536,-4.36889,0.14177,
2,1,0,1,0,60271.4,0.149621,0.149279,5.44077,31,0.00901906,10,0.000812192,-2.26434,-0.25642,-0.230091,-48.6548,0.1492788,
2,1,0,1,0,60271.5,0.157107,0.156744,4.8753,31,0.00966787,10,0.000764174,-2.312,-0.120694,-0.48884,-92.8928,0.1567442,
2,1,0,1,0,60271.7,0.164602,0.164246,4.14863,31,0.010233,10,0.000681396,-2.3821,-0.101721,-0.580019,-94.0356,0.164246,
2,1,0,1,0,60271.8,0.17209,0.171774,3.56685,31,0.0107142,10,0.000612691,-2.44771,-0.124776,-0.472849,-65.965,0.171774,
2,1,0,1,0,60271.9,0.179585,0.179201,3.17335,31,0.0111351,10,0.000568668,-2.49848,-0.179425,-0.328827,-40.7759,0.179201,
2,1,0,1,0,60272,0.187072,0.186748,2.91251,31,0.0115153,10,0.000543906,-2.53573,-0.260112,-0.226825,-25.7872,0.186748,
2,1,0,1,0,60272.2,0.194566,0.194182,2.74098,31,0.0118695,10,0.000532251,-2.56209,-0.316651,-0.186325,-19.9549,0.194182,
2,1,0,1,0,60272.3,0.202055,0.201667,2.62865,31,0.0122058,10,0.000530112,-2.58027,-0.426798,-0.138239,-14.1627,0.201667,
2,1,0,1,0,60272.4,0.209549,0.209238,2.55317,31,0.0125305,10,0.000534219,-2.59292,-0.574997,-0.102609,-10.2011,0.209238,
2,1,0,1,0,60272.5,0.217036,0.216669,2.48555,31,0.0128463,10,0.000538541,-2.60458,-1.01131,-0.0583403,-5.67298,0.2166691,
2,1,0,1,0,60272.7,0.22453,0.224167,2.43972,31,0.0131561,10,0.000546905,-2.61266,-0.898148,-0.0656907,-6.2776,0.224167,
2,1,0,1,0,60272.8,0.232019,0.231722,2.41631,31,0.0134609,10,0.000559912,-2.61685,-1.07866,-0.0546977,-5.15326,0.231722,
2,1,0,1,0,60272.9,0.239513,0.239183,2.38977,31,0.0137623,10,0.000571591,-2.62164,-2.11442,-0.0279037,-2.59762,0.239183,
2,1,0,1,0,60273,0.247001,0.246664,2.36561,31,0.0140605,10,0.000583509,-2.62606,-2.4566,-0.0240169,-2.2154,0.246664,
2,1,0,1,0,60273.2,0.254493,0.254103,2.34103,31,0.0143563,10,0.000594865,-2.63059,-1.59702,-0.0369437,-3.38541,0.254103,
2,1,0,1,0,60273.3,0.261983,0.261642,2.32598,31,0.0146496,10,0.000608573,-2.63339,-1.84739,-0.031937,-2.90238,0.261642,
2,1,0,1,0,60273.4,0.269477,0.269111,2.31488,31,0.0149409,10,0.000622958,-2.63547,-7.34007,-0.00803807,-0.724623,0.269111,
2,1,0,1,0,60273.5,0.276965,0.276613,2.29482,31,0.0152301,10,0.000634777,-2.63925,-8.57719,-0.00687871,-0.616445,0.2766133,
2,1,0,1,0,60273.7,0.284457,0.284162,2.27603,31,0.0155173,10,0.00064676,-2.64282,-4.07388,-0.0144825,-1.28823,0.2841621,
2,1,0,1,0,60273.8,0.291947,0.291568,2.26211,31,0.0158022,10,0.00065956,-2.64549,-1.15247,-0.0511946,-4.51403,0.291568,
2,1,0,1,0,60273.9,0.29944,0.299094,2.24473,31,0.016085,10,0.000671385,-2.64884,-0.00982461,-6.00533,-431.649,0.299094,
2,0,0,1,0,60274,0.293742,0.293389,-0.205147,31,0.016165,10,-6.01878e-05,-3.68794,-0.00835224,-7.06397,140.097,0.293389,
2,0,0,1,0,60274.2,0.286254,0.285915,-0.76493,31,0.0160963,10,-0.000218705,-3.11638,-0.038861,-1.51823,44.7431,0.285915,
2,0,0,1,0,60274.3,0.278761,0.278398,-1.0023,31,0.0159822,10,-0.000279038,-2.999,-0.0968999,-0.608876,23.8164,0.278398,
2,0,0,1,0,60274.4,0.271272,0.27093,-1.16039,31,0.0158446,10,-0.000314386,-2.93539,-0.161261,-0.365866,16.5055,0.27093,
2,0,0,1,0,60274.5,0.263778,0.263405,-1.27992,31,0.0156902,10,-0.000337136,-2.89282,-0.190986,-0.308923,15.3281,0.263405,
2,0,0,1,0,60274.7,0.25629,0.255918,-1.3688,31,0.0155232,10,-0.000350299,-2.86366,-0.261555,-0.225574,12.0291,0.255918,
2,0,0,1,0,60274.8,0.248797,0.24848,-1.44303,31,0.0153454,10,-0.000358565,-2.84072,-0.356456,-0.165518,9.34556,0.24848,
2,0,0,1,0,60274.9,0.241308,0.240958,-1.51993,31,0.0151583,10,-0.00036624,-2.81818,-0.437973,-0.134712,7.9782,0.240958,
2,0,0,1,0,60275,0.233814,0.233445,-1.58709,31,0.0149624,10,-0.000370498,-2.7994,-0.389168,-0.151605,9.38726,0.233445,
2,0,0,1,0,60275.2,0.226326,0.225958,-1.64511,31,0.0147587,10,-0.000371724,-2.78381,-0.464448,-0.127033,8.16331,0.225958,
2,0,0,1,0,60275.3,0.218834,0.218466,-1.70605,31,0.0145473,10,-0.000372715,-2.76801,-0.519689,-0.113529,7.57639,0.218466,
2,0,0,1,0,60275.4,0.211344,0.210959,-1.76769,31,0.0143286,10,-0.000372911,-2.75259,-0.64247,-0.091833,6.31791,0.210959,
2,0,0,1,0,60275.5,0.203856,0.203482,-1.83107,31,0.0141023,10,-0.000372589,-2.7373,-0.584752,-0.100897,7.19707,0.203482,
2,0,0,1,0,60275.7,0.196362,0.195993,-1.88145,31,0.0138688,10,-0.000368752,-2.72551,-0.473682,-0.124556,9.15566,0.195993,
2,0,0,1,0,60275.8,0.18887,0.188512,-1.94453,31,0.0136275,10,-0.000366567,-2.71119,-0.498042,-0.118464,9.01,0.1885117,
2,0,0,1,0,60275.9,0.18138,0.181075,-2.0173,31,0.0133781,10,-0.000365282,-2.69523,-0.500431,-0.117898,9.28448,0.181075,
2,0,0,1,0,60276,0.173892,0.173549,-2.10231,31,0.0131195,10,-0.000364854,-2.6773,-0.389379,-0.151523,12.3737,0.173549,
2,0,0,1,0,60276.2,0.166398,0.166036,-2.19551,31,0.0128496,10,-0.000364533,-2.65846,-0.357326,-0.165115,14.1602,0.166036,
2,0,0,1,0,60276.3,0.158905,0.158577,-2.31669,31,0.012566,10,-0.000367372,-2.63513,-0.274782,-0.214716,19.4714,0.158577,
2,0,0,1,0,60276.4,0.151417,0.151117,-2.49644,31,0.0122641,10,-0.000377255,-2.60268,-0.205523,-0.287073,28.0391,0.151117,
2,0,0,1,0,60276.5,0.143927,0.143543,-2.78528,31,0.0119339,10,-0.000399808,-2.55513,-0.130646,-0.451601,49.0993,0.143543,
2,0,0,1,0,60276.7,0.136435,0.136087,-3.22889,31,0.0115584,10,-0.00043941,-2.49095,-0.101994,-0.578463,72.9807,0.136087,
2,0,0,1,0,60276.8,0.128941,0.128546,-3.81972,31,0.0111167,10,-0.000491007,-2.41797,-0.107489,-0.548893,81.8798,0.128546,
2,0,0,1,0,60276.9,0.121453,0.121132,-4.43528,31,0.0105988,10,-0.000537253,-2.35308,-0.135398,-0.435753,75.3392,0.121132,
2,0,0,1,0,60277,0.113963,0.113657,-4.96779,31,0.010009,10,-0.000564625,-2.30384,-0.186169,-0.316916,61.2985,0.113657,
2,0,0,1,0,60277.2,0.106471,0.106164,-5.36821,31,0.00936006,10,-0.000569913,-2.27017,-0.280492,-0.210345,44.0552,0.106164,
2,0,0,1,0,60277.3,0.0989825,0.0986276,-5.59464,31,0.00867141,10,-0.000551786,-2.25223,-0.697309,-0.084611,18.462,0.09862759,
2,0,0,1,0,60277.4,0.0914889,0.091161,-5.63085,31,0.00796641,10,-0.000513313,-2.24943,1.74829,0.0337472,-7.40631,0.09116096,
2,0,0,1,0,60277.5,0.0839993,0.0836547,-5.52741,31,0.00726782,10,-0.000462394,-2.25748,0.674297,0.0874985,-18.83,0.0836547,
2,0,0,1,0,60277.7,0.076507,0.0761508,-5.38361,31,0.00658529,10,-0.000409966,-2.26893,0.768977,0.0767253,-16.1144,0.0761508,
2,0,0,1,0,60277.8,0.0690187,0.0686731,-5.26123,31,0.00591938,10,-0.000361305,-2.27891,0.959418,0.0614956,-12.6473,0.0686731,
2,0,0,1,0,60277.9,0.0615251,0.061156,-5.16646,31,0.00526586,10,-0.00031596,-2.28681,0.803593,0.0734203,-14.8127,0.06115596,
2,0,0,1,0,60278,0.0540355,0.0536938,-5.06582,31,0.00462553,10,-0.000272003,-2.29535,0.811052,0.0727451,-14.3647,0.0536938,
2,0,0,1,0,60278.2,0.0465432,0.0462128,-4.94288,31,0.00399877,10,-0.000228424,-2.30602,0.784953,0.0751637,-14.4909,0.0462128,
2,0,0,1,0,60278.3,0.0390549,0.0387123,-4.80735,31,0.00338843,10,-0.000186103,-2.31809,0.618813,0.0953438,-17.8904,0.0387123,
2,0,0,1,0,60278.4,0.0315613,0.0311783,-4.65135,31,0.00279534,10,-0.000145021,-2.33242,0.459274,0.128464,-23.3224,0.0311783,
2,0,0,1,0,60278.5,0.0240717,0.0237074,-4.48647,31,0.00222306,10,-0.000106363,-2.3481,0.419639,0.140597,-24.5998,0.0237074,
2,0,0,1,0,60278.7,0.0165781,0.0162013,-4.32039,31,0.00167164,10,-6.99959e-05,-2.36448,0.513051,0.114998,-19.3794,0.01620128,
2,0,0,1,0,60278.8,0.00909108,0.00873136,-4.17493,31,0.00114005,10,-3.64528e-05,-2.37935,0.589552,0.100076,-16.3008,0.00873136,
2,0,0,1,0,60278.9,0.00159616,0.00118464,-4.08345,31,0.000623845,10,-4.83741e-06,-2.38897, , , ,0.00118464,
2,0,0,1,0,60278.9,0.000199195,-0.000247066,-4.06432,31,0.000528581,10,1.00415e-06,-2.39101, , , ,-0.000247066,