File: Figure_codes/Fig_3-5/rawdata_trumpetplot_data/after 10th/20221101_1-115_003_TrumpetPlot_ParaChange_from10_every3_04_CV_C01_29.csv
mode,ox/red,error,control changes,counter inc.,time/s,control/V,Ewe/V,<I>/mA,cycle number,(Q-Qo)/C,I Range,P/W,log(|I|),Tafel slope mV/dec,alpha_eff,dI/d(E-IR),E-IR/V,
2,0,0,1,0,58193.8,2.44065e-05,-0.000382585,-0.385608,30,0.0000000E+000,10,1.47528e-07,-3.41385, , , ,-0.000382585,
2,1,0,1,0,58194.5,0.00729063,0.006948,0.343791,30,0.000162831,10,2.38866e-06,-3.46371,0.0530798,1.11153,14.6641,0.006948,
2,1,0,1,0,58195.3,0.0147814,0.0144387,0.419774,30,0.000461609,10,6.06098e-06,-3.37698,0.118068,0.49971,8.13902,0.0144387,
2,1,0,1,0,58196,0.0222725,0.0219252,0.471727,30,0.000805681,10,1.03427e-05,-3.32631,0.167166,0.352943,6.48103,0.0219252,
2,1,0,1,0,58196.8,0.0297635,0.0294114,0.522114,30,0.00118773,10,1.53561e-05,-3.28223,0.188529,0.312949,6.36198,0.0294114,
2,1,0,1,0,58197.5,0.0372544,0.0369087,0.569149,30,0.00160643,10,2.10066e-05,-3.24477,0.209944,0.281027,6.25341,0.0369087,
2,1,0,1,0,58198.3,0.0447458,0.0443809,0.617896,30,0.00206134,10,2.74228e-05,-3.20908,0.22391,0.263499,6.35193,0.0443809,
2,1,0,1,0,58199,0.0522363,0.051852,0.661809,30,0.00255178,10,3.43161e-05,-3.17927,0.238333,0.247553,6.39355,0.051852,
2,1,0,1,0,58199.8,0.0597282,0.0593592,0.703578,30,0.00307392,10,4.17638e-05,-3.15269,0.321414,0.183564,5.02662,0.0593592,
2,1,0,1,0,58200.5,0.0672182,0.0668408,0.738386,30,0.00362373,10,4.93544e-05,-3.13172,0.370361,0.159304,4.57877,0.06684082,
2,1,0,1,0,58201.3,0.0747092,0.07434,0.765977,30,0.00419819,10,5.69427e-05,-3.11578,0.485338,0.121565,3.64204,0.07434,
2,1,0,1,0,58202,0.0822001,0.0818509,0.792735,30,0.00479341,10,6.4886e-05,-3.10087,0.537895,0.109687,3.39963,0.0818509,
2,1,0,1,0,58202.8,0.0896911,0.089296,0.825467,30,0.00540942,10,7.37109e-05,-3.0833,0.333309,0.177013,5.71789,0.089296,
2,1,0,1,0,58203.5,0.097182,0.096809,0.877527,30,0.00605723,10,8.49525e-05,-3.05674,0.215936,0.273229,9.36985,0.09680897,
2,1,0,1,0,58204.3,0.104673,0.104293,0.956269,30,0.00675349,10,9.97324e-05,-3.01942,0.202108,0.291924,10.8651,0.104293,
2,1,0,1,0,58205,0.112164,0.111794,1.02805,30,0.00750823,10,0.00011493,-2.98798,0.279859,0.210821,8.45395,0.111794,
2,1,0,1,0,58205.8,0.119655,0.119279,1.07894,30,0.00831006,10,0.000128695,-2.967,0.67191,0.0878094,3.69553,0.119279,
2,1,0,1,0,58206.5,0.127146,0.126799,1.10083,30,0.00913917,10,0.000139584,-2.95828,1.17412,0.0502504,2.16096,0.126799,
2,1,0,1,0,58207.3,0.134637,0.134256,1.10113,30,0.00997949,10,0.000147834,-2.95816,-0.503347,-0.117215,-5.03362,0.134256,
2,1,0,1,0,58208,0.142127,0.141753,1.01284,30,0.0107893,10,0.000143574,-2.99446,-0.120267,-0.490574,-19.2963,0.141753,
2,1,0,1,0,58208.8,0.149619,0.149272,0.830629,30,0.0114923,10,0.000123989,-3.08059,-0.0781718,-0.754748,-24.441,0.149272,
2,1,0,1,0,58209.5,0.157109,0.1568,0.678243,30,0.0120621,10,0.000106348,-3.16861,-0.102476,-0.575747,-15.2639,0.1567996,
2,1,0,1,0,58210.3,0.164601,0.164286,0.600385,30,0.0125473,10,9.86348e-05,-3.22157,-0.191827,-0.307569,-7.21942,0.164286,
2,1,0,1,0,58211,0.172091,0.17174,0.563481,30,0.012992,10,9.67723e-05,-3.24912,-0.389375,-0.151525,-3.34526,0.17174,
2,1,0,1,0,58211.8,0.179582,0.179224,0.545018,30,0.0134167,10,9.76802e-05,-3.26359,-0.734582,-0.0803178,-1.71358,0.179224,
2,1,0,1,0,58212.5,0.187074,0.186751,0.535541,30,0.0138305,10,0.000100013,-3.27121,-1.74472,-0.0338162,-0.704924,0.186751,
2,1,0,1,0,58213.3,0.194564,0.194181,0.527492,30,0.0142375,10,0.000102429,-3.27778,-1.40365,-0.0420332,-0.864036,0.194181,
2,1,0,1,0,58214,0.202056,0.201658,0.522346,30,0.0146398,10,0.000105335,-3.28204,-0.989487,-0.0596268,-1.21091,0.201658,
2,1,0,1,0,58214.7,0.209546,0.20919,0.516355,30,0.0150386,10,0.000108016,-3.28705,-1.261,-0.0467882,-0.945047,0.20919,
2,1,0,1,0,58215.5,0.217038,0.216701,0.511994,30,0.0154339,10,0.00011095,-3.29074,-7.0704,-0.00834465,-0.167319,0.216701,
2,1,0,1,0,58216.2,0.224528,0.22417,0.509801,30,0.015827,10,0.000114282,-3.2926,-2.3727,-0.0248662,-0.495212,0.22417,
2,1,0,1,0,58217,0.232019,0.231656,0.508031,30,0.0162176,10,0.000117688,-3.29411,12.7446,0.0046294,0.0916984,0.231656,
2,1,0,1,0,58217.7,0.23951,0.239128,0.504433,30,0.0166063,10,0.000120624,-3.2972,16.2732,0.0036256,0.0714529,0.239128,
2,1,0,1,0,58218.5,0.247001,0.246676,0.502451,30,0.0169924,10,0.000123943,-3.29891,-1.73861,-0.0339352,-0.663033,0.246676,
2,1,0,1,0,58219.2,0.254492,0.254102,0.497457,30,0.0173764,10,0.000126405,-3.30324,-2.25808,-0.0261284,-0.508068,0.254102,
2,1,0,1,0,58220,0.261983,0.261628,0.495528,30,0.0177579,10,0.000129644,-3.30493,-2.44018,-0.0241786,-0.467006,0.261628,
2,1,0,1,0,58220.7,0.269474,0.269138,0.491615,30,0.018137,10,0.000132312,-3.30837,5.66725,0.0104107,0.199777,0.269138,
2,1,0,1,0,58221.5,0.276965,0.276624,0.488008,30,0.0185135,10,0.000134995,-3.31157,-1.27071,-0.0464307,-0.883265,0.276624,
2,1,0,1,0,58222.2,0.284456,0.284108,0.485272,30,0.018887,10,0.00013787,-3.31401,-1.33562,-0.0441744,-0.835558,0.284108,
2,1,0,1,0,58223,0.291947,0.291572,0.479604,30,0.0192574,10,0.000139839,-3.31912,-1.48504,-0.0397296,-0.744331,0.291572,
2,1,0,1,0,58223.7,0.299437,0.299083,0.475453,30,0.019625,10,0.0001422,-3.32289,-0.00314617,-18.753,-196.699,0.299083,
2,0,0,1,0,58224.4,0.293745,0.293389,-0.0688851,30,0.0196559,10,-2.02102e-05,-4.16187,-0.0128983,-4.57424,11.1538,0.2933892,
2,0,0,1,0,58225.2,0.286253,0.285919,-0.124518,30,0.0195708,10,-3.56021e-05,-3.90477,-0.05066,-1.16463,5.73518,0.285919,
2,0,0,1,0,58225.9,0.278763,0.278382,-0.162167,30,0.0194525,10,-4.51444e-05,-3.79004,-0.0877932,-0.672034,4.23378,0.278382,
2,0,0,1,0,58226.7,0.271272,0.270937,-0.191969,30,0.0193104,10,-5.20116e-05,-3.71677,-0.124726,-0.473037,3.52246,0.270937,
2,0,0,1,0,58227.4,0.263781,0.263443,-0.214242,30,0.0191487,10,-5.64406e-05,-3.6691,-0.160808,-0.366898,3.07133,0.263443,
2,0,0,1,0,58228.2,0.25629,0.25593,-0.236482,30,0.0189702,10,-6.0523e-05,-3.6262,-0.231264,-0.25512,2.33899,0.25593,
2,0,0,1,0,58228.9,0.248799,0.248413,-0.254765,30,0.0187772,10,-6.32871e-05,-3.59386,-0.271745,-0.217115,2.14087,0.248413,
2,0,0,1,0,58229.7,0.241308,0.24095,-0.270934,30,0.0185712,10,-6.52816e-05,-3.56714,-0.349711,-0.168711,1.781,0.24095,
2,0,0,1,0,58230.4,0.233817,0.233455,-0.28556,30,0.0183531,10,-6.66654e-05,-3.5443,-0.270767,-0.2179,2.4234,0.233455,
2,0,0,1,0,58231.2,0.226326,0.22599,-0.300427,30,0.0181238,10,-6.78935e-05,-3.52226,-0.353391,-0.166954,1.95481,0.22599,
2,0,0,1,0,58231.9,0.218835,0.218478,-0.315415,30,0.0178834,10,-6.89113e-05,-3.50112,-0.377074,-0.156468,1.9202,0.218478,
2,0,0,1,0,58232.7,0.211344,0.210982,-0.329573,30,0.0176321,10,-6.95339e-05,-3.48205,-0.551808,-0.106921,1.37223,0.210982,
2,0,0,1,0,58233.4,0.203854,0.203501,-0.3432,30,0.0173697,10,-6.98416e-05,-3.46445,-0.374831,-0.157404,2.11561,0.203501,
2,0,0,1,0,58234.2,0.196362,0.19599,-0.358662,30,0.0170966,10,-7.02942e-05,-3.44531,-0.408307,-0.144499,2.0267,0.19599,
2,0,0,1,0,58234.9,0.188872,0.188492,-0.374417,30,0.0168115,10,-7.05747e-05,-3.42664,-0.302615,-0.194967,2.85536,0.188492,
2,0,0,1,0,58235.7,0.18138,0.181072,-0.392272,30,0.0165139,10,-7.10295e-05,-3.40641,-0.455987,-0.12939,1.98704,0.181072,
2,0,0,1,0,58236.4,0.17389,0.173517,-0.413813,30,0.0162022,10,-7.18036e-05,-3.3832,-0.301324,-0.195802,3.15024,0.173517,
2,0,0,1,0,58237.2,0.166398,0.166026,-0.436809,30,0.0158735,10,-7.25216e-05,-3.35971,-0.329184,-0.179231,3.06402,0.166026,
2,0,0,1,0,58237.9,0.158907,0.158534,-0.471309,30,0.0155228,10,-7.47184e-05,-3.32669,-0.205348,-0.287317,5.30514,0.158534,
2,0,0,1,0,58238.7,0.151417,0.15104,-0.523283,30,0.0151407,10,-7.90368e-05,-3.28126,-0.143775,-0.410364,8.38993,0.15104,
2,0,0,1,0,58239.4,0.143925,0.143585,-0.609607,30,0.0147091,10,-8.75307e-05,-3.21495,-0.0876309,-0.673279,16.0069,0.143585,
2,0,0,1,0,58240.2,0.136435,0.136079,-0.741221,30,0.0141955,10,-0.000100865,-3.13005,-0.0845941,-0.697449,20.116,0.136079,
2,0,0,1,0,58240.9,0.128943,0.128562,-0.895869,30,0.0135716,10,-0.000115175,-3.04776,-0.106484,-0.554074,19.3392,0.128562,
2,0,0,1,0,58241.7,0.121453,0.121122,-1.02906,30,0.0128374,10,-0.000124642,-2.98756,-0.169038,-0.349035,13.9898,0.121122,
2,0,0,1,0,58242.4,0.113962,0.11362,-1.10584,30,0.012022,10,-0.000125645,-2.95631,-0.430189,-0.137149,5.91496,0.11362,
2,0,0,1,0,58243.2,0.106471,0.106118,-1.12089,30,0.0111734,10,-0.000118947,-2.95044,4.63337,0.0127337,-0.557069,0.106118,
2,0,0,1,0,58243.9,0.0989798,0.098653,-1.10435,30,0.0103286,10,-0.000108948,-2.95689,0.821577,0.0718131,-3.0886,0.098653,
2,0,0,1,0,58244.6,0.0914889,0.0911315,-1.07792,30,0.00950143,10,-9.82325e-05,-2.96741,0.741562,0.0795618,-3.34269,0.0911315,
2,0,0,1,0,58245.4,0.083998,0.0836186,-1.05012,30,0.00869378,10,-8.78098e-05,-2.97876,0.5571,0.105906,-4.34149,0.0836186,
2,0,0,1,0,58246.1,0.076507,0.0761565,-1.02438,30,0.00790575,10,-7.80129e-05,-2.98954,0.587746,0.100384,-4.00803,0.07615649,
2,0,0,1,0,58246.9,0.069016,0.0686955,-0.99238,30,0.00713925,10,-6.8172e-05,-3.00332,0.509959,0.115696,-4.4955,0.0686955,
2,0,0,1,0,58247.6,0.0615251,0.0611592,-0.964489,30,0.00639364,10,-5.89873e-05,-3.0157,0.587855,0.100365,-3.78786,0.0611592,
2,0,0,1,0,58248.4,0.0540342,0.0536971,-0.937366,30,0.00567015,10,-5.03338e-05,-3.02809,0.613461,0.0961756,-3.51662,0.0536971,
2,0,0,1,0,58249.1,0.0465441,0.046154,-0.905355,30,0.00496907,10,-4.17857e-05,-3.04318,0.561232,0.105126,-3.72084,0.046154,
2,0,0,1,0,58249.9,0.0390523,0.0386945,-0.875606,30,0.00429187,10,-3.38811e-05,-3.05769,0.418263,0.14106,-4.81222,0.0386945,
2,0,0,1,0,58250.6,0.0315618,0.0311648,-0.841581,30,0.00363888,10,-2.62277e-05,-3.0749,0.410035,0.14389,-4.72767,0.0311648,
2,0,0,1,0,58251.4,0.0240704,0.0237576,-0.807563,30,0.00300979,10,-1.91857e-05,-3.09282,0.511246,0.115404,-3.65553,0.0237576,
2,0,0,1,0,58252.1,0.0165796,0.0162714,-0.786764,30,0.00240107,10,-1.28018e-05,-3.10416,0.817672,0.0721561,-2.21767,0.01627144,
2,0,0,1,0,58252.9,0.00908846,0.00876024,-0.771904,30,0.00180708,10,-6.76206e-06,-3.11244,1.93394,0.0305076,-0.920226,0.008760239,
2,0,0,1,0,58253.6,0.00159728,0.00118462,-0.776382,30,0.00121908,10,-9.19718e-07,-3.10992, , , ,0.00118462,
2,0,0,1,0,58253.8,0.000199195,-0.000185986,-0.770768,30,0.001109,10,1.43352e-07,-3.11308, , , ,-0.000185986,