File: Figure_codes/Fig_3-5/rawdata_trumpetplot_data/after 10th/20221101_1-115_003_TrumpetPlot_ParaChange_from10_every3_06_CV_C01_6.csv
mode,ox/red,error,control changes,counter inc.,time/s,control/V,Ewe/V,<I>/mA,cycle number,(Q-Qo)/C,I Range,P/W,log(|I|),Tafel slope mV/dec,alpha_eff,dI/d(E-IR),E-IR/V,
2,0,0,0,0,12970.8,2.44065e-05,-0.000363498,-1.4217,7,0.0000000E+000,10,5.16787e-07,-2.84719, , , ,-0.000363498,
2,1,0,1,0,12971,0.00729063,0.00698461,1.30545,7,0.000111141,10,9.11803e-06,-2.88424,0.0365761,1.61308,79.7957,0.00698461,
2,1,0,1,0,12971.2,0.014778,0.0144477,1.65054,7,0.000395526,10,2.38466e-05,-2.78237,0.115748,0.509729,32.6698,0.0144477,
2,1,0,1,0,12971.4,0.0222743,0.0219699,1.86344,7,0.000727891,10,4.09394e-05,-2.72969,0.160635,0.367293,26.58,0.0219699,
2,1,0,1,0,12971.5,0.0297626,0.0294618,2.04475,7,0.0010964,10,6.0242e-05,-2.68936,0.190805,0.309217,24.7241,0.0294618,
2,1,0,1,0,12971.7,0.0372544,0.0369566,2.23485,7,0.00150008,10,8.25925e-05,-2.65075,0.216058,0.273075,23.737,0.03695656,
2,1,0,1,0,12971.9,0.0447472,0.0444213,2.41478,7,0.00193841,10,0.000107268,-2.61712,0.23204,0.254267,23.9805,0.0444213,
2,1,0,1,0,12972.1,0.0522345,0.0519204,2.58566,7,0.00241009,10,0.000134249,-2.58743,0.246888,0.238974,24.1701,0.0519204,
2,1,0,1,0,12972.3,0.0597309,0.0594267,2.75714,7,0.00291417,10,0.000163848,-2.55954,0.28122,0.2098,22.5085,0.0594267,
2,1,0,1,0,12972.5,0.0672182,0.0668941,2.90287,7,0.00344719,10,0.000194185,-2.53717,0.323717,0.182258,20.6647,0.0668941,
2,1,0,1,0,12972.7,0.0747074,0.0744066,3.04227,7,0.00400685,10,0.000226365,-2.5168,0.418024,0.14114,16.7375,0.0744066,
2,1,0,1,0,12972.9,0.0822019,0.0818972,3.15404,7,0.00459087,10,0.000258307,-2.50113,0.468709,0.125878,15.5154,0.0818972,
2,1,0,1,0,12973,0.0896911,0.0894094,3.28225,7,0.00519692,10,0.000293464,-2.48383,0.410591,0.143695,18.463,0.0894094,
2,1,0,1,0,12973.2,0.097182,0.0968639,3.4646,7,0.00583136,10,0.000335595,-2.46035,0.260664,0.226345,30.624,0.09686394,
2,1,0,1,0,12973.4,0.104675,0.104386,3.74005,7,0.00650726,10,0.000390409,-2.42712,0.20474,0.28817,42.002,0.104386,
2,1,0,1,0,12973.6,0.112162,0.111825,4.05086,7,0.00723939,10,0.000452986,-2.39245,0.23421,0.251911,39.8277,0.111825,
2,1,0,1,0,12973.8,0.119655,0.119363,4.31871,7,0.00802756,10,0.000515493,-2.36465,0.367829,0.1604,26.9787,0.119363,
2,1,0,1,0,12974,0.127146,0.126833,4.49131,7,0.00885675,10,0.000569645,-2.34763,0.468454,0.125946,22.1037,0.126833,
2,1,0,1,0,12974.2,0.134635,0.134321,4.65231,7,0.00971681,10,0.000624904,-2.33233,0.658124,0.0896488,16.2881,0.134321,
2,1,0,1,0,12974.4,0.14213,0.141839,4.67851,7,0.0105987,10,0.000663595,-2.32989,-0.606732,-0.0972423,-17.6957,0.141839,
2,1,0,1,0,12974.5,0.149619,0.149323,4.26706,7,0.0114479,10,0.000637172,-2.36987,-0.111606,-0.528646,-87.787,0.149323,
2,1,0,1,0,12974.7,0.157106,0.156824,3.48904,7,0.0121788,10,0.000547167,-2.45729,-0.0750379,-0.786269,-106.889,0.156824,
2,1,0,1,0,12974.9,0.164602,0.164289,2.8325,7,0.0127691,10,0.00046535,-2.54783,-0.09369,-0.629736,-69.738,0.164289,
2,1,0,1,0,12975.1,0.172091,0.171774,2.4302,7,0.0132617,10,0.000417445,-2.61436,-0.137681,-0.428526,-40.845,0.171774,
2,1,0,1,0,12975.3,0.179582,0.179286,2.19884,7,0.0136967,10,0.000394221,-2.65781,-0.206129,-0.286229,-24.6051,0.179286,
2,1,0,1,0,12975.5,0.187074,0.186793,2.05209,7,0.0140969,10,0.000383315,-2.6878,-0.350976,-0.168102,-13.4654,0.1867931,
2,1,0,1,0,12975.7,0.194563,0.19426,1.96367,7,0.0144751,10,0.000381463,-2.70693,-0.435394,-0.135509,-10.3823,0.19426,
2,1,0,1,0,12975.9,0.202059,0.201724,1.90221,7,0.0148394,10,0.000383722,-2.72074,-0.602016,-0.098004,-7.25162,0.201724,
2,1,0,1,0,12976,0.209546,0.209274,1.8545,7,0.0151939,10,0.000388098,-2.73177,-0.601346,-0.0981133,-7.12659,0.209274,
2,1,0,1,0,12976.2,0.217035,0.216741,1.82108,7,0.0155409,10,0.000394703,-2.73967,-0.887905,-0.0664485,-4.72074,0.2167411,
2,1,0,1,0,12976.4,0.22453,0.224212,1.79889,7,0.0158827,10,0.000403334,-2.74499,-1.17519,-0.0502048,-3.51633,0.224212,
2,1,0,1,0,12976.6,0.232019,0.231684,1.77162,7,0.0162196,10,0.000410456,-2.75163,-3.22854,-0.0182745,-1.26617,0.231684,
2,1,0,1,0,12976.8,0.23951,0.23925,1.75865,7,0.0165529,10,0.000420756,-2.75482,-2.33485,-0.0252693,-1.72652,0.23925,
2,1,0,1,0,12977,0.247003,0.246709,1.73545,7,0.0168828,10,0.000428152,-2.76059,-2.22125,-0.0265617,-1.79885,0.246709,
2,1,0,1,0,12977.2,0.25449,0.25419,1.71801,7,0.0172093,10,0.000436701,-2.76497,-1.41701,-0.0416369,-2.79318,0.25419,
2,1,0,1,0,12977.3,0.261983,0.261661,1.7034,7,0.0175328,10,0.000445713,-2.76868,-1.61696,-0.0364881,-2.42339,0.261661,
2,1,0,1,0,12977.5,0.269474,0.269157,1.68383,7,0.0178532,10,0.000453214,-2.7737,-2.4944,-0.023653,-1.55877,0.269157,
2,1,0,1,0,12977.7,0.276963,0.276647,1.67371,7,0.0181706,10,0.000463028,-2.77632,-1.06313,-0.0554963,-3.61582,0.276647,
2,1,0,1,0,12977.9,0.284458,0.284151,1.65673,7,0.018485,10,0.000470761,-2.78075,-2.14133,-0.027553,-1.77897,0.284151,
2,1,0,1,0,12978.1,0.291947,0.29169,1.63586,7,0.0187959,10,0.000477164,-2.78625,-0.927052,-0.0636426,-4.06663,0.29169,
2,1,0,1,0,12978.3,0.299434,0.299148,1.61912,7,0.0191036,10,0.000484357,-2.79072,-0.0127965,-4.61062,-240.637,0.299148,
2,0,0,1,0,12978.4,0.294196,0.293892,-0.38662,7,0.0191284,10,-0.000113625,-3.41272,-0.0160111,-3.68494,51.1578,0.293892,
2,0,0,1,0,12978.6,0.286701,0.286417,-0.602748,7,0.0190288,10,-0.000172637,-3.21986,-0.0658944,-0.895372,21.1507,0.286417,
2,0,0,1,0,12978.8,0.279212,0.278894,-0.73573,7,0.018899,10,-0.000205191,-3.13328,-0.126293,-0.467169,13.3714,0.278894,
2,0,0,1,0,12979,0.271725,0.271436,-0.82141,7,0.0187494,10,-0.00022296,-3.08544,-0.141872,-0.415869,13.4222,0.271436,
2,0,0,1,0,12979.2,0.264228,0.263944,-0.903619,7,0.018584,10,-0.000238505,-3.04401,-0.251389,-0.234696,8.20712,0.263944,
2,0,0,1,0,12979.4,0.256741,0.256411,-0.964406,7,0.018406,10,-0.000247284,-3.01574,-0.282638,-0.208747,7.85063,0.256411,
2,0,0,1,0,12979.6,0.249248,0.248907,-1.0204,7,0.0182166,10,-0.000253985,-2.99123,-0.343428,-0.171797,6.8503,0.248907,
2,0,0,1,0,12979.8,0.241756,0.24147,-1.074,7,0.0180169,10,-0.00025934,-2.96899,-0.406221,-0.145241,6.07206,0.24147,
2,0,0,1,0,12979.9,0.234268,0.234004,-1.11737,7,0.0178079,10,-0.000261468,-2.9518,-0.455461,-0.129539,5.70643,0.234004,
2,0,0,1,0,12980.1,0.226772,0.226486,-1.17168,7,0.0175897,10,-0.00026537,-2.93119,-0.334895,-0.176175,8.03075,0.226486,
2,0,0,1,0,12980.3,0.219284,0.218985,-1.22313,7,0.0173626,10,-0.000267848,-2.91253,-0.444056,-0.132866,6.30953,0.218985,
2,0,0,1,0,12980.5,0.211796,0.211484,-1.26474,7,0.0171268,10,-0.000267471,-2.898,-0.586897,-0.100529,4.96246,0.211484,
2,0,0,1,0,12980.7,0.204301,0.204002,-1.31825,7,0.0168817,10,-0.000268926,-2.88,-0.654253,-0.0901791,4.61904,0.2040015,
2,0,0,1,0,12980.9,0.196812,0.196531,-1.35735,7,0.0166278,10,-0.000266761,-2.86731,-0.431241,-0.136814,7.30593,0.196531,
2,0,0,1,0,12981.1,0.189321,0.188971,-1.42122,7,0.0163633,10,-0.00026857,-2.84734,-0.423263,-0.139393,7.74539,0.188971,
2,0,0,1,0,12981.3,0.181828,0.181509,-1.4942,7,0.0160872,10,-0.000271211,-2.82559,-0.291338,-0.202514,11.7669,0.181509,
2,0,0,1,0,12981.4,0.174341,0.174012,-1.57816,7,0.0157967,10,-0.000274619,-2.80185,-0.269132,-0.219223,13.5436,0.174012,
2,0,0,1,0,12981.6,0.166848,0.166542,-1.69786,7,0.0154873,10,-0.000282764,-2.7701,-0.224786,-0.262472,17.3668,0.1665417,
2,0,0,1,0,12981.8,0.159357,0.159044,-1.86627,7,0.0151516,10,-0.000296818,-2.72903,-0.170058,-0.346941,25.2509,0.159044,
2,0,0,1,0,12982,0.151868,0.151568,-2.12354,7,0.0147766,10,-0.000321861,-2.67294,-0.107548,-0.548592,45.7694,0.151568,
2,0,0,1,0,12982.2,0.144373,0.144021,-2.56452,7,0.014337,10,-0.000369345,-2.59099,-0.0802205,-0.735473,73.6041,0.144021,
2,0,0,1,0,12982.4,0.136884,0.13659,-3.19537,7,0.0137973,10,-0.000436454,-2.49548,-0.0793392,-0.743643,92.5666,0.13659,
2,0,0,1,0,12982.6,0.129393,0.12908,-3.87679,7,0.0131307,10,-0.000500414,-2.41153,-0.105865,-0.557312,84.1267,0.12908,
2,0,0,1,0,12982.8,0.1219,0.121583,-4.41772,7,0.0123477,10,-0.000537118,-2.3548,-0.185404,-0.318223,54.6165,0.121583,
2,0,0,1,0,12982.9,0.114413,0.114102,-4.71215,7,0.0114863,10,-0.000537668,-2.32678,-0.498274,-0.118409,21.7545,0.1141023,
2,0,0,1,0,12983.1,0.10692,0.106608,-4.78684,7,0.0105901,10,-0.000510316,-2.31995,2.91481,0.0202414,-3.77657,0.106608,
2,0,0,1,0,12983.3,0.0994284,0.0991549,-4.6719,7,0.00969826,10,-0.000463241,-2.33051,0.4229,0.139513,-25.4089,0.0991549,
2,0,0,1,0,12983.5,0.0919401,0.0916283,-4.43019,7,0.00884173,10,-0.000405931,-2.35358,0.316289,0.186538,-32.2973,0.0916283,
2,0,0,1,0,12983.7,0.0844447,0.0841064,-4.20097,7,0.00803082,10,-0.000353329,-2.37665,0.350571,0.168297,-27.5106,0.0841064,
2,0,0,1,0,12983.9,0.0769565,0.0766274,-4.02063,7,0.00726021,10,-0.000308091,-2.39571,0.469443,0.125681,-19.7078,0.0766274,
2,0,0,1,0,12984.1,0.0694682,0.0691501,-3.88766,7,0.00651697,10,-0.000268832,-2.41031,0.554731,0.106358,-16.1644,0.0691501,
2,0,0,1,0,12984.3,0.0619728,0.0616722,-3.78332,7,0.00579456,10,-0.000233326,-2.42213,0.550159,0.107242,-15.8133,0.0616722,
2,0,0,1,0,12984.4,0.0544836,0.0541523,-3.66742,7,0.00509349,10,-0.000198599,-2.43564,0.696324,0.0847307,-12.1496,0.0541523,
2,0,0,1,0,12984.6,0.0469927,0.0466819,-3.55853,7,0.00441298,10,-0.000166119,-2.44873,0.513048,0.114999,-15.9533,0.0466819,
2,0,0,1,0,12984.8,0.0394999,0.039168,-3.43269,7,0.00375555,10,-0.000134452,-2.46437,0.430566,0.137029,-18.3191,0.039168,
2,0,0,1,0,12985,0.0320125,0.0317206,-3.27779,7,0.00312409,10,-0.000103973,-2.48442,0.361919,0.16302,-20.8989,0.0317206,
2,0,0,1,0,12985.2,0.0245198,0.0242168,-3.131,7,0.00252026,10,-7.58226e-05,-2.50432,0.363387,0.162361,-19.846,0.0242168,
2,0,0,1,0,12985.4,0.0170289,0.0166752,-2.99522,7,0.00194343,10,-4.99459e-05,-2.52357,0.429099,0.137497,-16.1064,0.0166752,
2,0,0,1,0,12985.6,0.0095397,0.00920385,-2.88849,7,0.00138946,10,-2.65853e-05,-2.53933,0.640229,0.0921546,-10.4033,0.00920385,
2,0,0,1,0,12985.7,0.00204518,0.00171514,-2.87129,7,0.000850602,10,-4.92468e-06,-2.54192,4.02576,0.0146556,-1.62061,0.00171514,
2,0,0,1,0,12985.8,0.000177222,-0.0002066,-2.83021,7,0.000716811,10,5.84722e-07,-2.54818, , , ,-0.0002066,