File: Figure_codes/Fig_3-5/rawdata_trumpetplot_data/after 10th/20221101_1-115_003_TrumpetPlot_ParaChange_from10_every3_13_CV_C01_19.csv
mode,ox/red,error,control changes,counter inc.,time/s,control/V,Ewe/V,<I>/mA,cycle number,(Q-Qo)/C,I Range,P/W,log(|I|),Tafel slope mV/dec,alpha_eff,dI/d(E-IR),E-IR/V,
2,1,0,1,0,38630.3,2.44065e-05,-0.000344411,18.8289,20,0.0000000E+000,10,-6.48488e-06,-1.72517, , , ,-0.000344411,
2,1,0,1,0,38630.3,0.0122624,0.0118916,22.9943,20,0.000321153,10,0.00027344,-1.63838,0.204766,0.288133,256.756,0.0118916,
2,1,0,1,0,38630.4,0.0250636,0.0247183,25.8543,20,0.000713238,10,0.000639075,-1.58747,0.296201,0.199189,200.339,0.0247183,
2,1,0,1,0,38630.4,0.0378703,0.0374941,28.2325,20,0.00114654,10,0.00105855,-1.54925,0.37552,0.157115,172.709,0.0374941,
2,1,0,1,0,38630.4,0.0506632,0.0502677,30.3284,20,0.00161537,10,0.00152454,-1.51815,0.437182,0.134955,159.579,0.0502677,
2,1,0,1,0,38630.4,0.0634672,0.0631082,32.3218,20,0.0021169,10,0.00203977,-1.4905,0.47993,0.122934,155.043,0.0631082,
2,1,0,1,0,38630.4,0.0762629,0.0758956,34.3162,20,0.0026503,10,0.00260445,-1.4645,0.502839,0.117334,157.13,0.0758956,
2,1,0,1,0,38630.4,0.0890668,0.0886862,36.3523,20,0.00321579,10,0.00322395,-1.43947,0.521626,0.113108,160.453,0.08868625,
2,1,0,1,0,38630.5,0.10186,0.101512,38.4408,20,0.00381431,10,0.0039022,-1.41521,0.535917,0.110092,165.123,0.101512,
2,1,0,1,0,38630.5,0.114666,0.114291,40.5822,20,0.00444659,10,0.00463818,-1.39166,0.542682,0.108719,172.218,0.114291,
2,1,0,1,0,38630.5,0.127462,0.127041,42.8023,20,0.00511394,10,0.00543765,-1.36853,0.560443,0.105274,175.89,0.127041,
2,1,0,1,0,38630.5,0.140263,0.139823,45.1993,20,0.00581774,10,0.00631991,-1.34487,0.516689,0.114189,201.516,0.1398233,
2,1,0,1,0,38630.5,0.153064,0.152693,47.8011,20,0.00656223,10,0.00729891,-1.32056,0.556795,0.105964,197.593,0.152693,
2,1,0,1,0,38630.5,0.165866,0.165521,50.2823,20,0.0073474,10,0.00832278,-1.29859,0.631373,0.0934472,183.165,0.165521,
2,1,0,1,0,38630.6,0.178667,0.178294,52.4431,20,0.00816991,10,0.00935028,-1.28031,0.803545,0.0734246,150.042,0.178294,
2,1,0,1,0,38630.6,0.191463,0.191106,54.006,20,0.00902285,10,0.0103208,-1.26756,1.41385,0.0417301,87.7582,0.191106,
2,1,0,1,0,38630.6,0.204269,0.203947,54.5773,20,0.00989325,10,0.0111309,-1.26299,-24.9762,-0.00236225,-5.01682,0.203947,
2,1,0,1,0,38630.6,0.217062,0.216748,53.8773,20,0.0107626,10,0.0116778,-1.26859,-1.20175,-0.0490952,-102.93,0.216748,
2,1,0,1,0,38630.6,0.229866,0.229527,51.9602,20,0.0116107,10,0.0119263,-1.28433,-0.615714,-0.0958237,-193.779,0.229527,
2,1,0,1,0,38630.6,0.242662,0.24234,49.0155,20,0.0124193,10,0.0118784,-1.30967,-0.439927,-0.134113,-256.105,0.24234,
2,1,0,1,0,38630.7,0.255466,0.25515,45.5157,20,0.0131757,10,0.0116133,-1.34184,-0.375195,-0.157252,-279.229,0.2551499,
2,1,0,1,0,38630.7,0.268259,0.26792,41.9707,20,0.0138752,10,0.0112448,-1.37705,-0.360802,-0.163524,-268.045,0.2679204,
2,1,0,1,0,38630.7,0.281065,0.280722,38.7508,20,0.0145202,10,0.0108782,-1.41172,-0.381866,-0.154504,-233.906,0.280722,
2,1,0,1,0,38630.7,0.293861,0.293539,35.9909,20,0.0151173,10,0.0105647,-1.44381,-0.421429,-0.14,-197.215,0.293539,
2,1,0,1,0,38630.7,0.298983,0.298828,32.5211,20,0.0154327,10,0.0097182,-1.48784,0.038266,1.54184,1715.02,0.2988281,
2,1,0,1,0,38630.7,0.286187,0.285923,16.3083,20,0.0158054,10,0.00466292,-1.78759,0.0406416,1.45171,923.098,0.285923,
2,1,0,1,0,38630.7,0.273386,0.273138,6.80887,20,0.0159842,10,0.00185976,-2.16693,0.0239418,2.46431,611.863,0.273138,
2,1,0,1,0,38630.8,0.260585,0.260314,0.213357,20,0.0160367,10,5.55398e-05,-3.67089,0.0962379,0.613064,438.092,0.260314,
2,0,0,1,0,38630.8,0.247783,0.247449,-4.6101,20,0.0159991,10,-0.00114076,-2.33629,-0.0291272,-2.0256,325.273,0.247449,
2,0,0,1,0,38630.8,0.234982,0.234705,-8.26484,20,0.0158945,10,-0.0019398,-2.08277,-0.0734028,-0.803784,252.739,0.234705,
2,0,0,1,0,38630.8,0.222187,0.221915,-11.1421,20,0.0157381,10,-0.00247259,-1.95303,-0.125742,-0.469215,201.825,0.221915,
2,0,0,1,0,38630.8,0.20938,0.209056,-13.4673,20,0.0155403,10,-0.00281542,-1.87072,-0.185087,-0.318769,166.739,0.209056,
2,0,0,1,0,38630.8,0.196587,0.196256,-15.4353,20,0.0153084,10,-0.00302928,-1.81148,-0.248399,-0.237522,142.711,0.196256,
2,0,0,1,0,38630.9,0.183783,0.183481,-17.1693,20,0.015047,10,-0.00315025,-1.76525,-0.305209,-0.19331,129.327,0.183481,
2,0,0,1,0,38630.9,0.170987,0.170663,-18.7888,20,0.0147591,10,-0.00320655,-1.7261,-0.342313,-0.172357,126.322,0.170663,
2,0,0,1,0,38630.9,0.158183,0.15785,-20.4632,20,0.0144451,10,-0.00323012,-1.68903,-0.337595,-0.174765,139.699,0.15785,
2,0,0,1,0,38630.9,0.145385,0.145098,-22.4051,20,0.0141025,10,-0.00325094,-1.64965,-0.300745,-0.19618,172.028,0.145098,
2,0,0,1,0,38630.9,0.132584,0.132304,-24.9527,20,0.0137242,10,-0.00330134,-1.60288,-0.247419,-0.238462,233.09,0.132304,
2,0,0,1,0,38630.9,0.119783,0.119493,-28.3879,20,0.0132982,10,-0.00339217,-1.54687,-0.216744,-0.27221,302.304,0.1194932,
2,0,0,1,0,38630.9,0.106987,0.106693,-32.6078,20,0.0128104,10,-0.00347903,-1.48668,-0.220492,-0.267583,340.109,0.106693,
2,0,0,1,0,38631,0.0941801,0.093895,-36.9785,20,0.0122531,10,-0.00347209,-1.43205,-0.256968,-0.229601,330.245,0.093895,
2,0,0,1,0,38631,0.0813844,0.0811404,-40.9983,20,0.0116286,10,-0.00332662,-1.38723,-0.312838,-0.188596,300.916,0.0811404,
2,0,0,1,0,38631,0.0685832,0.0683021,-44.4758,20,0.0109434,10,-0.00303779,-1.35188,-0.426439,-0.138355,239.534,0.0683021,
2,0,0,1,0,38631,0.0557876,0.0555729,-47.17,20,0.0102089,10,-0.00262138,-1.32633,-0.593807,-0.0993588,182.552,0.0555729,
2,0,0,1,0,38631,0.0429808,0.0426964,-49.1612,20,0.00943703,10,-0.00209901,-1.30838,-0.900975,-0.0654846,125.374,0.0426964,
2,0,0,1,0,38631,0.030188,0.0298867,-50.447,20,0.0086393,10,-0.0015077,-1.29716,-1.45433,-0.0405686,79.7581,0.0298867,
2,0,0,1,0,38631.1,0.017384,0.0170728,-51.2113,20,0.00782519,10,-0.000874318,-1.29063,-2.68151,-0.0220025,43.9367,0.0170728,
2,0,0,1,0,38631.1,0.00458834,0.00423442,-51.5507,20,0.00700232,10,-0.000218287,-1.28777,-8.66731,-0.00680719,13.6914,0.00423442,
2,0,0,1,0,38631.1,-0.00821564,-0.00856257,-51.5376,20,0.00617673,10,0.000441294,-1.28788,5.35038,0.0110272,-22.1561,-0.00856257,
2,0,0,1,0,38631.1,-0.0210196,-0.021402,-51.0813,20,0.00535543,10,0.00109324,-1.29174,2.32044,0.0254262,-50.6239,-0.021402,
2,0,0,1,0,38631.1,-0.0338153,-0.0341565,-50.2505,20,0.00454446,10,0.00171638,-1.29886,1.61318,0.0365737,-71.6988,-0.0341565,
2,0,0,1,0,38631.1,-0.0466193,-0.046944,-49.244,20,0.00374834,10,0.00231171,-1.30765,1.38358,0.042643,-81.9588,-0.046944,
2,0,0,1,0,38631.2,-0.0594121,-0.0598184,-48.2118,20,0.00296879,10,0.00288395,-1.31685,1.47133,0.0400999,-75.4945,-0.0598184,
2,0,0,1,0,38631.2,-0.0722189,-0.0725603,-47.3591,20,0.00220453,10,0.00343639,-1.3246,1.86001,0.0317203,-58.6564,-0.0725603,
2,0,0,1,0,38631.2,-0.0850146,-0.0854368,-46.741,20,0.0014522,10,0.0039934,-1.3303,2.96162,0.0199215,-36.3659,-0.0854368,
2,0,0,1,0,38631.2,-0.0978158,-0.098167,-46.4246,20,0.000707202,10,0.00455736,-1.33325,9.12459,0.00646605,-11.7258,-0.09816695,
2,0,0,1,0,38631.2,-0.110611,-0.110951,-46.398,20,-3.51718e-05,10,0.00514791,-1.3335,-11.3507,-0.00519792,9.42309,-0.110951,
2,0,0,1,0,38631.2,-0.123418,-0.123805,-46.6796,20,-0.000779627,10,0.00577919,-1.33087,-3.49277,-0.0168921,30.7924,-0.123805,
2,0,0,1,0,38631.3,-0.136214,-0.136577,-47.1835,20,-0.0015303,10,0.00644419,-1.32621,-2.3703,-0.0248914,45.8505,-0.136577,
2,0,0,1,0,38631.3,-0.149015,-0.149334,-47.8415,20,-0.00229054,10,0.00714434,-1.3202,-1.93514,-0.0304887,56.9425,-0.149334,
2,0,0,1,0,38631.3,-0.161816,-0.162171,-48.5844,20,-0.0030621,10,0.00787898,-1.3135,-1.97314,-0.0299016,56.6939,-0.162171,
2,0,0,1,0,38631.3,-0.174615,-0.174934,-49.2829,20,-0.0038453,10,0.00862126,-1.3073,-2.19085,-0.0269301,51.7901,-0.174934,
2,0,0,1,0,38631.3,-0.187419,-0.187734,-49.9039,20,-0.00463909,10,0.00936867,-1.30187,-2.56276,-0.023022,44.8302,-0.187734,
2,0,0,1,0,38631.3,-0.199647,-0.199945,-50.4052,20,-0.00540673,10,0.0100783,-1.29752,0.2398,0.246039,-469.864,-0.199945,
2,0,0,1,1,38631.3,-0.192535,-0.192958,-37.7328,20,-0.00584713,10,0.00728083,-1.42328,-0.0677895,-0.870341,1312.74,-0.1929578,
2,0,0,1,1,38631.4,-0.179739,-0.180099,-25.2226,20,-0.00634249,10,0.00454258,-1.59821,-0.0717958,-0.821775,810.417,-0.180099,
2,0,0,1,1,38631.4,-0.166932,-0.167313,-16.2084,20,-0.00666998,10,0.00271187,-1.79026,-0.0590866,-0.998534,626.826,-0.167313,
2,0,0,1,1,38631.4,-0.154139,-0.154546,-8.94568,20,-0.00686872,10,0.00138252,-2.04839,-0.0381494,-1.54655,521.701,-0.154546,
2,0,0,1,1,38631.4,-0.141335,-0.141794,-2.75942,20,-0.00696041,10,0.00039127,-2.55918,-0.0057591,-10.2447,450.225,-0.141794,
2,1,0,1,1,38631.4,-0.12854,-0.128983,2.6583,20,-0.00695981,10,-0.000342876,-2.5754,0.00586624,10.0576,399.78,-0.128983,
2,1,0,1,1,38631.4,-0.115736,-0.116224,7.50391,20,-0.00687739,10,-0.000872131,-2.12471,0.0458578,1.28659,362.032,-0.116224,
2,1,0,1,1,38631.5,-0.102932,-0.103379,11.9512,20,-0.00672078,10,-0.0012355,-1.92259,0.0815643,0.723355,332.304,-0.103379,
2,1,0,1,1,38631.5,-0.0901361,-0.0905437,16.0044,20,-0.00649621,10,-0.0014491,-1.79576,0.120592,0.489254,303.438,-0.0905437,
2,1,0,1,1,38631.5,-0.0773322,-0.0777265,19.731,20,-0.00620942,10,-0.00153362,-1.70485,0.163695,0.360426,276.238,-0.0777265,
2,1,0,1,1,38631.5,-0.0645393,-0.0649497,23.1315,20,-0.00586579,10,-0.00150238,-1.6358,0.208926,0.282396,254.031,-0.0649497,
2,1,0,1,1,38631.5,-0.0517325,-0.0520965,26.2385,20,-0.00547014,10,-0.00136693,-1.58106,0.260737,0.226282,231.06,-0.0520965,
2,1,0,1,1,38631.5,-0.0389369,-0.0393313,29.0403,20,-0.00502722,10,-0.00114219,-1.537,0.319364,0.184742,208.99,-0.0393313,
2,1,0,1,1,38631.6,-0.0261357,-0.0265587,31.5488,20,-0.00454175,10,-0.000837896,-1.50102,0.3954,0.149216,183.472,-0.0265587,
2,1,0,1,1,38631.6,-0.01334,-0.0137437,33.7459,20,-0.00401862,10,-0.000463794,-1.47178,0.484624,0.121744,160.184,-0.0137437,
2,1,0,1,1,38631.6,-0.000774628,-0.00119698,35.6475,20,-0.00347326,10,-4.26692e-05,-1.44797, , , ,-0.00119698,
2,1,0,0,1,38631.6,-0.000125413,-0.000458935,35.7461,20,-0.00344471,10,-1.64051e-05,-1.44677, , , ,-0.000458935,