File: Figure_codes/Fig_3-5/rawdata_trumpetplot_data/after 10th/20221101_1-115_003_TrumpetPlot_ParaChange_from10_every3_13_CV_C01_27.csv
mode,ox/red,error,control changes,counter inc.,time/s,control/V,Ewe/V,<I>/mA,cycle number,(Q-Qo)/C,I Range,P/W,log(|I|),Tafel slope mV/dec,alpha_eff,dI/d(E-IR),E-IR/V,
2,1,0,1,0,54391.4,2.44065e-05,-0.000248974,16.8311,28,0.0000000E+000,10,-4.19052e-06,-1.77389, , , ,-0.000248974,
2,1,0,1,0,54391.4,0.0122624,0.0118577,20.8897,28,0.000290169,10,0.000247703,-1.68007,0.192075,0.307172,248.484,0.0118577,
2,1,0,1,0,54391.4,0.0250636,0.0247268,23.6816,28,0.000647871,10,0.000585568,-1.62559,0.273895,0.215411,198.395,0.0247268,
2,1,0,1,0,54391.4,0.0378704,0.0374718,26.0283,28,0.00104618,10,0.000975329,-1.58455,0.351334,0.167931,170.199,0.0374718,
2,1,0,1,0,54391.4,0.0506632,0.0503239,28.0982,28,0.00147962,10,0.00141401,-1.55132,0.408768,0.144336,158.155,0.05032393,
2,1,0,1,0,54391.5,0.0634672,0.0631103,30.0631,28,0.0019453,10,0.00189729,-1.52197,0.460984,0.127987,150.09,0.0631103,
2,1,0,1,0,54391.5,0.0762629,0.0758235,31.9727,28,0.00244186,10,0.00242428,-1.49522,0.494109,0.119407,148.968,0.0758235,
2,1,0,1,0,54391.5,0.0890668,0.0886863,33.9088,28,0.00296907,10,0.00300725,-1.46969,0.512673,0.115083,152.234,0.0886863,
2,1,0,1,0,54391.5,0.10186,0.101481,35.8465,28,0.00352724,10,0.00363774,-1.44555,0.539856,0.109288,152.882,0.101481,
2,1,0,1,0,54391.5,0.114666,0.11426,37.8216,28,0.00411684,10,0.0043215,-1.42226,0.550484,0.107178,158.254,0.11426,
2,1,0,1,0,54391.5,0.127462,0.127015,39.9054,28,0.00473876,10,0.00506857,-1.39897,0.549127,0.107443,167.379,0.127015,
2,1,0,1,0,54391.6,0.140263,0.139824,42.1035,28,0.00539512,10,0.0058871,-1.37568,0.540952,0.109067,179.342,0.139824,
2,1,0,1,0,54391.6,0.153064,0.152696,44.5066,28,0.00608798,10,0.00679596,-1.35158,0.561762,0.105027,182.18,0.152696,
2,1,0,1,0,54391.6,0.165866,0.1655,46.6909,28,0.00681815,10,0.00772734,-1.33077,0.669847,0.0880798,160.341,0.1655,
2,1,0,1,0,54391.6,0.178667,0.178288,48.5575,28,0.00758098,10,0.00865724,-1.31374,0.881742,0.066913,126.612,0.178288,
2,1,0,1,0,54391.6,0.191463,0.191085,49.8356,28,0.00836944,10,0.00952285,-1.30246,1.69855,0.0347355,67.4127,0.191085,
2,1,0,1,0,54391.6,0.204269,0.203891,50.2435,28,0.00917139,10,0.0102442,-1.29892,-18.4538,-0.00319716,-6.25377,0.203891,
2,1,0,1,0,54391.6,0.217062,0.216684,49.7003,28,0.00997213,10,0.0107692,-1.30364,-1.47278,-0.0400602,-77.5175,0.216684,
2,1,0,1,0,54391.7,0.229866,0.229489,48.2702,28,0.0107569,10,0.0110775,-1.31632,-0.779371,-0.075702,-142.316,0.229489,
2,1,0,1,0,54391.7,0.242662,0.242304,46.0964,28,0.0115125,10,0.0111693,-1.33633,-0.556481,-0.106023,-190.478,0.242304,
2,1,0,1,0,54391.7,0.255466,0.255112,43.4609,28,0.0122292,10,0.0110874,-1.3619,-0.466024,-0.126603,-214.611,0.255112,
2,1,0,1,0,54391.7,0.268259,0.267902,40.6728,28,0.0129021,10,0.0108963,-1.3907,-0.435765,-0.135394,-214.962,0.267902,
2,1,0,1,0,54391.7,0.281065,0.280709,38.0255,28,0.0135312,10,0.0106741,-1.41993,-0.443872,-0.132921,-197.338,0.280709,
2,1,0,1,0,54391.7,0.293861,0.293483,35.6327,28,0.0141198,10,0.0104576,-1.44815,-0.468278,-0.125994,-175.632,0.293483,
2,1,0,1,0,54391.8,0.298983,0.29875,32.4225,28,0.0144329,10,0.0096862,-1.48915,0.0426766,1.38249,1557.28,0.2987496,
2,1,0,1,0,54391.8,0.286187,0.285895,17.7438,28,0.014818,10,0.00507287,-1.75095,0.0481498,1.22534,850.051,0.285895,
2,1,0,1,0,54391.8,0.273386,0.273067,8.88894,28,0.0150258,10,0.00242727,-2.05115,0.0343028,1.71998,580.828,0.273067,
2,1,0,1,0,54391.8,0.260585,0.260257,2.51855,28,0.0151138,10,0.000655469,-2.59885,0.00591362,9.97696,428.481,0.260257,
2,0,0,1,0,54391.8,0.247783,0.24742,-2.29416,28,0.0151134,10,-0.000567621,-2.63938,-0.00618858,-9.53368,332.109,0.24742,
2,0,0,1,0,54391.8,0.234982,0.234675,-6.04113,28,0.0150452,10,-0.0014177,-2.21888,-0.0511915,-1.15253,260.345,0.234675,
2,0,0,1,0,54391.8,0.222187,0.221856,-9.0408,28,0.0149233,10,-0.00200576,-2.04379,-0.0959311,-0.615025,214.023,0.221856,
2,0,0,1,0,54391.9,0.20938,0.209079,-11.5316,28,0.0147577,10,-0.00241102,-1.93811,-0.148501,-0.397304,177.633,0.209079,
2,0,0,1,0,54391.9,0.196587,0.1962,-13.647,28,0.0145556,10,-0.00267755,-1.86496,-0.205787,-0.286705,152.019,0.1961998,
2,0,0,1,0,54391.9,0.183783,0.18346,-15.4978,28,0.014322,10,-0.00284323,-1.80973,-0.25565,-0.230785,139.213,0.18346,
2,0,0,1,0,54391.9,0.170987,0.170615,-17.197,28,0.0140601,10,-0.00293407,-1.76455,-0.301559,-0.19565,131.244,0.170615,
2,0,0,1,0,54391.9,0.158183,0.157825,-18.894,28,0.0137712,10,-0.00298195,-1.72368,-0.315385,-0.187073,138.082,0.157825,
2,0,0,1,0,54391.9,0.145385,0.145056,-20.7785,28,0.0134539,10,-0.00301405,-1.68239,-0.295714,-0.199517,162.191,0.145056,
2,0,0,1,0,54392,0.132584,0.132277,-23.1457,28,0.013103,10,-0.00306166,-1.63553,-0.251617,-0.234483,212.459,0.132277,
2,0,0,1,0,54392,0.119783,0.119466,-26.2774,28,0.0127084,10,-0.00313925,-1.58042,-0.220378,-0.267722,275.001,0.119466,
2,0,0,1,0,54392,0.106987,0.106678,-30.0836,28,0.0122578,10,-0.00320926,-1.52167,-0.222933,-0.264654,310.432,0.106678,
2,0,0,1,0,54392,0.0941801,0.0938642,-34.0493,28,0.0117441,10,-0.00319601,-1.46789,-0.259912,-0.227,301.01,0.0938642,
2,0,0,1,0,54392,0.0813844,0.0811468,-37.6916,28,0.0111691,10,-0.00305855,-1.42376,-0.321969,-0.183248,269.174,0.0811468,
2,0,0,1,0,54392,0.0685832,0.0683052,-40.8995,28,0.0105389,10,-0.00279365,-1.38828,-0.424676,-0.138929,221.124,0.0683052,
2,0,0,1,0,54392.1,0.0557876,0.0555157,-43.3604,28,0.0098636,10,-0.00240718,-1.36291,-0.591607,-0.0997284,168.452,0.05551568,
2,0,0,1,0,54392.1,0.0429808,0.0426848,-45.2557,28,0.00915381,10,-0.00193173,-1.34433,-0.817891,-0.0721368,127.182,0.04268476,
2,0,0,1,0,54392.1,0.030188,0.0298242,-46.5977,28,0.00841808,10,-0.00138974,-1.33164,-1.23646,-0.0477169,86.6859,0.0298242,
2,0,0,1,0,54392.1,0.017384,0.0170303,-47.498,28,0.00766447,10,-0.000808907,-1.32332,-1.99207,-0.0296174,54.8554,0.0170303,
2,0,0,1,0,54392.1,0.00458834,0.00422382,-47.9998,28,0.00689981,10,-0.000202742,-1.31876,-4.42756,-0.0133256,24.948,0.00422382,
2,0,0,1,0,54392.1,-0.00821564,-0.00857423,-48.1422,28,0.00612989,10,0.000412782,-1.31747,18.9787,0.00310875,-5.83512,-0.00857423,
2,0,0,1,0,54392.2,-0.0210196,-0.0214338,-47.8985,28,0.00536118,10,0.00102665,-1.31968,3.40566,0.0173241,-32.3517,-0.0214338,
2,0,0,1,0,54392.2,-0.0338153,-0.0342106,-47.3403,28,0.00459895,10,0.00161954,-1.32477,2.2718,0.0259706,-47.9768,-0.03421063,
2,0,0,1,0,54392.2,-0.0466193,-0.0470055,-46.6768,28,0.00384664,10,0.00219407,-1.3309,1.92905,0.030585,-55.7112,-0.0470055,
2,0,0,1,0,54392.2,-0.0594121,-0.0598216,-45.9762,28,0.00310546,10,0.00275037,-1.33747,2.04416,0.0288627,-51.8005,-0.05982158,
2,0,0,1,0,54392.2,-0.0722189,-0.0726143,-45.3934,28,0.00237475,10,0.00329621,-1.34301,2.60196,0.0226752,-40.1744,-0.0726143,
2,0,0,1,0,54392.2,-0.0850146,-0.0854039,-44.9574,28,0.00165228,10,0.00383954,-1.3472,4.1917,0.0140754,-24.71,-0.0854039,
2,0,0,1,0,54392.2,-0.0978158,-0.0981998,-44.7303,28,0.000934929,10,0.00439251,-1.3494,12.9081,0.00457079,-7.98688,-0.0981998,
2,0,0,1,0,54392.3,-0.110611,-0.11102,-44.7298,28,0.00021933,10,0.0049659,-1.3494,-12.6018,-0.00468186,8.18113,-0.11102,
2,0,0,1,0,54392.3,-0.123418,-0.123838,-44.9591,28,-0.000498049,10,0.00556766,-1.34718,-4.27377,-0.0138051,24.2349,-0.123838,
2,0,0,1,0,54392.3,-0.136214,-0.136577,-45.3668,28,-0.00122047,10,0.00619607,-1.34326,-2.76446,-0.0213424,37.7969,-0.136577,
2,0,0,1,0,54392.3,-0.149015,-0.149384,-45.9206,28,-0.00195073,10,0.00685978,-1.33799,-2.2121,-0.0266715,47.8049,-0.149384,
2,0,0,1,0,54392.3,-0.161816,-0.162203,-46.526,28,-0.00269047,10,0.00754665,-1.3323,-2.273,-0.0259568,47.1375,-0.162203,
2,0,0,1,0,54392.3,-0.174615,-0.174993,-47.0991,28,-0.00343979,10,0.00824204,-1.32699,-2.62311,-0.0224924,41.342,-0.174993,
2,0,0,1,0,54392.4,-0.187419,-0.187771,-47.5913,28,-0.00419758,10,0.00893628,-1.32247,-3.38597,-0.0174248,32.3494,-0.187771,
2,0,0,1,0,54392.4,-0.199647,-0.199974,-47.9414,28,-0.00492867,10,0.00958703,-1.31929,0.225511,0.261628,-474.964,-0.199974,
2,0,0,1,1,54392.4,-0.192535,-0.192941,-35.9182,28,-0.00534693,10,0.0069301,-1.44468,-0.0696005,-0.847695,1219.87,-0.192941,
2,0,0,1,1,54392.4,-0.179739,-0.180169,-24.4826,28,-0.00582235,10,0.00441101,-1.61114,-0.0767592,-0.768638,736.527,-0.180169,
2,0,0,1,1,54392.4,-0.166932,-0.167345,-16.3123,28,-0.00614507,10,0.00272977,-1.78749,-0.0655234,-0.900441,569.786,-0.167345,
2,0,0,1,1,54392.4,-0.154139,-0.154564,-9.70542,28,-0.00635083,10,0.0015001,-2.01299,-0.0460495,-1.28123,474.355,-0.154564,
2,0,0,1,1,54392.5,-0.141335,-0.141802,-4.03912,28,-0.00645907,10,0.000572753,-2.39371,-0.0193503,-3.04906,414.486,-0.141802,
2,1,0,1,1,54392.5,-0.12854,-0.129045,0.936313,28,-0.00648264,10,-0.000120826,-3.02858,0.0377598,1.56251,368.652,-0.129045,
2,1,0,1,1,54392.5,-0.115736,-0.11625,5.4409,28,-0.00643059,10,-0.000632505,-2.26433,0.0347809,1.69633,337.009,-0.11625,
2,1,0,1,1,54392.5,-0.102932,-0.103439,9.5767,28,-0.00630962,10,-0.000990607,-2.01878,0.0695289,0.848568,311.118,-0.103439,
2,1,0,1,1,54392.5,-0.0901362,-0.090584,13.402,28,-0.00612491,10,-0.00121401,-1.87283,0.106481,0.554089,287.353,-0.090584,
2,1,0,1,1,54392.5,-0.0773322,-0.0777541,16.9506,28,-0.00588128,10,-0.00131798,-1.77081,0.146904,0.401623,264.211,-0.0777541,
2,1,0,1,1,54392.5,-0.0645393,-0.0649327,20.2056,28,-0.00558336,10,-0.00131201,-1.69453,0.189583,0.311209,244.473,-0.0649327,
2,1,0,1,1,54392.6,-0.0517325,-0.0521485,23.2165,28,-0.00523532,10,-0.0012107,-1.6342,0.236794,0.249161,225.081,-0.0521485,
2,1,0,1,1,54392.6,-0.0389369,-0.039361,25.9564,28,-0.00484126,10,-0.00102167,-1.58576,0.29081,0.202882,205.159,-0.039361,
2,1,0,1,1,54392.6,-0.0261357,-0.0265927,28.4451,28,-0.0044053,10,-0.000756431,-1.54599,0.354259,0.166545,184.651,-0.0265927,
2,1,0,1,1,54392.6,-0.01334,-0.0137427,30.6696,28,-0.00393168,10,-0.000421481,-1.51329,0.433059,0.13624,162.879,-0.0137427,
2,1,0,1,1,54392.6,-0.000774628,-0.00123038,32.6089,28,-0.00343441,10,-4.01213e-05,-1.48666, , , ,-0.00123038,
2,1,0,0,1,54392.6,-0.000125413,-0.000573459,32.7243,28,-0.00340829,10,-1.8766e-05,-1.48513, , , ,-0.000573459,