File: Figure_codes/Fig_3-5/rawdata_trumpetplot_data/after 10th/20221101_1-115_003_TrumpetPlot_ParaChange_from10_every3_14_CV_C01_8.csv
mode,ox/red,error,control changes,counter inc.,time/s,control/V,Ewe/V,<I>/mA,cycle number,(Q-Qo)/C,I Range,P/W,log(|I|),Tafel slope mV/dec,alpha_eff,dI/d(E-IR),E-IR/V,
2,1,0,1,0,16960.2,2.44065e-05,-0.000115363,43.8511,9,0.0000000E+000,10,-5.05879e-06,-1.35802, , , ,-0.000115363,
2,1,0,1,0,16960.2,0.0133084,0.0129276,47.8361,9,0.000605544,10,0.000618408,-1.32024,0.497437,0.118608,220.567,0.0129276,
2,1,0,1,0,16960.2,0.0273414,0.0269727,50.4043,9,0.00129462,10,0.00135954,-1.29753,0.72908,0.0809239,158.812,0.02697272,
2,1,0,1,0,16960.2,0.0413245,0.0409351,52.3282,9,0.00201451,10,0.00214206,-1.28126,0.971053,0.0607588,123.946,0.0409351,
2,1,0,1,0,16960.2,0.0553076,0.0549219,53.9785,9,0.00275877,10,0.0029646,-1.26778,1.0451,0.056454,118.935,0.0549219,
2,1,0,1,0,16960.2,0.0693407,0.0689425,55.6038,9,0.00352604,10,0.00383347,-1.2549,1.0858,0.0543378,117.866,0.0689425,
2,1,0,1,0,16960.2,0.0833238,0.0829007,57.35,9,0.00431616,10,0.00475435,-1.24147,0.94396,0.0625027,139.924,0.0829007,
2,1,0,1,0,16960.2,0.0973069,0.0969755,59.3956,9,0.00513344,10,0.00575992,-1.22625,0.874278,0.0674843,156.597,0.0969755,
2,1,0,1,0,16960.3,0.11134,0.11097,61.7349,9,0.00598125,10,0.0068507,-1.20947,0.810706,0.0727761,175.374,0.11097,
2,1,0,1,0,16960.3,0.125323,0.124957,64.2814,9,0.00686329,10,0.00803245,-1.19191,0.770101,0.0766133,192.3,0.124957,
2,1,0,1,0,16960.3,0.139306,0.138965,67.1184,9,0.00778295,10,0.00932714,-1.17316,0.707037,0.0834469,218.813,0.138965,
2,1,0,1,0,16960.3,0.153339,0.152966,70.3659,9,0.00874532,10,0.0107636,-1.15264,0.681791,0.0865367,237.698,0.152966,
2,1,0,1,0,16960.3,0.167322,0.166943,73.7729,9,0.00975464,10,0.0123159,-1.1321,0.699226,0.084379,242.828,0.166943,
2,1,0,1,0,16960.3,0.181305,0.180946,77.0117,9,0.0108111,10,0.013935,-1.11344,0.827284,0.0713177,214.106,0.180946,
2,1,0,1,0,16960.3,0.195338,0.194989,79.6291,9,0.0119091,10,0.0155268,-1.09893,1.33073,0.0443365,137.367,0.194989,
2,1,0,1,0,16960.4,0.209322,0.209002,80.7542,9,0.0130339,10,0.0168778,-1.09283,80.0821,0.000736744,2.31025,0.209002,
2,1,0,1,0,16960.4,0.223305,0.222994,79.4812,9,0.0141586,10,0.0177238,-1.09974,-0.971999,-0.0606997,-187.229,0.222994,
2,1,0,1,0,16960.4,0.237338,0.236996,75.473,9,0.0152461,10,0.0178868,-1.12221,-0.457127,-0.129067,-378.126,0.236996,
2,1,0,1,0,16960.4,0.251321,0.251034,69.2038,9,0.01626,10,0.0173725,-1.15987,-0.324135,-0.182023,-490.047,0.251034,
2,1,0,1,0,16960.4,0.265304,0.265016,62.0638,9,0.0171783,10,0.0164479,-1.20716,-0.286145,-0.206189,-499.571,0.265016,
2,1,0,1,0,16960.4,0.279337,0.278985,55.3768,9,0.0179989,10,0.0154493,-1.25667,-0.285558,-0.206613,-447.42,0.278985,
2,1,0,1,0,16960.4,0.29332,0.293044,49.7455,9,0.0187327,10,0.0145776,-1.30325,-0.31635,-0.186502,-364.908,0.293044,
2,1,0,1,0,16960.5,0.298714,0.298699,43.7314,9,0.019116,10,0.0130625,-1.35921,0.0330578,1.78476,2540.27,0.298699,
2,1,0,1,0,16960.5,0.28473,0.284566,18.4464,9,0.0195267,10,0.00524921,-1.73409,0.031873,1.8511,1306.5,0.284566,
2,1,0,1,0,16960.5,0.270747,0.270505,4.38099,9,0.0196774,10,0.00118508,-2.35843,0.0165259,3.57016,798.93,0.270505,
2,0,0,1,0,16960.5,0.256714,0.256469,-4.65292,9,0.0196702,10,-0.00119333,-2.33227,-0.00668978,-8.81943,525.804,0.256469,
2,0,0,1,0,16960.5,0.242731,0.242452,-10.7478,9,0.0195593,10,-0.00260583,-1.96868,-0.0639007,-0.923308,367.276,0.242452,
2,0,0,1,0,16960.5,0.228748,0.228476,-15.1188,9,0.0193762,10,-0.0034543,-1.82048,-0.126228,-0.467409,271.111,0.228476,
2,0,0,1,0,16960.5,0.214715,0.214401,-18.46,9,0.0191396,10,-0.00395784,-1.73377,-0.201712,-0.292496,208.859,0.214401,
2,0,0,1,0,16960.5,0.200732,0.200423,-21.0987,9,0.0188619,10,-0.00422867,-1.67575,-0.274436,-0.214986,176.282,0.200423,
2,0,0,1,0,16960.6,0.186735,0.186453,-23.3936,9,0.01855,10,-0.0043618,-1.6309,-0.33608,-0.175553,160.103,0.186453,
2,0,0,1,0,16960.6,0.172716,0.172422,-25.6166,9,0.0182065,10,-0.00441687,-1.59148,-0.371707,-0.158727,158.677,0.1724223,
2,0,0,1,0,16960.6,0.158733,0.158451,-27.9859,9,0.0178317,10,-0.0044344,-1.55306,-0.342841,-0.172091,188.437,0.158451,
2,0,0,1,0,16960.6,0.144719,0.144442,-31.0225,9,0.0174196,10,-0.00448097,-1.50832,-0.280775,-0.210133,255.597,0.144442,
2,0,0,1,0,16960.6,0.130717,0.130396,-35.2151,9,0.0169569,10,-0.00459192,-1.45327,-0.231968,-0.254345,351.251,0.130396,
2,0,0,1,0,16960.6,0.116733,0.116469,-40.8775,9,0.0164255,10,-0.00476096,-1.38852,-0.208804,-0.282562,451.394,0.1164689,
2,0,0,1,0,16960.6,0.102703,0.102479,-47.6584,9,0.0158063,10,-0.00488398,-1.32186,-0.222271,-0.265442,492.042,0.102479,
2,0,0,1,0,16960.7,0.0887173,0.0884689,-54.3722,9,0.015091,10,-0.00481024,-1.26462,-0.275106,-0.214463,452.881,0.0884689,
2,0,0,1,0,16960.7,0.0747342,0.0745712,-60.3063,9,0.014287,10,-0.00449711,-1.21964,-0.351373,-0.167913,393.649,0.0745712,
2,0,0,1,0,16960.7,0.0607011,0.0605123,-65.2738,9,0.0134063,10,-0.00394987,-1.18526,-0.491323,-0.120084,304.522,0.0605123,
2,0,0,1,0,16960.7,0.046718,0.046481,-68.8142,9,0.012466,10,-0.00319855,-1.16232,-0.775143,-0.0761149,203.64,0.046481,
2,0,0,1,0,16960.7,0.0327349,0.032455,-70.9398,9,0.0114859,10,-0.00230235,-1.14911,-1.52724,-0.0386317,106.663,0.03245502,
2,0,0,1,0,16960.7,0.0187018,0.0183877,-71.9803,9,0.0104848,10,-0.00132355,-1.14279,-3.8102,-0.0154847,43.3986,0.01838767,
2,0,0,1,0,16960.7,0.00471873,0.00441469,-72.1744,9,0.00947499,10,-0.000318628,-1.14162,45.307,0.00130223,-3.66519,0.00441469,
2,0,0,1,0,16960.8,-0.00926438,-0.009606,-71.8556,9,0.00846583,10,0.000690245,-1.14354,3.48479,0.0169307,-47.4207,-0.009606,
2,0,0,1,0,16960.8,-0.0232974,-0.0236214,-70.9898,9,0.00746558,10,0.00167688,-1.1488,1.90727,0.0309342,-85.5161,-0.0236214,
2,0,0,1,0,16960.8,-0.0372805,-0.0376485,-69.4078,9,0.00648237,10,0.0026131,-1.15859,1.22996,0.0479691,-129.795,-0.0376485,
2,0,0,1,0,16960.8,-0.0512637,-0.0516554,-67.3951,9,0.00552458,10,0.00348132,-1.17137,1.03406,0.0570567,-150.042,-0.0516554,
2,0,0,1,0,16960.8,-0.0652967,-0.0656549,-65.3881,9,0.00459572,10,0.00429305,-1.1845,1.10694,0.0533002,-136.018,-0.0656549,
2,0,0,1,0,16960.8,-0.0792798,-0.079665,-63.6127,9,0.00369346,10,0.0050677,-1.19646,1.36643,0.0431781,-107.353,-0.079665,
2,0,0,1,0,16960.8,-0.0932629,-0.0935849,-62.391,9,0.00281218,10,0.00583886,-1.20488,2.15043,0.0274364,-66.9055,-0.09358494,
2,0,0,1,0,16960.9,-0.107296,-0.107622,-61.7866,9,0.00194384,10,0.00664957,-1.20911,5.34187,0.0110448,-26.6458,-0.107622,
2,0,0,1,0,16960.9,-0.121279,-0.121605,-61.5819,9,0.00108094,10,0.00748868,-1.21055,-130.851,-0.000450894,1.08478,-0.121605,
2,0,0,1,0,16960.9,-0.135262,-0.135612,-61.7725,9,0.000217786,10,0.0083771,-1.2092,-5.47065,-0.0107848,26.0296,-0.135612,
2,0,0,1,0,16960.9,-0.149295,-0.149636,-62.3543,9,-0.000650917,10,0.00933044,-1.20513,-3.11243,-0.0189563,46.1322,-0.149636,
2,0,0,1,0,16960.9,-0.163278,-0.163622,-63.0572,9,-0.00152864,10,0.0103175,-1.20027,-2.5827,-0.0228443,56.2339,-0.163622,
2,0,0,1,0,16960.9,-0.177261,-0.177594,-63.891,9,-0.00241726,10,0.0113466,-1.19456,-2.29986,-0.0256537,63.9859,-0.177594,
2,0,0,1,0,16960.9,-0.191295,-0.191622,-64.8873,9,-0.00331866,10,0.0124338,-1.18784,-2.07676,-0.0284097,71.9106,-0.191622,
2,0,0,0,1,16961,-0.199984,-0.20057,-65.1556,9,-0.0039249,10,0.0130683,-1.18605,-0.0350938,-1.68121,3716.34,-0.2005704,
2,0,0,1,1,16961,-0.186686,-0.187154,-39.3716,9,-0.00458241,10,0.00736857,-1.40482,-0.0633719,-0.931013,1444.46,-0.187154,
2,0,0,1,1,16961,-0.172667,-0.173105,-22.897,9,-0.00500999,10,0.00396358,-1.64022,-0.0515415,-1.14471,1008.02,-0.173105,
2,0,0,1,1,16961,-0.158684,-0.15913,-10.4829,9,-0.00523891,10,0.00166814,-1.97952,-0.0273725,-2.15545,796.22,-0.15913,
2,0,0,1,1,16961,-0.14467,-0.145126,-0.364584,9,-0.0053119,10,5.29106e-05,-3.4382,-0.14845,-0.397441,662.651,-0.145126,
2,1,0,1,1,16961,-0.130668,-0.131139,8.10075,9,-0.00525532,10,-0.00106233,-2.09147,0.0285273,2.0682,563.141,-0.131139,
2,1,0,1,1,16961,-0.116685,-0.117173,15.4362,9,-0.00508885,10,-0.0018087,-1.81146,0.0700373,0.842408,491.194,-0.117173,
2,1,0,1,1,16961,-0.102654,-0.103073,21.9627,9,-0.00482593,10,-0.00226377,-1.65831,0.114539,0.515107,434.19,-0.103073,
2,1,0,1,1,16961.1,-0.0886685,-0.0891015,27.6082,9,-0.00447765,10,-0.00245993,-1.55896,0.165134,0.357285,382.003,-0.0891015,
2,1,0,1,1,16961.1,-0.0746854,-0.0750936,32.6459,9,-0.00405463,10,-0.0024515,-1.48617,0.219775,0.268456,340.386,-0.07509356,
2,1,0,1,1,16961.1,-0.0606523,-0.06104,37.2139,9,-0.00356491,10,-0.00227154,-1.42929,0.281719,0.209428,302.591,-0.06104,
2,1,0,1,1,16961.1,-0.0466692,-0.0470543,41.1514,9,-0.00301557,10,-0.00193635,-1.38562,0.356828,0.165346,264.691,-0.0470543,
2,1,0,1,1,16961.1,-0.0326861,-0.0330802,44.5886,9,-0.00241449,10,-0.001475,-1.35078,0.447507,0.131842,228.915,-0.0330802,
2,1,0,1,1,16961.1,-0.018653,-0.0190786,47.611,9,-0.00176842,10,-0.000908352,-1.32229,0.558291,0.10568,195.825,-0.01907862,
2,1,0,1,1,16961.1,-0.00466992,-0.00506534,50.0762,9,-0.00108386,10,-0.000253653,-1.30037, , , ,-0.00506534,
2,1,0,0,1,16961.2,-0.000175352,-0.000516197,50.7463,9,-0.000856938,10,-2.61951e-05,-1.2946, , , ,-0.000516197,