File: Figure_codes/Fig_3-5/rawdata_trumpetplot_data/after 10th/20221101_1-115_003_TrumpetPlot_ParaChange_from10_every3_08_CV_C01_7.csv
mode,ox/red,error,control changes,counter inc.,time/s,control/V,Ewe/V,<I>/mA,cycle number,(Q-Qo)/C,I Range,P/W,log(|I|),Tafel slope mV/dec,alpha_eff,dI/d(E-IR),E-IR/V,
2,0,0,0,0,14965.9,2.44065e-05,-0.000248974,-4.01481,8,0.0000000E+000,10,9.99583e-07,-2.39634, , , ,-0.000248974,
2,1,0,1,0,14966,0.0072942,0.00699603,1.63474,8,-1.88621e-05,10,1.14367e-05,-2.78655,0.0122492,4.81662,276.293,0.00699603,
2,1,0,1,0,14966.1,0.0147816,0.0144953,2.78581,8,0.000199101,10,4.03812e-05,-2.55505,0.0688819,0.856539,92.2786,0.0144953,
2,1,0,1,0,14966.2,0.0222707,0.0219826,3.29445,8,0.000486446,10,7.24207e-05,-2.48222,0.126821,0.465223,59.7214,0.0219826,
2,1,0,1,0,14966.3,0.0297581,0.0294376,3.67651,8,0.000814173,10,0.000108228,-2.43456,0.179365,0.328938,47.1067,0.0294376,
2,1,0,1,0,14966.4,0.0372544,0.0369479,4.03692,8,0.00117655,10,0.000149156,-2.39395,0.203406,0.29006,45.6274,0.0369479,
2,1,0,1,0,14966.5,0.0447507,0.0444334,4.37345,8,0.00157199,10,0.000194327,-2.35918,0.210751,0.279951,47.8443,0.0444334,
2,1,0,1,0,14966.6,0.0522381,0.0519545,4.70932,8,0.00199876,10,0.000244671,-2.32704,0.250193,0.235818,43.3881,0.0519545,
2,1,0,1,0,14966.7,0.0597273,0.0593999,5.03664,8,0.00245616,10,0.000299176,-2.29786,0.280481,0.210353,41.2719,0.0593999,
2,1,0,1,0,14966.8,0.0672147,0.0669026,5.33176,8,0.0029421,10,0.000356708,-2.27313,0.287604,0.205143,42.6166,0.0669026,
2,1,0,1,0,14966.9,0.0747038,0.0744111,5.59041,8,0.00345458,10,0.000415988,-2.25256,0.404643,0.145807,31.8133,0.0744111,
2,1,0,1,0,14967,0.0822055,0.0819066,5.83604,8,0.00399187,10,0.00047801,-2.23388,0.482228,0.122349,27.8348,0.0819066,
2,1,0,1,0,14967.1,0.0896946,0.0893571,6.05968,8,0.00454918,10,0.000541476,-2.21755,0.402869,0.14645,34.636,0.0893571,
2,1,0,1,0,14967.1,0.097182,0.0968336,6.34287,8,0.00513044,10,0.000614203,-2.19771,0.324039,0.182077,45.1396,0.0968336,
2,1,0,1,0,14967.2,0.104671,0.104336,6.78074,8,0.00574417,10,0.000707473,-2.16872,0.230919,0.255501,67.5718,0.104336,
2,1,0,1,0,14967.3,0.112159,0.111829,7.3257,8,0.00640444,10,0.000819228,-2.13515,0.220941,0.26704,76.2646,0.111829,
2,1,0,1,0,14967.4,0.119655,0.119349,7.85983,8,0.0071174,10,0.000938064,-2.10459,0.288284,0.20466,62.7143,0.119349,
2,1,0,1,0,14967.5,0.127149,0.126831,8.26027,8,0.00787493,10,0.00104766,-2.08301,0.425496,0.138662,44.695,0.126831,
2,1,0,1,0,14967.6,0.134639,0.134339,8.57169,8,0.00866448,10,0.00115152,-2.06693,0.555174,0.106273,35.5293,0.134339,
2,1,0,1,0,14967.7,0.142126,0.141822,8.75195,8,0.00947804,10,0.00124122,-2.0579,2.08029,0.0283615,9.67728,0.141822,
2,1,0,1,0,14967.8,0.149615,0.149283,8.50587,8,0.0102928,10,0.00126978,-2.07028,-0.225822,-0.261268,-86.4024,0.149283,
2,1,0,1,0,14967.9,0.157103,0.156769,7.44062,8,0.0110461,10,0.00116646,-2.12839,-0.0917502,-0.64305,-186.018,0.156769,
2,1,0,1,0,14968,0.164606,0.164307,5.96002,8,0.0116748,10,0.000979274,-2.22475,-0.07763,-0.760015,-177.225,0.164307,
2,1,0,1,0,14968.1,0.172095,0.171786,4.90787,8,0.0121804,10,0.000843104,-2.30911,-0.10175,-0.579852,-111.417,0.171786,
2,1,0,1,0,14968.2,0.179582,0.179201,4.30676,8,0.0126101,10,0.000771776,-2.36585,-0.169061,-0.348987,-58.8021,0.179201,
2,1,0,1,0,14968.3,0.18707,0.186713,3.94041,8,0.0129959,10,0.000735728,-2.40446,-0.267157,-0.220844,-34.0203,0.186713,
2,1,0,1,0,14968.4,0.194559,0.194264,3.71344,8,0.0133545,10,0.000721388,-2.43022,-0.316843,-0.186212,-26.9908,0.194264,
2,1,0,1,0,14968.5,0.202062,0.201766,3.55984,8,0.013696,10,0.000718255,-2.44857,-0.495092,-0.11917,-16.5108,0.201766,
2,1,0,1,0,14968.6,0.20955,0.209258,3.44564,8,0.0140245,10,0.000721028,-2.46273,-0.581964,-0.101381,-13.6434,0.209258,
2,1,0,1,0,14968.6,0.217039,0.216743,3.35764,8,0.014344,10,0.000727744,-2.47397,-0.711782,-0.0828906,-10.8897,0.216743,
2,1,0,1,0,14968.7,0.224526,0.224239,3.30354,8,0.0146569,10,0.000740784,-2.48102,-1.09808,-0.05373,-6.92115,0.224239,
2,1,0,1,0,14968.8,0.232016,0.231705,3.252,8,0.0149646,10,0.000753505,-2.48785,-2.62821,-0.0224488,-2.84971,0.2317052,
2,1,0,1,0,14968.9,0.23951,0.239192,3.21366,8,0.0152686,10,0.000768681,-2.493,-1.38078,-0.0427295,-5.35906,0.239192,
2,1,0,1,0,14969,0.247006,0.246747,3.18551,8,0.0155692,10,0.000786013,-2.49682,-1.36875,-0.043105,-5.34392,0.246747,
2,1,0,1,0,14969.1,0.254494,0.254191,3.14519,8,0.0158664,10,0.000799481,-2.50235,-2.40468,-0.0245355,-3.01411,0.254191,
2,1,0,1,0,14969.2,0.261983,0.261674,3.11768,8,0.0161609,10,0.000815817,-2.50617,-1.30102,-0.0453491,-5.52687,0.261674,
2,1,0,1,0,14969.3,0.26947,0.269164,3.09743,8,0.0164529,10,0.000833715,-2.509,-1.26915,-0.046488,-5.61867,0.269164,
2,1,0,1,0,14969.4,0.276959,0.276695,3.06986,8,0.0167425,10,0.000849417,-2.51288,-7.38896,-0.00798489,-0.956862,0.2766954,
2,1,0,1,0,14969.5,0.284461,0.284195,3.03761,8,0.0170301,10,0.000863271,-2.51747,-3.17125,-0.0186047,-2.20635,0.284195,
2,1,0,1,0,14969.6,0.29195,0.291686,3.0105,8,0.0173143,10,0.000878121,-2.52136,-1.04534,-0.0564409,-6.62703,0.291686,
2,1,0,1,0,14969.7,0.299438,0.299158,2.98257,8,0.017596,10,0.00089226,-2.52541,-0.0228917,-2.57735,-268.324,0.299158,
2,0,0,1,0,14969.8,0.29424,0.29391,-0.715323,8,0.0176385,10,-0.00021024,-3.1455,-0.00873143,-6.7572,151.253,0.29391,
2,0,0,1,0,14969.8,0.286753,0.286435,-1.24189,8,0.0175408,10,-0.000355722,-2.90592,-0.0674383,-0.874874,42.1277,0.286435,
2,0,0,1,0,14969.9,0.279264,0.278935,-1.47444,8,0.0174119,10,-0.000411275,-2.83137,-0.125893,-0.468651,26.9508,0.278935,
2,0,0,1,0,14970,0.271776,0.271423,-1.63746,8,0.0172646,10,-0.000444443,-2.78583,-0.182217,-0.32379,20.7364,0.271423,
2,0,0,1,0,14970.1,0.26428,0.263977,-1.78487,8,0.0171031,10,-0.000471165,-2.74839,-0.225327,-0.261841,18.157,0.263977,
2,0,0,1,0,14970.2,0.256786,0.256498,-1.89471,8,0.0169301,10,-0.000485988,-2.72246,-0.272428,-0.216571,15.9822,0.256498,
2,0,0,1,0,14970.3,0.249296,0.248983,-1.99032,8,0.0167471,10,-0.000495554,-2.70108,-0.464628,-0.126983,9.88902,0.248983,
2,0,0,1,0,14970.4,0.241809,0.24151,-2.08522,8,0.0165551,10,-0.000503601,-2.68085,-0.423283,-0.139387,11.3515,0.24151,
2,0,0,1,0,14970.5,0.23432,0.234004,-2.16691,8,0.0163548,10,-0.000507065,-2.66416,-0.384719,-0.153359,13.0262,0.234004,
2,0,0,1,0,14970.6,0.226833,0.22654,-2.25261,8,0.0161465,10,-0.000510308,-2.64731,-0.468658,-0.125891,11.0782,0.22654,
2,0,0,1,0,14970.7,0.219329,0.219054,-2.3481,8,0.0159299,10,-0.000514359,-2.62928,-0.509693,-0.115756,10.5642,0.219054,
2,0,0,1,0,14970.8,0.21184,0.211521,-2.42057,8,0.0157062,10,-0.000512002,-2.61608,-0.449632,-0.131218,12.3922,0.211521,
2,0,0,1,0,14970.9,0.204353,0.204044,-2.50306,8,0.0154746,10,-0.000510735,-2.60153,-0.667358,-0.0884083,8.65866,0.204044,
2,0,0,1,0,14971,0.196863,0.196551,-2.60173,8,0.0152349,10,-0.000511373,-2.58474,-0.481586,-0.122512,12.4041,0.196551,
2,0,0,1,0,14971.1,0.189376,0.189067,-2.69615,8,0.0149864,10,-0.000509753,-2.56926,-0.402754,-0.146492,15.4232,0.189067,
2,0,0,1,0,14971.2,0.18188,0.181571,-2.81093,8,0.0147274,10,-0.000510383,-2.55115,-0.351165,-0.168012,18.4597,0.181571,
2,0,0,1,0,14971.3,0.174385,0.174042,-2.96305,8,0.0144563,10,-0.000515697,-2.52826,-0.306261,-0.192646,22.2414,0.174042,
2,0,0,1,0,14971.3,0.166896,0.166545,-3.15733,8,0.0141699,10,-0.000525837,-2.50068,-0.224054,-0.263329,32.3732,0.166545,
2,0,0,1,0,14971.4,0.159409,0.15909,-3.42569,8,0.013862,10,-0.000544993,-2.46525,-0.186899,-0.315679,42.2312,0.15909,
2,0,0,1,0,14971.5,0.151919,0.151592,-3.8393,8,0.0135227,10,-0.000582005,-2.41575,-0.134752,-0.437842,65.7213,0.151592,
2,0,0,1,0,14971.6,0.144425,0.144109,-4.50183,8,0.0131336,10,-0.000648755,-2.34661,-0.092554,-0.637465,112.181,0.1441094,
2,0,0,1,0,14971.7,0.136929,0.136611,-5.46913,8,0.0126675,10,-0.00074714,-2.26208,-0.0846215,-0.697222,149.025,0.136611,
2,0,0,1,0,14971.8,0.129441,0.129074,-6.63213,8,0.0121005,10,-0.000856034,-2.17835,-0.0982534,-0.600488,155.047,0.129074,
2,0,0,1,0,14971.9,0.121952,0.121621,-7.67938,8,0.0114282,10,-0.000933972,-2.11467,-0.146393,-0.403025,120.409,0.121621,
2,0,0,1,0,14972,0.114465,0.114125,-8.41263,8,0.0106715,10,-0.000960091,-2.07507,-0.249587,-0.236391,77.5692,0.114125,
2,0,0,1,0,14972.1,0.106976,0.10664,-8.83169,8,0.00986058,10,-0.000941811,-2.05396,-0.688643,-0.0856757,29.4924,0.10664,
2,0,0,1,0,14972.2,0.0994721,0.0991264,-8.90337,8,0.00902508,10,-0.000882559,-2.05045,1.99553,0.0295661,-10.2599,0.0991264,
2,0,0,1,0,14972.3,0.0919847,0.0916861,-8.64842,8,0.00820035,10,-0.00079294,-2.06306,0.40481,0.145747,-49.1792,0.0916861,
2,0,0,1,0,14972.4,0.0844973,0.0841701,-8.19705,8,0.00741023,10,-0.000689947,-2.08634,0.294277,0.200492,-64.1645,0.0841701,
2,0,0,1,0,14972.5,0.0770082,0.0766944,-7.77646,8,0.0066631,10,-0.000596411,-2.10922,0.371565,0.158788,-48.1754,0.0766944,
2,0,0,1,0,14972.6,0.0695208,0.0691985,-7.46736,8,0.00594968,10,-0.000516731,-2.12683,0.564322,0.10455,-30.5174,0.0691985,
2,0,0,1,0,14972.7,0.0620245,0.0616956,-7.26681,8,0.00525855,10,-0.00044833,-2.13866,0.57394,0.102798,-29.1461,0.0616956,
2,0,0,1,0,14972.7,0.0545282,0.0542065,-7.08212,8,0.00458575,10,-0.000383897,-2.14984,0.712993,0.0827498,-22.8574,0.0542065,
2,0,0,1,0,14972.8,0.0470408,0.046714,-6.87663,8,0.00393145,10,-0.000321235,-2.16262,0.674446,0.0874791,-23.487,0.046714,
2,0,0,1,0,14972.9,0.0395517,0.0392512,-6.67609,8,0.00329599,10,-0.000262045,-2.17548,0.483763,0.121961,-31.7599,0.0392512,
2,0,0,1,0,14973,0.0320643,0.0317114,-6.43765,8,0.00268152,10,-0.000204147,-2.19127,0.398467,0.148068,-37.1402,0.0317114,
2,0,0,1,0,14973.1,0.0245751,0.0242523,-6.15005,8,0.0020915,10,-0.000149153,-2.21112,0.387624,0.15221,-36.5642,0.0242523,
2,0,0,1,0,14973.2,0.0170735,0.0167214,-5.8717,8,0.00152665,10,-9.81827e-05,-2.23124,0.364141,0.162025,-37.1673,0.0167214,
2,0,0,1,0,14973.3,0.00958429,0.0092756,-5.63966,8,0.000987293,10,-5.23112e-05,-2.24875,0.478739,0.12324,-27.125,0.0092756,
2,0,0,1,0,14973.4,0.0020969,0.00172418,-5.5191,8,0.000467126,10,-9.51591e-06,-2.25813,1.29668,0.0455007,-9.73251,0.001724177,
2,0,0,1,0,14973.4,0.000199195,-0.000216526,-5.46121,8,0.000336872,10,1.18249e-06,-2.26271, , , ,-0.000216526,