File: Figure_codes/Fig_3-5/rawdata_trumpetplot_data/after 10th/20221101_1-115_003_TrumpetPlot_ParaChange_from10_every3_10_CV_C01_27.csv
mode,ox/red,error,control changes,counter inc.,time/s,control/V,Ewe/V,<I>/mA,cycle number,(Q-Qo)/C,I Range,P/W,log(|I|),Tafel slope mV/dec,alpha_eff,dI/d(E-IR),E-IR/V,
2,1,0,0,0,54384,-2.44065e-05,-0.000439847,5.10462,28,0.0000000E+000,10,-2.24525e-06,-2.29204, , , ,-0.000439847,
2,1,0,1,0,54384.1,0.00977853,0.00941181,7.45571,28,0.000318756,10,7.01718e-05,-2.12751,0.121081,0.487276,141.231,0.00941181,
2,1,0,1,0,54384.1,0.0197755,0.0193901,8.52492,28,0.000720722,10,0.000165299,-2.06931,0.236561,0.249407,82.9906,0.01939014,
2,1,0,1,0,54384.2,0.0297726,0.0294318,9.24748,28,0.00116609,10,0.00027217,-2.03398,0.339674,0.173696,62.6285,0.0294318,
2,1,0,1,0,54384.2,0.0397514,0.039393,9.83378,28,0.00164255,10,0.000387382,-2.00728,0.37647,0.156719,60.1945,0.039393,
2,1,0,1,0,54384.3,0.0497393,0.0493885,10.4206,28,0.00214794,10,0.000514657,-1.98211,0.409401,0.144113,58.5535,0.0493885,
2,1,0,1,0,54384.3,0.0597364,0.059372,11.0005,28,0.00268339,10,0.000653124,-1.95859,0.411164,0.143495,61.627,0.059372,
2,1,0,1,0,54384.4,0.0697152,0.0693712,11.6203,28,0.00324786,10,0.000806113,-1.93478,0.454397,0.129842,58.8809,0.0693712,
2,1,0,1,0,54384.4,0.0796941,0.0793287,12.2298,28,0.00384314,10,0.00097017,-1.91258,0.473451,0.124617,59.4769,0.0793287,
2,1,0,1,0,54384.5,0.0896911,0.0892783,12.8177,28,0.00446948,10,0.00114435,-1.89219,0.513686,0.114856,57.4696,0.0892783,
2,1,0,1,0,54384.5,0.099679,0.09932,13.3841,28,0.00512339,10,0.00132931,-1.87341,0.549654,0.10734,56.048,0.09932,
2,1,0,1,0,54384.6,0.109658,0.109286,13.9906,28,0.00580573,10,0.00152898,-1.85416,0.465505,0.126744,69.2254,0.1092862,
2,1,0,1,0,54384.6,0.119655,0.119324,14.778,28,0.00652427,10,0.00176337,-1.83038,0.400097,0.147464,85.0823,0.119324,
2,1,0,1,0,54384.7,0.129652,0.129312,15.6859,28,0.0072858,10,0.00202838,-1.80449,0.391249,0.150799,92.2877,0.129312,
2,1,0,1,0,54384.7,0.139631,0.139217,16.5339,28,0.00809069,10,0.0023018,-1.78163,0.494902,0.119215,76.9406,0.139217,
2,1,0,1,0,54384.8,0.149619,0.149282,17.1938,28,0.00893324,10,0.00256672,-1.76463,0.790719,0.0746156,49.9973,0.149282,
2,1,0,1,0,54384.8,0.159616,0.159298,17.3749,28,0.00980008,10,0.00276778,-1.76008,-2.10208,-0.0280675,-19.0235,0.159298,
2,1,0,1,0,54384.9,0.169595,0.169165,16.7344,28,0.010655,10,0.00283087,-1.77639,-0.338357,-0.174372,-113.696,0.169165,
2,1,0,1,0,54384.9,0.179573,0.179203,15.1776,28,0.0114537,10,0.00271987,-1.8188,-0.191966,-0.307345,-181.984,0.179203,
2,1,0,1,0,54385,0.18957,0.189192,13.3057,28,0.0121654,10,0.00251732,-1.87596,-0.168901,-0.349317,-181.35,0.189192,
2,1,0,1,0,54385,0.199558,0.19921,11.7106,28,0.0127875,10,0.00233287,-1.93142,-0.200747,-0.293903,-134.356,0.19921,
2,1,0,1,0,54385.1,0.209537,0.209204,10.5485,28,0.0133408,10,0.00220679,-1.97681,-0.239986,-0.245848,-101.193,0.209204,
2,1,0,1,0,54385.1,0.219534,0.21922,9.69855,28,0.0138456,10,0.00212612,-2.01329,-0.325907,-0.181033,-68.5846,0.21922,
2,1,0,1,0,54385.2,0.229531,0.229178,9.08908,28,0.0143147,10,0.00208302,-2.04148,-0.39566,-0.149118,-52.9301,0.229178,
2,1,0,1,0,54385.2,0.23951,0.23917,8.64126,28,0.0147567,10,0.00206673,-2.06342,-0.511061,-0.115446,-38.9697,0.23917,
2,1,0,1,0,54385.3,0.249498,0.249155,8.30024,28,0.0151789,10,0.00206805,-2.08091,-0.638588,-0.0923914,-29.9133,0.249155,
2,1,0,1,0,54385.3,0.259495,0.259175,8.01896,28,0.0155866,10,0.00207831,-2.09588,-0.672197,-0.0877719,-27.4838,0.259175,
2,1,0,1,0,54385.4,0.269474,0.26913,7.80296,28,0.0159812,10,0.00210001,-2.10774,-0.898179,-0.0656885,-20.0047,0.26913,
2,1,0,1,0,54385.4,0.279453,0.279079,7.61358,28,0.0163658,10,0.00212479,-2.11841,-1.03256,-0.0571393,-16.994,0.279079,
2,1,0,1,0,54385.5,0.28945,0.289131,7.45146,28,0.0167424,10,0.00215445,-2.12776,-1.43886,-0.0410047,-11.9249,0.289131,
2,1,0,1,0,54385.5,0.299438,0.299136,7.31052,28,0.0171108,10,0.00218684,-2.13605,-0.0659146,-0.895097,-246.434,0.2991364,
2,1,0,1,0,54385.6,0.291747,0.291419,1.15274,28,0.0172748,10,0.000335929,-2.93827,0.00610211,9.66879,395.059,0.291419,
2,0,0,1,0,54385.6,0.28175,0.28138,-1.37409,28,0.01726,10,-0.000386641,-2.86199,-0.0181294,-3.25438,168.706,0.28138,
2,0,0,1,0,54385.7,0.27178,0.271433,-2.61304,28,0.0171576,10,-0.000709264,-2.58285,-0.0630276,-0.936098,94.7713,0.271433,
2,0,0,1,0,54385.7,0.261783,0.261429,-3.36196,28,0.0170068,10,-0.000878916,-2.47341,-0.127777,-0.461743,60.4648,0.261429,
2,0,0,1,0,54385.8,0.251786,0.251435,-3.88789,28,0.0168248,10,-0.000977553,-2.41029,-0.198226,-0.29764,45.0804,0.251435,
2,0,0,1,0,54385.8,0.241807,0.241454,-4.29331,28,0.0166201,10,-0.00103664,-2.36721,-0.263718,-0.223724,37.5595,0.241454,
2,0,0,1,0,54385.9,0.231824,0.231431,-4.63883,28,0.0163971,10,-0.00107357,-2.33359,-0.330074,-0.178748,32.2595,0.231431,
2,0,0,1,0,54385.9,0.221822,0.221474,-4.91682,28,0.0161579,10,-0.00108895,-2.30832,-0.395834,-0.149052,28.6416,0.2214745,
2,0,0,1,0,54386,0.211843,0.211448,-5.19528,28,0.0159054,10,-0.00109853,-2.28439,-0.52188,-0.113053,22.91,0.211448,
2,0,0,1,0,54386,0.201865,0.201473,-5.4441,28,0.0156398,10,-0.00109684,-2.26407,-0.497375,-0.118623,25.2438,0.201473,
2,0,0,1,0,54386.1,0.191868,0.191503,-5.70151,28,0.0153612,10,-0.00109186,-2.24401,-0.49978,-0.118052,26.2548,0.191503,
2,0,0,1,0,54386.1,0.18188,0.18151,-5.97082,28,0.0150702,10,-0.00108376,-2.22397,-0.423984,-0.139156,32.3978,0.18151,
2,0,0,1,0,54386.2,0.171901,0.171561,-6.26458,28,0.0147653,10,-0.00107476,-2.20311,-0.458956,-0.128553,31.3916,0.171561,
2,0,0,1,0,54386.2,0.161904,0.161539,-6.62552,28,0.0144434,10,-0.00107028,-2.17878,-0.354894,-0.166247,43.0477,0.161539,
2,0,0,1,0,54386.3,0.151907,0.151514,-7.14294,28,0.0141,10,-0.00108226,-2.14612,-0.269429,-0.218982,61.0038,0.151514,
2,0,0,1,0,54386.3,0.141928,0.141562,-7.94718,28,0.0137252,10,-0.00112502,-2.09979,-0.171952,-0.343119,106.564,0.141562,
2,0,0,1,0,54386.4,0.13194,0.1316,-9.25627,28,0.0132983,10,-0.00121813,-2.03356,-0.135592,-0.43513,157.159,0.1316,
2,0,0,1,0,54386.4,0.121943,0.121634,-10.9918,28,0.0127929,10,-0.00133698,-1.95893,-0.142562,-0.413854,177.445,0.121634,
2,0,0,1,0,54386.5,0.111964,0.111587,-12.7654,28,0.0121995,10,-0.00142445,-1.89397,-0.173238,-0.340571,169.531,0.111587,
2,0,0,1,0,54386.5,0.101985,0.101633,-14.2977,28,0.0115228,10,-0.00145312,-1.84473,-0.246768,-0.239091,133.289,0.101633,
2,0,0,1,0,54386.6,0.0919883,0.091679,-15.4301,28,0.0107777,10,-0.00141461,-1.81163,-0.374896,-0.157377,94.7059,0.091679,
2,0,0,1,0,54386.6,0.0820004,0.0816579,-16.0607,28,0.00998927,10,-0.00131149,-1.79423,-1.07561,-0.0548525,34.3609,0.0816579,
2,0,0,1,0,54386.7,0.0720215,0.0716373,-16.1712,28,0.00918328,10,-0.00115846,-1.79126,3.95997,0.0148991,-9.39853,0.0716373,
2,0,0,1,0,54386.7,0.0620245,0.0616798,-15.9706,28,0.00837902,10,-0.000985063,-1.79668,1.38991,0.0424487,-26.463,0.0616798,
2,0,0,1,0,54386.8,0.0520275,0.0516277,-15.7091,28,0.00758696,10,-0.000811023,-1.80385,1.27091,0.0464235,-28.4436,0.0516277,
2,0,0,1,0,54386.8,0.0420486,0.041689,-15.4254,28,0.00680994,10,-0.00064307,-1.81176,1.27362,0.0463247,-27.9162,0.041689,
2,0,0,1,0,54386.9,0.0320607,0.0316937,-15.1284,28,0.00604732,10,-0.000479473,-1.82021,0.980703,0.0601609,-35.488,0.0316937,
2,0,0,1,0,54386.9,0.0220637,0.0217006,-14.7273,28,0.00530066,10,-0.000319592,-1.83188,0.773234,0.0763029,-43.8656,0.0217006,
2,0,0,1,0,54387,0.0120848,0.0117212,-14.2388,28,0.00457772,10,-0.000166896,-1.84653,0.578664,0.101959,-56.6157,0.01172116,
2,0,0,1,0,54387,0.00210598,0.00169012,-13.7053,28,0.00388155,10,-2.31636e-05,-1.86311,0.660624,0.0893095,-47.6869,0.00169012,
2,0,0,1,0,54387.1,-0.00789103,-0.0082483,-13.1517,28,0.00321067,10,0.000108479,-1.88102,0.62905,0.0937922,-48.1591,-0.0082483,
2,0,0,1,0,54387.1,-0.017879,-0.0183151,-12.7544,28,0.00256484,10,0.000233599,-1.89434,0.949963,0.0621077,-30.9235,-0.0183151,
2,0,0,1,0,54387.2,-0.0278578,-0.0282232,-12.5129,28,0.00193518,10,0.000353154,-1.90264,1.49521,0.0394593,-19.2697,-0.0282232,
2,0,0,1,0,54387.2,-0.0378548,-0.0382701,-12.419,28,0.00131246,10,0.000475277,-1.90591,6.26643,0.00941525,-4.56443,-0.0382701,
2,0,0,1,0,54387.3,-0.0478519,-0.0482736,-12.4602,28,0.000691003,10,0.000601496,-1.90448,-1.99641,-0.0295531,14.3648,-0.0482736,
2,0,0,1,0,54387.3,-0.0578126,-0.0581946,-12.5959,28,6.74104e-05,10,0.000733016,-1.89977,-1.63393,-0.0361093,17.7593,-0.0581946,
2,0,0,1,0,54387.4,-0.0678187,-0.0682519,-12.8373,28,-0.000567988,10,0.000876172,-1.89153,-1.04216,-0.0566133,28.3398,-0.0682519,
2,0,0,1,0,54387.4,-0.0778157,-0.078225,-13.136,28,-0.00121709,10,0.00102756,-1.88154,-0.896887,-0.0657831,33.7577,-0.078225,
2,0,0,1,0,54387.5,-0.0877945,-0.0882097,-13.5573,28,-0.00188279,10,0.00119589,-1.86783,-0.695365,-0.0848475,44.8637,-0.0882097,
2,0,0,1,0,54387.5,-0.0977734,-0.0981678,-14.0302,28,-0.00257092,10,0.00137732,-1.85293,-0.581532,-0.101456,55.6226,-0.0981678,
2,0,0,1,1,54387.6,-0.0936874,-0.0941117,-7.10197,28,-0.00304272,10,0.000668379,-2.14862,-0.0220466,-2.67615,743.237,-0.0941117,
2,0,0,1,1,54387.6,-0.0837086,-0.0841291,-1.56733,28,-0.00324592,10,0.000131858,-2.80484,-0.00757661,-7.78712,430.633,-0.0841291,
2,1,0,1,1,54387.7,-0.0737025,-0.0741621,1.98475,28,-0.00322922,10,-0.000147193,-2.70229,0.0148998,3.95978,292.105,-0.0741621,
2,1,0,1,1,54387.7,-0.0637236,-0.0641669,4.43425,28,-0.00306547,10,-0.000284532,-2.35318,0.0492501,1.19797,206.585,-0.0641669,
2,1,0,1,1,54387.8,-0.0537448,-0.0541316,6.21342,28,-0.00279726,10,-0.000336343,-2.20667,0.0973621,0.605985,146.19,-0.0541316,
2,1,0,1,1,54387.8,-0.0437477,-0.0441472,7.46116,28,-0.0024535,10,-0.000329389,-2.12719,0.162331,0.363455,105.811,-0.0441472,
2,1,0,1,1,54387.9,-0.0337507,-0.0341706,8.36096,28,-0.00205642,10,-0.000285699,-2.07774,0.259084,0.227725,74.1542,-0.0341706,
2,1,0,1,1,54387.9,-0.0237809,-0.0241715,8.95834,28,-0.00162425,10,-0.000216536,-2.04777,0.406936,0.144986,50.6883,-0.02417147,
2,1,0,1,1,54388,-0.0137839,-0.0141402,9.35224,28,-0.00116574,10,-0.000132243,-2.02908,0.772514,0.076374,27.8349,-0.0141402,
2,1,0,1,1,54388,-0.0037869,-0.00418183,9.57358,28,-0.000692053,10,-4.00351e-05,-2.01893,1.18229,0.0499033,18.6645,-0.00418183,
2,1,0,1,1,54388,-2.55332e-05,-0.000382585,9.61727,28,-0.000512341,10,-3.67943e-06,-2.01695, , , ,-0.000382585,