File: Figure_codes/Fig_3-5/rawdata_trumpetplot_data/after 10th/20221101_1-115_003_TrumpetPlot_ParaChange_from10_every3_03_CV_C01_9.csv
mode,ox/red,error,control changes,counter inc.,time/s,control/V,Ewe/V,<I>/mA,cycle number,(Q-Qo)/C,I Range,P/W,log(|I|),Tafel slope mV/dec,alpha_eff,dI/d(E-IR),E-IR/V,
2,0,0,1,0,18671.2,2.44065e-05,-0.00042076,-0.110843,10,0.0000000E+000,10,4.66381e-08,-3.95529, , , ,-0.00042076,
2,1,0,1,0,18672.6,0.00729041,0.00697545,0.211605,10,0.000272978,10,1.47604e-06,-3.67447,0.0828567,0.712073,5.7926,0.00697545,
2,1,0,1,0,18674.1,0.0147815,0.0144461,0.243135,10,0.000639448,10,3.51235e-06,-3.61415,0.135603,0.435094,4.14238,0.0144461,
2,1,0,1,0,18675.6,0.0222725,0.0219686,0.271763,10,0.00105037,10,5.97026e-06,-3.56581,0.169429,0.348228,3.68743,0.0219686,
2,1,0,1,0,18677.1,0.0297635,0.0294667,0.299205,10,0.00150225,10,8.81659e-06,-3.52403,0.208161,0.283434,3.31076,0.0294667,
2,1,0,1,0,18678.6,0.0372545,0.0368835,0.326206,10,0.00199535,10,1.20316e-05,-3.48651,0.199783,0.295321,3.76308,0.0368835,
2,1,0,1,0,18680.1,0.0447456,0.0443976,0.35193,10,0.00252843,10,1.56248e-05,-3.45354,0.267776,0.220333,3.02578,0.0443976,
2,1,0,1,0,18681.6,0.0522367,0.0518874,0.377031,10,0.00309976,10,1.95631e-05,-3.42362,0.200462,0.294321,4.3183,0.0518874,
2,1,0,1,0,18683.1,0.0597277,0.0594204,0.399578,10,0.00370786,10,2.37431e-05,-3.3984,0.367638,0.160484,2.50574,0.0594204,
2,1,0,1,0,18684.6,0.0672187,0.0669357,0.420336,10,0.00434802,10,2.81354e-05,-3.3764,0.446469,0.132148,2.16745,0.0669357,
2,1,0,1,0,18686.1,0.0747092,0.0744005,0.437482,10,0.00501597,10,3.25489e-05,-3.35904,0.438681,0.134494,2.30034,0.07440047,
2,1,0,0,0,18687.6,0.0822001,0.0819103,0.452054,10,0.00570901,10,3.70279e-05,-3.34481,0.484756,0.121711,2.15983,0.0819103,
2,1,0,1,0,18689.1,0.0896911,0.0893469,0.476475,10,0.00642994,10,4.25716e-05,-3.32196,0.276435,0.213432,3.97649,0.0893469,
2,1,0,0,0,18690.6,0.097182,0.0968397,0.511877,10,0.00719394,10,4.957e-05,-3.29083,0.180819,0.326294,6.50059,0.0968397,
2,1,0,1,0,18692.1,0.104673,0.104399,0.55774,10,0.0080183,10,5.82277e-05,-3.25357,0.220361,0.267742,5.80364,0.104399,
2,1,0,0,0,18693.6,0.112164,0.111857,0.596085,10,0.00890834,10,6.66764e-05,-3.22469,0.364132,0.162029,3.76384,0.111857,
2,1,0,1,0,18695.1,0.119655,0.119325,0.625963,10,0.00985096,10,7.46928e-05,-3.20345,0.417419,0.141345,3.45506,0.119325,
2,1,0,0,0,18696.6,0.127146,0.126813,0.651808,10,0.0108366,10,8.26579e-05,-3.18588,0.498225,0.11842,3.01822,0.126813,
2,1,0,1,0,18698.1,0.134637,0.134301,0.660726,10,0.0118537,10,8.87359e-05,-3.17998,-0.429926,-0.137233,-3.52884,0.134301,
2,1,0,1,0,18699.6,0.142127,0.141832,0.596829,10,0.0128323,10,8.46496e-05,-3.22415,-0.109152,-0.540532,-12.5247,0.141832,
2,1,0,1,0,18701.1,0.149618,0.149303,0.480923,10,0.0136656,10,7.18033e-05,-3.31792,-0.0751706,-0.784881,-14.7499,0.149303,
2,1,0,1,0,18702.6,0.157109,0.156795,0.395063,10,0.0143398,10,6.19438e-05,-3.40333,-0.103933,-0.567673,-8.75766,0.156795,
2,1,0,1,0,18704.1,0.1646,0.164275,0.3515,10,0.0149192,10,5.77426e-05,-3.45407,-0.183485,-0.321551,-4.41138,0.164275,
2,1,0,1,0,18705.6,0.172091,0.17179,0.32883,10,0.0154509,10,5.64898e-05,-3.48303,-0.337949,-0.174583,-2.23993,0.17179,
2,1,0,1,0,18707.1,0.179582,0.179263,0.31526,10,0.015956,10,5.65146e-05,-3.50133,-0.547669,-0.107729,-1.32812,0.179263,
2,1,0,1,0,18708.6,0.187074,0.186788,0.307204,10,0.0164446,10,5.73821e-05,-3.51257,-0.711275,-0.0829496,-0.989856,0.186788,
2,1,0,1,0,18710.1,0.194564,0.194268,0.299789,10,0.016922,10,5.82394e-05,-3.52318,-0.73641,-0.0801184,-0.934157,0.194268,
2,1,0,1,0,18711.6,0.202056,0.201714,0.295291,10,0.0173903,10,5.95644e-05,-3.52975,-0.836598,-0.0705237,-0.809892,0.201714,
2,1,0,1,0,18713.1,0.209547,0.209238,0.290738,10,0.0178521,10,6.08334e-05,-3.5365,-1.16571,-0.050613,-0.571914,0.209238,
2,1,0,1,0,18714.6,0.217038,0.216671,0.285668,10,0.0183074,10,6.1896e-05,-3.54414,-0.641388,-0.091988,-1.0275,0.216671,
2,1,0,1,0,18716.1,0.224529,0.224252,0.283532,10,0.0187577,10,6.35827e-05,-3.5474,-1.19491,-0.0493763,-0.545369,0.224252,
2,1,0,1,0,18717.6,0.232019,0.231686,0.280995,10,0.0192035,10,6.51027e-05,-3.5513,-1.52859,-0.0385976,-0.421709,0.231686,
2,1,0,0,0,18719.1,0.23951,0.239196,0.278912,10,0.0196459,10,6.67148e-05,-3.55453,-6.39452,-0.00922665,-0.100138,0.239196,
2,1,0,1,0,18720.6,0.247001,0.246707,0.276214,10,0.0200851,10,6.81439e-05,-3.55875,-1.1147,-0.0529288,-0.570797,0.246707,
2,1,0,0,0,18722.1,0.254492,0.254191,0.274285,10,0.0205208,10,6.97209e-05,-3.5618,-1.31972,-0.0447066,-0.478258,0.254191,
2,1,0,1,0,18723.6,0.261983,0.261648,0.2737,10,0.0209541,10,7.16132e-05,-3.56272,-5.16699,-0.0114186,-0.121764,0.261648,
2,1,0,0,0,18725.1,0.269474,0.269138,0.271295,10,0.0213851,10,7.30157e-05,-3.56656,-17.4145,-0.00338798,-0.0357519,0.269138,
2,1,0,1,0,18726.6,0.276965,0.276645,0.26939,10,0.0218134,10,7.45254e-05,-3.56962,-2.63915,-0.0223557,-0.235475,0.276645,
2,1,0,0,0,18728.1,0.284456,0.284176,0.267855,10,0.0222389,10,7.61182e-05,-3.5721,-1.22352,-0.0482217,-0.502757,0.284176,
2,1,0,1,0,18729.6,0.291947,0.291618,0.265373,10,0.0226608,10,7.73877e-05,-3.57614,-2.43641,-0.024216,-0.251195,0.291618,
2,1,0,1,0,18731.1,0.299437,0.299126,0.262569,10,0.0230798,10,7.8541e-05,-3.58076,-0.00233842,-25.2307,-123.409,0.299126,
2,0,0,1,0,18732.4,0.293744,0.29345,-0.0200519,10,0.0231089,10,-5.88423e-06,-4.69784,-0.00661204,-8.92312,5.46252,0.29345,
2,0,0,1,0,18733.9,0.286253,0.285951,-0.0488184,10,0.0230326,10,-1.39597e-05,-4.31142,-0.0363118,-1.62482,3.09363,0.285951,
2,0,0,0,0,18735.4,0.278763,0.278452,-0.0689868,10,0.0229203,10,-1.92095e-05,-4.16123,-0.067224,-0.877663,2.37334,0.278452,
2,0,0,1,0,18736.9,0.271272,0.270997,-0.0848978,10,0.0227813,10,-2.3007e-05,-4.0711,-0.104006,-0.567277,1.86879,0.270997,
2,0,0,0,0,18738.4,0.263781,0.263482,-0.0981485,10,0.0226205,10,-2.58603e-05,-4.00812,-0.13863,-0.425592,1.62063,0.263482,
2,0,0,1,0,18739.9,0.25629,0.255929,-0.110638,10,0.0224411,10,-2.83155e-05,-3.9561,-0.184789,-0.319282,1.3599,0.255929,
2,0,0,0,0,18741.4,0.248799,0.248503,-0.11908,10,0.0222449,10,-2.95918e-05,-3.92416,-0.232139,-0.254158,1.19465,0.2485033,
2,0,0,1,0,18742.9,0.241308,0.240975,-0.12926,10,0.0220339,10,-3.11484e-05,-3.88854,-0.248602,-0.237328,1.20062,0.240975,
2,0,0,0,0,18744.4,0.233817,0.233499,-0.138567,10,0.0218089,10,-3.23553e-05,-3.85834,-0.231132,-0.255265,1.38238,0.233499,
2,0,0,1,0,18745.9,0.226326,0.226026,-0.148349,10,0.02157,10,-3.35308e-05,-3.82871,-0.294071,-0.200632,1.16222,0.226026,
2,0,0,0,0,18747.4,0.218835,0.218548,-0.157382,10,0.0213175,10,-3.43955e-05,-3.80305,-0.286089,-0.20623,1.26503,0.218548,
2,0,0,1,0,18748.9,0.211344,0.211016,-0.166366,10,0.0210519,10,-3.51058e-05,-3.77894,-0.336986,-0.175081,1.13413,0.211016,
2,0,0,1,0,18750.4,0.203854,0.203509,-0.174416,10,0.0207721,10,-3.54953e-05,-3.75841,-0.293335,-0.201135,1.37587,0.203509,
2,0,0,1,0,18751.9,0.196363,0.196051,-0.184609,10,0.0204781,10,-3.61927e-05,-3.73375,-0.283517,-0.208101,1.50195,0.196051,
2,0,0,1,0,18753.4,0.188871,0.188556,-0.196356,10,0.0201675,10,-3.7024e-05,-3.70696,-0.203765,-0.289549,2.21589,0.188556,
2,0,0,1,0,18754.9,0.181381,0.181039,-0.210159,10,0.0198383,10,-3.8047e-05,-3.67745,-0.246417,-0.239431,1.96872,0.181039,
2,0,0,1,0,18756.4,0.173889,0.173564,-0.226691,10,0.019487,10,-3.93456e-05,-3.64457,-0.220202,-0.267935,2.36386,0.173564,
2,0,0,1,0,18757.9,0.166398,0.166084,-0.246649,10,0.019108,10,-4.09645e-05,-3.60792,-0.203896,-0.289363,2.80845,0.166084,
2,0,0,1,0,18759.4,0.158907,0.158593,-0.276976,10,0.0186912,10,-4.39265e-05,-3.55756,-0.123469,-0.477855,5.18313,0.158593,
2,0,0,1,0,18760.9,0.151416,0.151106,-0.326154,10,0.0182169,10,-4.92838e-05,-3.48658,-0.0889153,-0.663553,8.44421,0.1511059,
2,0,0,1,0,18762.4,0.143925,0.143599,-0.404703,10,0.0176487,10,-5.8115e-05,-3.39286,-0.0685875,-0.860215,13.5983,0.143599,
2,0,0,1,0,18763.9,0.136434,0.136072,-0.516448,10,0.0169359,10,-7.02743e-05,-3.28697,-0.078972,-0.7471,14.9656,0.136072,
2,0,0,1,0,18765.4,0.128943,0.128637,-0.618172,10,0.0160571,10,-7.95196e-05,-3.20889,-0.142191,-0.414933,9.93251,0.128637,
2,0,0,0,0,18766.9,0.121453,0.121153,-0.666872,10,0.0150631,10,-8.07933e-05,-3.17596,-0.512127,-0.115206,2.99114,0.121153,
2,0,0,1,0,18768.4,0.113962,0.113643,-0.666392,10,0.0140322,10,-7.57307e-05,-3.17627,0.808179,0.0730037,-1.90352,0.113643,
2,0,0,0,0,18769.9,0.106471,0.106189,-0.650321,10,0.0130164,10,-6.90572e-05,-3.18687,0.629743,0.0936889,-2.38369,0.106189,
2,0,0,1,0,18771.4,0.0989799,0.0986795,-0.6265,10,0.0120333,10,-6.18227e-05,-3.20308,0.44493,0.132605,-3.23714,0.0986795,
2,0,0,0,0,18772.9,0.0914889,0.0911729,-0.600801,10,0.0110887,10,-5.47768e-05,-3.22127,0.368303,0.160194,-3.74195,0.0911729,
2,0,0,1,0,18774.4,0.083998,0.0836896,-0.573534,10,0.0101844,10,-4.79988e-05,-3.24144,0.311486,0.189415,-4.22691,0.08368963,
2,0,0,0,0,18775.9,0.076507,0.0762106,-0.55205,10,0.00931666,10,-4.20721e-05,-3.25802,0.430289,0.137117,-2.94963,0.0762106,
2,0,0,1,0,18777.4,0.0690161,0.0686796,-0.530123,10,0.00847991,10,-3.64086e-05,-3.27562,0.631633,0.0934087,-1.94661,0.0686796,
2,0,0,0,0,18778.9,0.0615251,0.0612196,-0.514657,10,0.00766932,10,-3.15071e-05,-3.28848,0.591368,0.0997688,-2.01142,0.06121961,
2,0,0,1,0,18780.4,0.0540342,0.0536982,-0.498868,10,0.00688455,10,-2.67883e-05,-3.30201,0.53805,0.109655,-2.13393,0.0536982,
2,0,0,1,0,18781.9,0.0465436,0.0462197,-0.481621,10,0.00612536,10,-2.22604e-05,-3.31729,0.518879,0.113707,-2.13961,0.0462197,
2,0,0,1,0,18783.4,0.0390526,0.0386971,-0.464145,10,0.00539247,10,-1.79611e-05,-3.33335,0.358387,0.164626,-2.97498,0.0386971,
2,0,0,1,0,18784.9,0.0315615,0.0312623,-0.446882,10,0.00468606,10,-1.39706e-05,-3.34981,0.455098,0.129643,-2.25953,0.0312623,
2,0,0,1,0,18786.4,0.0240706,0.0237546,-0.429575,10,0.00400442,10,-1.02044e-05,-3.36696,0.593663,0.0993829,-1.67712,0.0237546,
2,0,0,1,0,18787.9,0.0165795,0.0162912,-0.419924,10,0.00334287,10,-6.84107e-06,-3.37683,0.85765,0.0687926,-1.12875,0.0162912,
2,0,0,1,0,18789.4,0.00908846,0.00876749,-0.414854,10,0.00269377,10,-3.63723e-06,-3.3821,1.8181,0.0324515,-0.525269,0.00876749,
2,0,0,1,0,18790.9,0.00159739,0.00122064,-0.420002,10,0.00204752,10,-5.12672e-07,-3.37675, , , ,0.00122064,
2,0,0,0,0,18791.1,0.000199195,-0.00014972,-0.415584,10,0.00192615,10,6.22213e-08,-3.38134, , , ,-0.0001497202,