File: Figure_codes/Fig_3-5/rawdata_trumpetplot_data/after 10th/20221101_1-115_003_TrumpetPlot_ParaChange_from10_every3_05_CV_C01_9.csv
mode,ox/red,error,control changes,counter inc.,time/s,control/V,Ewe/V,<I>/mA,cycle number,(Q-Qo)/C,I Range,P/W,log(|I|),Tafel slope mV/dec,alpha_eff,dI/d(E-IR),E-IR/V,
2,0,0,1,0,18851.2,2.44065e-05,-0.000401673,-0.742422,10,0.0000000E+000,10,2.98211e-07,-3.12935, , , ,-0.000401673,
2,1,0,1,0,18851.6,0.00729063,0.00697541,0.727624,10,0.000165337,10,5.07547e-06,-3.13809,0.0543057,1.08644,30.388,0.00697541,
2,1,0,1,0,18851.9,0.0147802,0.0144383,0.877751,10,0.00047569,10,1.26732e-05,-3.05663,0.122879,0.480145,16.4351,0.01443829,
2,1,0,1,0,18852.3,0.0222725,0.0219716,0.987762,10,0.00083233,10,2.17028e-05,-3.00535,0.17117,0.344687,13.2721,0.0219716,
2,1,0,1,0,18852.7,0.0297644,0.0294324,1.08786,10,0.00122704,10,3.20183e-05,-2.96343,0.19691,0.299629,12.6841,0.0294324,
2,1,0,1,0,18853.1,0.0372544,0.0369288,1.18489,10,0.001659,10,4.37565e-05,-2.92632,0.217126,0.271732,12.5742,0.0369288,
2,1,0,1,0,18853.4,0.0447449,0.0444125,1.28203,10,0.00212779,10,5.69379e-05,-2.8921,0.236415,0.249561,12.5029,0.0444125,
2,1,0,1,0,18853.8,0.0522363,0.0519147,1.3715,10,0.00263188,10,7.12009e-05,-2.8628,0.251241,0.234835,12.5907,0.0519147,
2,1,0,1,0,18854.2,0.0597291,0.0594164,1.45708,10,0.00316899,10,8.65742e-05,-2.83652,0.318029,0.185517,10.5339,0.0594164,
2,1,0,1,0,18854.6,0.0672182,0.0668672,1.53673,10,0.00373554,10,0.000102757,-2.8134,0.343635,0.171694,10.2666,0.0668672,
2,1,0,1,0,18854.9,0.0747092,0.0744026,1.60014,10,0.00432843,10,0.000119054,-2.79584,0.455072,0.12965,8.08158,0.07440263,
2,1,0,1,0,18855.3,0.0822001,0.0818677,1.65223,10,0.00494457,10,0.000135264,-2.78193,0.537342,0.1098,7.09663,0.08186774,
2,1,0,1,0,18855.7,0.0896911,0.0893756,1.72214,10,0.00558266,10,0.000153917,-2.76393,0.330406,0.178568,12.0211,0.0893756,
2,1,0,1,0,18856,0.097182,0.0968518,1.82616,10,0.00625303,10,0.000176867,-2.73846,0.220952,0.267026,19.0602,0.0968518,
2,1,0,1,0,18856.4,0.104673,0.104333,1.99167,10,0.00697254,10,0.000207798,-2.70078,0.186494,0.316364,24.5037,0.104333,
2,1,0,1,0,18856.8,0.112164,0.111849,2.15147,10,0.00775498,10,0.000240639,-2.66726,0.276205,0.21361,17.8982,0.1118487,
2,1,0,1,0,18857.2,0.119655,0.119355,2.27203,10,0.00859104,10,0.000271177,-2.64359,0.452213,0.130469,11.5568,0.119355,
2,1,0,1,0,18857.5,0.127146,0.126776,2.35138,10,0.00946387,10,0.000298099,-2.62868,0.520371,0.113381,10.4157,0.1267762,
2,1,0,1,0,18857.9,0.134637,0.134294,2.41686,10,0.0103658,10,0.00032457,-2.61675,2.53311,0.0232915,2.19571,0.134294,
2,1,0,1,0,18858.3,0.142128,0.141814,2.33184,10,0.0112698,10,0.000330687,-2.6323,-0.192139,-0.30707,-27.8038,0.141814,
2,1,0,1,0,18858.7,0.149619,0.149332,1.98757,10,0.0120914,10,0.000296807,-2.70168,-0.0816439,-0.722651,-55.8449,0.149332,
2,1,0,1,0,18859,0.157108,0.156806,1.58376,10,0.0127626,10,0.000248344,-2.80031,-0.0799497,-0.737964,-45.6528,0.156806,
2,1,0,1,0,18859.4,0.164601,0.164232,1.32402,10,0.0133086,10,0.000217447,-2.87811,-0.119334,-0.49441,-25.6175,0.164232,
2,1,0,1,0,18859.8,0.172092,0.171745,1.1799,10,0.0137818,10,0.000202643,-2.92815,-0.199839,-0.295238,-13.6339,0.171745,
2,1,0,1,0,18860.2,0.179582,0.179293,1.10387,10,0.0142146,10,0.000197916,-2.95708,-0.345649,-0.170693,-7.3721,0.179293,
2,1,0,1,0,18860.5,0.187073,0.186789,1.05778,10,0.0146246,10,0.000197582,-2.9756,-0.566139,-0.104215,-4.29632,0.186789,
2,1,0,1,0,18860.9,0.194564,0.194288,1.02703,10,0.0150205,10,0.00019954,-2.98842,-0.848227,-0.0695568,-2.78649,0.194288,
2,1,0,1,0,18861.3,0.202057,0.201753,1.00489,10,0.0154068,10,0.000202739,-2.99788,-0.918992,-0.0642008,-2.50968,0.201753,
2,1,0,1,0,18861.7,0.209546,0.209198,0.98728,10,0.0157857,10,0.000206537,-3.00556,-0.748759,-0.0787971,-3.04185,0.209198,
2,1,0,1,0,18862,0.217037,0.216725,0.970321,10,0.0161584,10,0.000210293,-3.01308,-1.80801,-0.0326326,-1.2392,0.216725,
2,1,0,1,0,18862.4,0.224528,0.224179,0.957174,10,0.0165263,10,0.000214579,-3.01901,-1.59314,-0.0370338,-1.38384,0.224179,
2,1,0,1,0,18862.8,0.232019,0.231677,0.949516,10,0.0168898,10,0.000219981,-3.0225,-2.4538,-0.0240444,-0.891517,0.231677,
2,1,0,1,0,18863.2,0.23951,0.239215,0.937984,10,0.0172497,10,0.00022438,-3.0278,-1.38129,-0.0427137,-1.5654,0.239215,
2,1,0,1,0,18863.5,0.247001,0.246748,0.932767,10,0.0176062,10,0.000230158,-3.03023,-1.30832,-0.0450961,-1.63524,0.246748,
2,1,0,1,0,18863.9,0.254492,0.254168,0.920474,10,0.0179596,10,0.000233955,-3.03599,-1.35471,-0.0435519,-1.57121,0.254168,
2,1,0,1,0,18864.3,0.261983,0.261639,0.913649,10,0.0183097,10,0.000239046,-3.03922,-1.68116,-0.0350947,-1.25184,0.261639,
2,1,0,1,0,18864.7,0.269474,0.269157,0.90761,10,0.0186568,10,0.000244289,-3.0421,-40.8438,-0.00144453,-0.0509834,0.269157,
2,1,0,1,0,18865,0.276965,0.276658,0.898036,10,0.0190008,10,0.000248449,-3.04671,-1.40217,-0.0420777,-1.47403,0.276658,
2,1,0,1,0,18865.4,0.284456,0.284143,0.888034,10,0.0193414,10,0.000252328,-3.05157,-1.6961,-0.0347857,-1.20524,0.284143,
2,1,0,1,0,18865.8,0.291947,0.291649,0.879191,10,0.0196785,10,0.000256415,-3.05592,-1.58441,-0.0372379,-1.27747,0.291649,
2,1,0,1,0,18866.2,0.299436,0.299111,0.866667,10,0.0200124,10,0.000259229,-3.06215,-0.0029144,-20.2443,-359.508,0.299111,
2,0,0,1,0,18866.5,0.293745,0.293432,-0.20671,10,0.0200215,10,-6.06551e-05,-3.68464,-0.0207833,-2.83881,21.5389,0.293432,
2,0,0,1,0,18866.9,0.286254,0.285968,-0.308963,10,0.0199166,10,-8.83535e-05,-3.51009,-0.0730058,-0.808155,9.7574,0.285968,
2,0,0,1,0,18867.3,0.278763,0.278441,-0.374236,10,0.0197814,10,-0.000104202,-3.42685,-0.132388,-0.44566,6.48961,0.278441,
2,0,0,1,0,18867.6,0.271272,0.270932,-0.422421,10,0.0196258,10,-0.000114447,-3.37425,-0.150874,-0.391054,6.41338,0.270932,
2,0,0,1,0,18868,0.263781,0.263457,-0.461898,10,0.0194537,10,-0.00012169,-3.33545,-0.187967,-0.313884,5.66505,0.263457,
2,0,0,1,0,18868.4,0.25629,0.255985,-0.498711,10,0.0192676,10,-0.000127662,-3.30215,-0.24015,-0.24568,4.76041,0.255985,
2,0,0,1,0,18868.8,0.248799,0.248496,-0.525974,10,0.0190692,10,-0.000130702,-3.27904,-0.366227,-0.161102,3.31425,0.248496,
2,0,0,1,0,18869.1,0.241308,0.240995,-0.554665,10,0.0188598,10,-0.000133672,-3.25597,-0.347524,-0.169772,3.69119,0.240995,
2,0,0,1,0,18869.5,0.233817,0.233492,-0.582921,10,0.0186401,10,-0.000136108,-3.23439,-0.326046,-0.180956,4.10538,0.233492,
2,0,0,1,0,18869.9,0.226326,0.22601,-0.607283,10,0.0184101,10,-0.000137252,-3.21661,-0.495713,-0.11902,2.83029,0.22601,
2,0,0,1,0,18870.2,0.218835,0.218514,-0.635179,10,0.0181705,10,-0.000138795,-3.1971,-0.381146,-0.154796,3.82835,0.218514,
2,0,0,1,0,18870.6,0.211344,0.211,-0.661698,10,0.0179213,10,-0.000139618,-3.17934,-0.483549,-0.122015,3.14766,0.211,
2,0,0,1,0,18871,0.203855,0.203563,-0.687883,10,0.017662,10,-0.000140027,-3.16249,-0.49129,-0.120092,3.23532,0.203563,
2,0,0,1,0,18871.4,0.196362,0.196053,-0.71754,10,0.0173923,10,-0.000140676,-3.14415,-0.467787,-0.126126,3.53087,0.196053,
2,0,0,1,0,18871.7,0.188871,0.188538,-0.750723,10,0.0171109,10,-0.00014154,-3.12452,-0.319811,-0.184484,5.40451,0.188538,
2,0,0,1,0,18872.1,0.18138,0.18106,-0.788182,10,0.0168169,10,-0.000142708,-3.10337,-0.336512,-0.175328,5.39134,0.18106,
2,0,0,1,0,18872.5,0.173891,0.173595,-0.836273,10,0.016507,10,-0.000145173,-3.07765,-0.250045,-0.235957,7.67487,0.173595,
2,0,0,1,0,18872.9,0.166398,0.166067,-0.894441,10,0.0161766,10,-0.000148537,-3.04845,-0.252785,-0.2334,8.18356,0.166067,
2,0,0,1,0,18873.2,0.158906,0.158577,-0.986157,10,0.0158182,10,-0.000156381,-3.00605,-0.144295,-0.408884,15.8084,0.158577,
2,0,0,1,0,18873.6,0.151416,0.151075,-1.13903,10,0.015416,10,-0.00017208,-2.94346,-0.104338,-0.565469,25.1499,0.151075,
2,0,0,1,0,18874,0.143926,0.14361,-1.38135,10,0.0149413,10,-0.000198376,-2.8597,-0.0741899,-0.795256,42.9776,0.14361,
2,0,0,1,0,18874.4,0.136435,0.136147,-1.74176,10,0.0143521,10,-0.000237135,-2.75901,-0.0775693,-0.76061,51.565,0.136147,
2,0,0,1,0,18874.7,0.128942,0.128625,-2.10459,10,0.0136238,10,-0.000270702,-2.67683,-0.113536,-0.519661,42.5257,0.128625,
2,0,0,1,0,18875.1,0.121453,0.121141,-2.35315,10,0.0127783,10,-0.000285063,-2.62835,-0.244598,-0.241213,22.1095,0.121141,
2,0,0,1,0,18875.5,0.113962,0.113654,-2.45797,10,0.0118653,10,-0.000279359,-2.60942,-1.29368,-0.0456064,4.37216,0.113654,
2,0,0,1,0,18875.9,0.106471,0.106156,-2.44196,10,0.0109372,10,-0.000259229,-2.61226,0.730669,0.080748,-7.70116,0.106156,
2,0,0,1,0,18876.2,0.0989799,0.0986585,-2.35228,10,0.0100312,10,-0.000232073,-2.62851,0.39202,0.150502,-13.7992,0.0986585,
2,0,0,1,0,18876.6,0.0914889,0.0911805,-2.24142,10,0.00916534,10,-0.000204373,-2.64948,0.385159,0.153184,-13.3731,0.0911805,
2,0,0,1,0,18877,0.083998,0.083691,-2.142,10,0.00833908,10,-0.000179266,-2.66918,0.399646,0.147631,-12.3412,0.083691,
2,0,0,1,0,18877.4,0.076507,0.0761752,-2.07251,10,0.00754382,10,-0.000157874,-2.6835,0.48312,0.122123,-9.86152,0.0761752,
2,0,0,1,0,18877.7,0.0690161,0.0687019,-2.00407,10,0.00677406,10,-0.000137683,-2.69809,0.547874,0.107689,-8.43749,0.0687019,
2,0,0,1,0,18878.1,0.0615251,0.0611972,-1.94412,10,0.00602718,10,-0.000118975,-2.71128,0.491461,0.12005,-9.1266,0.0611972,
2,0,0,1,0,18878.5,0.0540342,0.0537396,-1.886,10,0.00530352,10,-0.000101353,-2.72446,0.534326,0.110419,-8.11272,0.0537396,
2,0,0,1,0,18878.9,0.0465432,0.0461754,-1.81861,10,0.00460326,10,-8.39748e-05,-2.74026,0.467556,0.126188,-8.96176,0.0461754,
2,0,0,1,0,18879.2,0.0390523,0.0387285,-1.74847,10,0.00392887,10,-6.77156e-05,-2.75734,0.378363,0.155935,-10.6117,0.0387285,
2,0,0,1,0,18879.6,0.0315626,0.0312486,-1.67429,10,0.00328224,10,-5.23191e-05,-2.77617,0.379745,0.155368,-10.1324,0.0312486,
2,0,0,1,0,18880,0.0240704,0.0237489,-1.59948,10,0.00266309,10,-3.79859e-05,-2.79602,0.427383,0.138049,-8.63078,0.0237489,
2,0,0,1,0,18880.4,0.0165785,0.0162516,-1.54036,10,0.00206853,10,-2.50333e-05,-2.81238,0.57512,0.102587,-6.17817,0.0162516,
2,0,0,1,0,18880.7,0.00908846,0.00880779,-1.50008,10,0.00149311,10,-1.32124e-05,-2.82389,1.29583,0.0455308,-2.66446,0.00880779,
2,0,0,1,0,18881.1,0.0015984,0.00123541,-1.49594,10,0.000928596,10,-1.8481e-06,-2.82509, , , ,0.00123541,
2,0,0,1,0,18881.2,0.000199195,-0.000182169,-1.48148,10,0.000823171,10,2.6988e-07,-2.8293, , , ,-0.000182169,