File: Figure_codes/Fig_3-5/rawdata_trumpetplot_data/after 10th/20221101_1-115_003_TrumpetPlot_ParaChange_from10_every3_10_CV_C01_16.csv
mode,ox/red,error,control changes,counter inc.,time/s,control/V,Ewe/V,<I>/mA,cycle number,(Q-Qo)/C,I Range,P/W,log(|I|),Tafel slope mV/dec,alpha_eff,dI/d(E-IR),E-IR/V,
2,1,0,0,0,32712.6,-2.44065e-05,-0.000172625,5.29797,17,0.0000000E+000,10,-9.14562e-07,-2.27589, , , ,-0.000172625,
2,1,0,1,0,32712.7,0.00977853,0.00945779,8.06493,17,0.000340838,10,7.62764e-05,-2.0934,0.116375,0.506982,158.701,0.00945779,
2,1,0,1,0,32712.7,0.0197755,0.0194439,9.20273,17,0.000775501,10,0.000178937,-2.03608,0.242017,0.243784,87.6646,0.0194439,
2,1,0,1,0,32712.8,0.0297726,0.0294457,9.97175,17,0.00125611,10,0.000293625,-2.00123,0.35318,0.167053,64.9467,0.0294457,
2,1,0,1,0,32712.8,0.0397514,0.039389,10.6069,17,0.00176983,10,0.000417794,-1.97441,0.356425,0.165533,68.6168,0.039389,
2,1,0,1,0,32712.9,0.0497393,0.0494032,11.2852,17,0.00231599,10,0.000557524,-1.94749,0.383908,0.153683,67.5669,0.0494032,
2,1,0,1,0,32712.9,0.0597364,0.0593746,11.9617,17,0.0028968,10,0.000710221,-1.92221,0.373188,0.158097,73.8377,0.0593746,
2,1,0,1,0,32713,0.0697152,0.0693879,12.6771,17,0.00351187,10,0.000879639,-1.89698,0.424349,0.139037,68.7825,0.06938792,
2,1,0,1,0,32713,0.0796941,0.0793677,13.375,17,0.00416189,10,0.00106154,-1.87371,0.424203,0.139085,72.65,0.0793677,
2,1,0,1,0,32713.1,0.0896911,0.089392,14.0354,17,0.00484771,10,0.00125465,-1.85278,0.491681,0.119996,65.7132,0.089392,
2,1,0,1,0,32713.1,0.099679,0.099363,14.6508,17,0.00556338,10,0.00145574,-1.83414,0.536079,0.110058,62.9184,0.099363,
2,1,0,1,0,32713.2,0.109658,0.109332,15.3574,17,0.00631118,10,0.00167906,-1.81368,0.441018,0.133781,80.1444,0.109332,
2,1,0,1,0,32713.2,0.119655,0.119339,16.2918,17,0.00710147,10,0.00194425,-1.78803,0.362692,0.162672,103.557,0.119339,
2,1,0,1,0,32713.3,0.129652,0.129269,17.4066,17,0.00794406,10,0.00225013,-1.75929,0.364192,0.162003,109.965,0.1292689,
2,1,0,1,0,32713.3,0.139631,0.139302,18.4045,17,0.00883874,10,0.00256377,-1.73508,0.477592,0.123536,88.7897,0.1393016,
2,1,0,1,0,32713.4,0.149619,0.149304,19.1473,17,0.00977716,10,0.00285878,-1.71789,0.815733,0.0723276,53.9501,0.149304,
2,1,0,1,0,32713.4,0.159616,0.159322,19.2566,17,0.010741,10,0.003068,-1.71542,-1.06585,-0.055355,-41.5911,0.159322,
2,1,0,1,0,32713.5,0.169595,0.169267,18.1613,17,0.0116807,10,0.00307412,-1.74085,-0.221244,-0.266674,-188.499,0.169267,
2,1,0,1,0,32713.5,0.179573,0.179261,15.7158,17,0.0125292,10,0.00281723,-1.80366,-0.133729,-0.441191,-270.779,0.179261,
2,1,0,1,0,32713.6,0.18957,0.189262,13.1448,17,0.0132487,10,0.00248782,-1.88125,-0.1348,-0.437684,-224.556,0.189262,
2,1,0,1,0,32713.6,0.199558,0.199248,11.2722,17,0.0138544,10,0.00224596,-1.94799,-0.176342,-0.334578,-147.376,0.199248,
2,1,0,1,0,32713.7,0.209537,0.209228,10.1041,17,0.0143851,10,0.00211406,-1.9955,-0.241951,-0.243851,-96.0993,0.209228,
2,1,0,1,0,32713.7,0.219534,0.21926,9.32725,17,0.0148692,10,0.00204509,-2.03025,-0.346081,-0.17048,-62.1205,0.21926,
2,1,0,1,0,32713.8,0.229531,0.229209,8.80874,17,0.0153219,10,0.00201904,-2.05509,-0.449758,-0.131182,-45.0801,0.229209,
2,1,0,1,0,32713.8,0.23951,0.239179,8.4337,17,0.0157516,10,0.00201717,-2.07398,-0.668727,-0.0882273,-29.0842,0.239179,
2,1,0,1,0,32713.9,0.249498,0.249241,8.17152,17,0.0161656,10,0.00203668,-2.0877,-0.784223,-0.0752337,-23.9545,0.249241,
2,1,0,1,0,32713.9,0.259495,0.259208,7.9432,17,0.0165679,10,0.00205894,-2.1,-0.867037,-0.0680478,-21.1007,0.259208,
2,1,0,1,0,32714,0.269474,0.269165,7.77051,17,0.0169597,10,0.00209154,-2.10955,-1.06744,-0.0552726,-16.7502,0.269165,
2,1,0,1,0,32714,0.279453,0.279093,7.60833,17,0.0173433,10,0.00212343,-2.11871,-1.13977,-0.0517649,-15.3911,0.279093,
2,1,0,1,0,32714.1,0.28945,0.2891,7.47241,17,0.0177204,10,0.00216027,-2.12654,-1.70805,-0.0345423,-10.0668,0.2891,
2,1,0,1,0,32714.1,0.299438,0.299138,7.3424,17,0.0180901,10,0.00219639,-2.13416,-0.055825,-1.05687,-290.135,0.299138,
2,1,0,1,0,32714.1,0.291747,0.291423,0.132613,17,0.0182234,10,3.86464e-05,-3.87741,0.0160689,3.6717,406.889,0.291423,
2,0,0,1,0,32714.2,0.28175,0.281433,-2.25772,17,0.0181597,10,-0.000635398,-2.64633,-0.0354972,-1.6621,143.898,0.281433,
2,0,0,1,0,32714.2,0.27178,0.271429,-3.28013,17,0.0180188,10,-0.000890324,-2.48411,-0.094483,-0.624451,79.8958,0.271429,
2,0,0,1,0,32714.3,0.261783,0.261452,-3.89899,17,0.0178381,10,-0.0010194,-2.40905,-0.188853,-0.312412,47.4437,0.261452,
2,0,0,1,0,32714.3,0.251786,0.251489,-4.32954,17,0.0176318,10,-0.00108883,-2.36356,-0.253629,-0.232623,39.2934,0.251489,
2,0,0,1,0,32714.4,0.241807,0.241468,-4.67775,17,0.0174067,10,-0.00112953,-2.32996,-0.322459,-0.182969,33.435,0.241468,
2,0,0,1,0,32714.4,0.231824,0.231505,-4.97667,17,0.0171656,10,-0.00115212,-2.30306,-0.362121,-0.162929,31.6194,0.231505,
2,0,0,1,0,32714.5,0.221822,0.22152,-5.24426,17,0.0169102,10,-0.00116171,-2.28032,-0.445803,-0.132346,27.0313,0.22152,
2,0,0,1,0,32714.5,0.211843,0.211515,-5.4906,17,0.0166422,10,-0.00116135,-2.26038,-0.547967,-0.107671,23.0907,0.211515,
2,0,0,1,0,32714.6,0.201865,0.201502,-5.74812,17,0.0163617,10,-0.00115826,-2.24047,-0.579322,-0.101843,22.8256,0.201502,
2,0,0,1,0,32714.6,0.191868,0.191536,-6.00171,17,0.016068,10,-0.00114954,-2.22172,-0.492488,-0.1198,28.1109,0.191536,
2,0,0,1,0,32714.7,0.18188,0.181615,-6.30178,17,0.0157614,10,-0.0011445,-2.20054,-0.418164,-0.141093,34.6202,0.181615,
2,0,0,1,0,32714.7,0.171901,0.171563,-6.63876,17,0.015439,10,-0.00113896,-2.17791,-0.400706,-0.14724,38.1654,0.171563,
2,0,0,1,0,32714.8,0.161904,0.161636,-7.09992,17,0.0150963,10,-0.0011476,-2.14875,-0.303205,-0.194588,53.8808,0.161636,
2,0,0,1,0,32714.8,0.151907,0.151611,-7.77261,17,0.0147254,10,-0.00117841,-2.10943,-0.212077,-0.278201,84.5824,0.1516106,
2,0,0,1,0,32714.9,0.141928,0.141605,-8.92507,17,0.0143111,10,-0.00126383,-2.04939,-0.139439,-0.423125,147.442,0.141605,
2,0,0,1,0,32714.9,0.13194,0.131596,-10.7174,17,0.0138237,10,-0.00141037,-1.96991,-0.117822,-0.500756,209.56,0.131596,
2,0,0,1,0,32715,0.121943,0.12165,-12.9196,17,0.013233,10,-0.00157168,-1.88875,-0.132295,-0.445974,224.686,0.12165,
2,0,0,1,0,32715,0.111964,0.111664,-15.0116,17,0.0125343,10,-0.00167625,-1.82357,-0.182775,-0.322801,188.932,0.111664,
2,0,0,1,0,32715.1,0.101985,0.101671,-16.6527,17,0.0117421,10,-0.00169311,-1.77851,-0.286363,-0.206032,133.762,0.101671,
2,0,0,1,0,32715.1,0.0919883,0.0916781,-17.7215,17,0.0108798,10,-0.00162467,-1.7515,-0.520772,-0.113293,78.3608,0.09167815,
2,0,0,1,0,32715.2,0.0820004,0.0817032,-18.0999,17,0.00998256,10,-0.00147882,-1.74232,-31.8553,-0.00185213,1.30744,0.0817032,
2,0,0,1,0,32715.2,0.0720215,0.0717189,-17.8348,17,0.00908402,10,-0.00127909,-1.74873,0.8308,0.0710159,-49.4225,0.0717189,
2,0,0,1,0,32715.3,0.0620245,0.0617215,-17.3036,17,0.00820534,10,-0.001068,-1.76186,0.736865,0.080069,-54.0918,0.0617215,
2,0,0,1,0,32715.3,0.0520275,0.0516616,-16.8207,17,0.00735233,10,-0.000868986,-1.77416,0.784796,0.0751788,-49.3453,0.0516616,
2,0,0,1,0,32715.4,0.0420486,0.0417185,-16.382,17,0.00652394,10,-0.000683432,-1.78563,0.891979,0.0661451,-42.3058,0.0417185,
2,0,0,1,0,32715.4,0.0320607,0.0317249,-15.928,17,0.00571763,10,-0.000505315,-1.79784,0.714526,0.0825722,-51.2812,0.0317249,
2,0,0,1,0,32715.5,0.0220637,0.0217249,-15.3612,17,0.00493518,10,-0.000333721,-1.81357,0.557463,0.105837,-63.4383,0.0217249,
2,0,0,1,0,32715.5,0.0120848,0.0117037,-14.6785,17,0.00418532,10,-0.000171792,-1.83332,0.443299,0.133093,-76.2142,0.0117037,
2,0,0,1,0,32715.6,0.00210598,0.00169533,-13.9883,17,0.00347171,10,-2.37148e-05,-1.85423,0.518172,0.113862,-61.9846,0.00169533,
2,0,0,1,0,32715.6,-0.00789103,-0.00829428,-13.3042,17,0.00279041,10,0.000110349,-1.87601,0.557252,0.105877,-55.0124,-0.00829428,
2,0,0,1,0,32715.7,-0.017879,-0.01823,-12.8825,17,0.00213807,10,0.000234849,-1.89,0.968396,0.0609255,-30.622,-0.01823003,
2,0,0,1,0,32715.7,-0.0278578,-0.0282319,-12.6606,17,0.00150195,10,0.000357433,-1.89754,2.01852,0.0292294,-14.4396,-0.0282319,
2,0,0,1,0,32715.8,-0.0378549,-0.0382432,-12.6288,17,0.000870529,10,0.000482964,-1.89864,-6.81738,-0.00865435,4.26518,-0.0382432,
2,0,0,1,0,32715.8,-0.0478519,-0.0482432,-12.7421,17,0.000236636,10,0.00061472,-1.89476,-1.2945,-0.0455776,22.6736,-0.0482432,
2,0,0,1,0,32715.9,-0.0578126,-0.0581799,-12.9758,17,-0.000403398,10,0.000754933,-1.88686,-1.06921,-0.0551811,27.9461,-0.0581799,
2,0,0,1,0,32715.9,-0.0678187,-0.0681487,-13.3073,17,-0.00106003,10,0.000906873,-1.87591,-0.801248,-0.0736351,38.2137,-0.0681487,
2,0,0,1,0,32716,-0.0778157,-0.0781817,-13.7233,17,-0.00173556,10,0.00107291,-1.86254,-0.703922,-0.0838161,44.937,-0.0781817,
2,0,0,1,0,32716,-0.0877945,-0.0881564,-14.2689,17,-0.00243359,10,0.00125789,-1.84561,-0.565376,-0.104355,58.0843,-0.0881564,
2,0,0,1,0,32716.1,-0.0977734,-0.0981366,-14.8798,17,-0.00316066,10,0.00146025,-1.8274,-0.490084,-0.120387,70.0104,-0.0981366,
2,0,0,1,1,32716.1,-0.0936874,-0.094064,-6.58952,17,-0.00364359,10,0.000619836,-2.18115,-0.0174417,-3.3827,867.292,-0.09406399,
2,0,0,1,1,32716.2,-0.0837086,-0.0841065,-0.246216,17,-0.00379728,10,2.07084e-05,-3.60868,-0.0149459,-3.94758,467.933,-0.0841065,
2,1,0,1,1,32716.2,-0.0737025,-0.0741213,3.54702,17,-0.0037071,10,-0.00026291,-2.45014,0.0266432,2.21445,301.304,-0.0741213,
2,1,0,1,1,32716.3,-0.0637236,-0.064116,6.02535,17,-0.0034639,10,-0.000386321,-2.22002,0.0681591,0.865622,202.824,-0.064116,
2,1,0,1,1,32716.3,-0.0537448,-0.0541065,7.68912,17,-0.00311861,10,-0.000416031,-2.11412,0.135955,0.433968,129.957,-0.05410647,
2,1,0,1,1,32716.4,-0.0437477,-0.0441186,8.7885,17,-0.00270464,10,-0.000387736,-2.05609,0.229622,0.256944,88.0162,-0.0441186,
2,1,0,1,1,32716.4,-0.0337507,-0.0341099,9.49457,17,-0.00224585,10,-0.000323859,-2.02252,0.398687,0.147986,54.8435,-0.0341099,
2,1,0,1,1,32716.5,-0.0237809,-0.0241628,9.93006,17,-0.00176126,10,-0.000239938,-2.00305,0.70167,0.0840851,32.5424,-0.02416279,
2,1,0,1,1,32716.5,-0.0137839,-0.0141437,10.1494,17,-0.00125859,10,-0.00014355,-1.99356,1.64231,0.035925,14.2341,-0.01414368,
2,1,0,1,1,32716.6,-0.0037869,-0.00415841,10.2556,17,-0.000747931,10,-4.26469e-05,-1.98904,3.22275,0.0183073,7.32693,-0.00415841,
2,1,0,1,1,32716.6,-2.55332e-05,-0.000306236,10.2647,17,-0.000555901,10,-3.14344e-06,-1.98865, , , ,-0.000306236,