File: Figure_codes/Fig_3-5/rawdata_trumpetplot_data/after 10th/20221101_1-115_003_TrumpetPlot_ParaChange_from10_every3_10_CV_C01_31.csv
mode,ox/red,error,control changes,counter inc.,time/s,control/V,Ewe/V,<I>/mA,cycle number,(Q-Qo)/C,I Range,P/W,log(|I|),Tafel slope mV/dec,alpha_eff,dI/d(E-IR),E-IR/V,
2,1,0,0,0,62264.6,-2.44065e-05,-0.000268062,5.00794,32,0.0000000E+000,10,-1.34244e-06,-2.30034, , , ,-0.000268062,
2,1,0,1,0,62264.6,0.00977853,0.00949337,7.07142,32,0.000304298,10,6.71316e-05,-2.15049,0.123234,0.478764,131.776,0.00949337,
2,1,0,1,0,62264.7,0.0197755,0.0194396,8.10764,32,0.000685826,10,0.000157609,-2.09111,0.225926,0.261147,82.5786,0.0194396,
2,1,0,1,0,62264.7,0.0297726,0.0294379,8.82406,32,0.00110988,10,0.000259762,-2.05433,0.336635,0.175264,60.272,0.0294379,
2,1,0,1,0,62264.8,0.0397514,0.0393874,9.39932,32,0.00156477,10,0.000370215,-2.0269,0.372339,0.158458,58.1113,0.0393874,
2,1,0,1,0,62264.8,0.0497393,0.0494023,9.95339,32,0.00204751,10,0.000491721,-2.00203,0.414053,0.142494,55.3095,0.0494023,
2,1,0,1,0,62264.9,0.0597364,0.0593902,10.5004,32,0.00255867,10,0.000623621,-1.97879,0.429194,0.137467,56.3015,0.0593902,
2,1,0,1,0,62264.9,0.0697152,0.0693497,11.0616,32,0.00309659,10,0.000767117,-1.95618,0.463052,0.127415,55.0289,0.0693497,
2,1,0,1,0,62265,0.0796941,0.079366,11.6379,32,0.00366296,10,0.000923651,-1.93413,0.475952,0.123962,56.281,0.079366,
2,1,0,1,0,62265,0.0896911,0.0893235,12.1821,32,0.00425875,10,0.00108815,-1.91428,0.520941,0.113257,53.877,0.0893235,
2,1,0,1,0,62265.1,0.099679,0.09932,12.7338,32,0.00488027,10,0.00126472,-1.89504,0.56573,0.10429,51.7653,0.09932,
2,1,0,1,0,62265.1,0.109658,0.109266,13.2742,32,0.00552861,10,0.00145042,-1.87699,0.520892,0.113267,58.7185,0.109266,
2,1,0,1,0,62265.2,0.119655,0.11928,13.9586,32,0.00620881,10,0.00166498,-1.85516,0.437753,0.134779,73.3933,0.11928,
2,1,0,1,0,62265.2,0.129652,0.129292,14.7487,32,0.00692634,10,0.00190689,-1.83125,0.418629,0.140936,81.1558,0.129292,
2,1,0,1,0,62265.3,0.139631,0.139275,15.55,32,0.00768289,10,0.00216571,-1.80827,0.484277,0.121831,73.9136,0.139275,
2,1,0,1,0,62265.3,0.149619,0.149291,16.2073,32,0.00847597,10,0.00241959,-1.79029,0.678594,0.0869445,54.9745,0.149291,
2,1,0,1,0,62265.4,0.159616,0.159269,16.57,32,0.00929723,10,0.00263908,-1.78068,4.47125,0.0131954,8.52503,0.159269,
2,1,0,1,0,62265.4,0.169595,0.169249,16.3102,32,0.0101206,10,0.00276049,-1.78754,-0.573863,-0.102812,-65.3833,0.169249,
2,1,0,1,0,62265.5,0.179573,0.179232,15.271,32,0.0109115,10,0.00273704,-1.81613,-0.251301,-0.234778,-139.824,0.179232,
2,1,0,1,0,62265.5,0.18957,0.189224,13.7264,32,0.0116373,10,0.00259737,-1.86244,-0.198018,-0.297953,-159.664,0.189224,
2,1,0,1,0,62265.6,0.199558,0.199221,12.2195,32,0.0122836,10,0.00243438,-1.91295,-0.205381,-0.287271,-136.929,0.199221,
2,1,0,1,0,62265.6,0.209537,0.209187,10.9936,32,0.0128611,10,0.00229972,-1.95886,-0.232257,-0.254029,-109.106,0.209187,
2,1,0,1,0,62265.7,0.219534,0.219183,10.0788,32,0.0133866,10,0.00220911,-1.99659,-0.295328,-0.199778,-78.5678,0.219183,
2,1,0,1,0,62265.7,0.229531,0.229143,9.38117,32,0.0138723,10,0.00214963,-2.02774,-0.364425,-0.161899,-59.354,0.229143,
2,1,0,1,0,62265.8,0.23951,0.239157,8.87735,32,0.0143274,10,0.00212308,-2.05172,-0.482625,-0.122248,-42.3441,0.239157,
2,1,0,1,0,62265.8,0.249498,0.24917,8.47533,32,0.0147599,10,0.0021118,-2.07184,-0.579587,-0.101797,-33.7087,0.2491702,
2,1,0,1,0,62265.9,0.259495,0.259155,8.17453,32,0.0151758,10,0.00211847,-2.08754,-0.627422,-0.0940356,-29.9705,0.259155,
2,1,0,1,0,62265.9,0.269474,0.2691,7.91591,32,0.0155769,10,0.00213017,-2.1015,-0.834705,-0.0706837,-21.8581,0.2691001,
2,1,0,1,0,62266,0.279453,0.279111,7.71427,32,0.0159667,10,0.00215314,-2.11271,-0.903105,-0.0653302,-19.6495,0.279111,
2,1,0,1,0,62266,0.28945,0.289121,7.52781,32,0.0163477,10,0.00217645,-2.12333,-1.13642,-0.0519175,-15.2707,0.289121,
2,1,0,1,0,62266.1,0.299438,0.299115,7.37984,32,0.0167195,10,0.00220742,-2.13195,-0.0818943,-0.720441,-201.341,0.299115,
2,1,0,1,0,62266.1,0.291747,0.291408,1.84949,32,0.0169059,10,0.000538957,-2.73295,0.0108345,5.44557,385.134,0.291408,
2,0,0,1,0,62266.2,0.28175,0.281417,-0.742495,32,0.0169251,10,-0.000208951,-3.12931,-0.00849651,-6.94403,178.164,0.281417,
2,0,0,1,0,62266.2,0.27178,0.271469,-2.09899,32,0.0168512,10,-0.000569812,-2.67799,-0.0453328,-1.30148,105.538,0.271469,
2,0,0,1,0,62266.3,0.261783,0.261462,-2.94691,32,0.0167236,10,-0.000770503,-2.53063,-0.0987071,-0.597728,68.5752,0.261462,
2,0,0,1,0,62266.3,0.251786,0.251432,-3.54099,32,0.0165606,10,-0.000890319,-2.45088,-0.159776,-0.369266,50.9393,0.251432,
2,0,0,1,0,62266.4,0.241807,0.24142,-3.98936,32,0.0163721,10,-0.000963114,-2.3991,-0.219476,-0.268822,41.938,0.24142,
2,0,0,1,0,62266.4,0.231824,0.231501,-4.36873,32,0.0161632,10,-0.00101137,-2.35964,-0.288298,-0.204649,34.8372,0.231501,
2,0,0,1,0,62266.5,0.221822,0.22147,-4.68036,32,0.0159367,10,-0.00103656,-2.32972,-0.37104,-0.159012,29.0527,0.22147,
2,0,0,1,0,62266.5,0.211843,0.211476,-4.97066,32,0.0156958,10,-0.00105118,-2.30359,-0.466929,-0.126357,24.4675,0.2114763,
2,0,0,1,0,62266.6,0.201865,0.201561,-5.22559,32,0.0154413,10,-0.00105328,-2.28186,-0.499389,-0.118144,24.1345,0.201561,
2,0,0,1,0,62266.6,0.191868,0.191451,-5.48776,32,0.0151734,10,-0.00105064,-2.26061,-0.485698,-0.121475,26.0048,0.191451,
2,0,0,1,0,62266.7,0.18188,0.181503,-5.74966,32,0.0148932,10,-0.00104358,-2.24036,-0.437543,-0.134844,30.2414,0.181503,
2,0,0,1,0,62266.7,0.171901,0.171547,-6.02873,32,0.0145995,10,-0.00103421,-2.21977,-0.447046,-0.131977,31.0487,0.171547,
2,0,0,1,0,62266.8,0.161904,0.161573,-6.36054,32,0.0142899,10,-0.00102769,-2.19651,-0.404345,-0.145915,36.2394,0.161573,
2,0,0,1,0,62266.8,0.151907,0.151558,-6.79568,32,0.0139615,10,-0.00102994,-2.16777,-0.311683,-0.189295,50.2512,0.151558,
2,0,0,1,0,62266.9,0.141928,0.141564,-7.45973,32,0.0136069,10,-0.00105603,-2.12728,-0.201685,-0.292536,85.2529,0.141564,
2,0,0,1,0,62266.9,0.13194,0.131612,-8.51736,32,0.0132102,10,-0.00112099,-2.06969,-0.152007,-0.38814,129.041,0.1316123,
2,0,0,1,0,62267,0.121943,0.121591,-9.99502,32,0.0127485,10,-0.00121531,-2.00022,-0.150267,-0.392634,152.964,0.121591,
2,0,0,1,0,62267,0.111964,0.111606,-11.5759,32,0.0122102,10,-0.00129194,-1.93644,-0.172356,-0.342315,154.577,0.111606,
2,0,0,1,0,62267.1,0.101985,0.101688,-13.0309,32,0.0115952,10,-0.00132509,-1.88502,-0.224838,-0.262411,133.344,0.101688,
2,0,0,1,0,62267.1,0.0919883,0.0916339,-14.2022,32,0.0109128,10,-0.0013014,-1.84764,-0.312734,-0.188659,104.536,0.0916339,
2,0,0,1,0,62267.2,0.0820004,0.0816666,-15.0083,32,0.0101819,10,-0.00122568,-1.82367,-0.593626,-0.0993892,58.1745,0.0816666,
2,0,0,1,0,62267.2,0.0720215,0.0716989,-15.3491,32,0.00942284,10,-0.00110051,-1.81392,-2.57533,-0.0229097,13.7211,0.0716989,
2,0,0,1,0,62267.3,0.0620245,0.0616763,-15.3616,32,0.00865401,10,-0.000947446,-1.81356,3.03238,0.0194567,-11.6618,0.0616763,
2,0,0,1,0,62267.3,0.0520275,0.0516356,-15.2357,32,0.00788889,10,-0.000786704,-1.81714,2.14351,0.027525,-16.358,0.0516356,
2,0,0,1,0,62267.4,0.0420486,0.0416819,-15.0521,32,0.00713301,10,-0.000627401,-1.8224,1.97514,0.0298713,-17.5588,0.0416819,
2,0,0,1,0,62267.4,0.0320607,0.0316971,-14.8446,32,0.00638685,10,-0.000470531,-1.82843,1.3406,0.0440103,-25.4757,0.0316971,
2,0,0,1,0,62267.5,0.0220637,0.0217162,-14.5488,32,0.00565182,10,-0.000315943,-1.83717,1.00991,0.0584209,-33.1663,0.0217162,
2,0,0,1,0,62267.5,0.0120848,0.0117005,-14.1678,32,0.00493513,10,-0.00016577,-1.8487,0.705946,0.0835758,-46.1853,0.0117005,
2,0,0,1,0,62267.6,0.00210598,0.00171789,-13.7137,32,0.00424026,10,-2.35587e-05,-1.86284,0.695946,0.0847767,-45.2949,0.001717887,
2,0,0,1,0,62267.6,-0.00789103,-0.00826652,-13.1889,32,0.0035679,10,0.000109026,-1.87979,0.666169,0.0885661,-45.6153,-0.00826652,
2,0,0,1,0,62267.7,-0.017879,-0.0182889,-12.7814,32,0.00292018,10,0.000233758,-1.89342,0.843291,0.069964,-34.9078,-0.0182889,
2,0,0,1,0,62267.7,-0.0278578,-0.0282535,-12.4927,32,0.00229022,10,0.000352964,-1.90334,1.28326,0.0459766,-22.4264,-0.02825355,
2,0,0,1,0,62267.8,-0.0378549,-0.038218,-12.3455,32,0.00166986,10,0.000471819,-1.90849,3.459,0.017057,-8.21618,-0.03821801,
2,0,0,1,0,62267.8,-0.0478519,-0.0482189,-12.3131,32,0.00105388,10,0.000593724,-1.90963,-4.29121,-0.013749,6.61059,-0.0482189,
2,0,0,1,0,62267.9,-0.0578126,-0.0582233,-12.3962,32,0.000438802,10,0.000721746,-1.90671,-2.22292,-0.0265416,12.8472,-0.0582233,
2,0,0,1,0,62267.9,-0.0678187,-0.0682328,-12.5735,32,-0.000185085,10,0.000857928,-1.90054,-1.19841,-0.049232,24.1546,-0.0682328,
2,0,0,1,0,62268,-0.0778157,-0.0782294,-12.8195,32,-0.000819673,10,0.00100286,-1.89213,-1.08771,-0.0542424,27.1458,-0.0782294,
2,0,0,1,0,62268,-0.0877945,-0.0882145,-13.1634,32,-0.00146766,10,0.0011612,-1.88063,-0.814455,-0.0724411,37.2273,-0.0882145,
2,0,0,1,0,62268.1,-0.0977734,-0.0981921,-13.5842,32,-0.00213474,10,0.00133386,-1.86697,-0.655873,-0.0899565,47.694,-0.0981921,
2,0,0,1,1,62268.1,-0.0936874,-0.0941006,-7.59168,32,-0.00260586,10,0.000714381,-2.11966,-0.0264088,-2.2341,663.656,-0.0941006,
2,0,0,1,1,62268.1,-0.0837086,-0.0841291,-2.51045,32,-0.00284685,10,0.000211202,-2.60025,-0.0137706,-4.28449,408.202,-0.0841291,
2,1,0,1,1,62268.2,-0.0737025,-0.074103,0.88793,32,-0.00288198,10,-6.57983e-05,-3.05162,0.00575443,10.253,286.472,-0.074103,
2,1,0,1,1,62268.2,-0.0637236,-0.0641788,3.31354,32,-0.00277383,10,-0.000212659,-2.47971,0.0361508,1.63205,209.595,-0.0641788,
2,1,0,1,1,62268.3,-0.0537447,-0.0541256,5.13457,32,-0.00256062,10,-0.000277911,-2.2895,0.0760006,0.776309,154.856,-0.0541256,
2,1,0,1,1,62268.3,-0.0437477,-0.0441646,6.47874,32,-0.00226829,10,-0.000286131,-2.18851,0.132184,0.446348,112.855,-0.0441646,
2,1,0,1,1,62268.4,-0.0337507,-0.034109,7.48537,32,-0.00191768,10,-0.000255319,-2.12579,0.202121,0.291904,85.1671,-0.034109,
2,1,0,1,1,62268.4,-0.0237809,-0.0241879,8.19816,32,-0.00152612,10,-0.000198297,-2.08628,0.308272,0.191389,61.2004,-0.02418795,
2,1,0,1,1,62268.5,-0.0137839,-0.0141801,8.70162,32,-0.00110281,10,-0.00012339,-2.0604,0.51651,0.114228,38.7584,-0.01418012,
2,1,0,1,1,62268.5,-0.0037869,-0.00421654,9.03667,32,-0.000658703,10,-3.81034e-05,-2.04399,0.737219,0.0800305,28.23,-0.00421654,
2,1,0,1,1,62268.6,-2.55332e-05,-0.000401673,9.11671,32,-0.000488769,10,-3.66193e-06,-2.04016, , , ,-0.000401673,