File: Figure_codes/Fig_3-5/rawdata_trumpetplot_data/after 10th/20221101_1-115_003_TrumpetPlot_ParaChange_from10_every3_13_CV_C01_24.csv
mode,ox/red,error,control changes,counter inc.,time/s,control/V,Ewe/V,<I>/mA,cycle number,(Q-Qo)/C,I Range,P/W,log(|I|),Tafel slope mV/dec,alpha_eff,dI/d(E-IR),E-IR/V,
2,1,0,1,0,48481,2.44065e-05,-0.000268062,16.674,25,0.0000000E+000,10,-4.46967e-06,-1.77796, , , ,-0.000268062,
2,1,0,1,0,48481,0.0122624,0.0119139,20.6316,25,0.000286473,10,0.000245803,-1.68547,0.189294,0.311685,249.166,0.0119139,
2,1,0,1,0,48481,0.0250636,0.0247056,23.4558,25,0.000640397,10,0.000579488,-1.62975,0.268048,0.22011,200.9,0.0247056,
2,1,0,1,0,48481,0.0378704,0.037511,25.8351,25,0.00103546,10,0.000969102,-1.58779,0.34399,0.171516,172.581,0.037511,
2,1,0,1,0,48481,0.0506632,0.0503292,27.9459,25,0.00146611,10,0.00140649,-1.55368,0.40368,0.146155,159.181,0.0503292,
2,1,0,1,0,48481.1,0.0634672,0.0630987,29.9262,25,0.00192929,10,0.0018883,-1.52395,0.453323,0.13015,151.87,0.0630987,
2,1,0,1,0,48481.1,0.0762628,0.0759211,31.8521,25,0.00242376,10,0.00241825,-1.49686,0.481136,0.122627,152.423,0.0759211,
2,1,0,1,0,48481.1,0.0890668,0.0887191,33.799,25,0.00294925,10,0.00299861,-1.4711,0.506036,0.116593,153.824,0.08871913,
2,1,0,1,0,48481.1,0.10186,0.1015,35.7715,25,0.00350611,10,0.00363081,-1.44646,0.536348,0.110003,153.582,0.1015,
2,1,0,1,0,48481.1,0.114666,0.114279,37.7788,25,0.00409477,10,0.00431733,-1.42275,0.548572,0.107552,158.545,0.114279,
2,1,0,1,0,48481.1,0.127462,0.127049,39.8548,25,0.0047158,10,0.0050635,-1.39952,0.55234,0.106818,166.105,0.127049,
2,1,0,1,0,48481.2,0.140263,0.13987,41.9941,25,0.00537078,10,0.00587371,-1.37681,0.548394,0.107587,176.483,0.13987,
2,1,0,1,0,48481.2,0.153064,0.152666,44.356,25,0.00606155,10,0.00677164,-1.35305,0.557412,0.105846,183.14,0.152666,
2,1,0,1,0,48481.2,0.165866,0.165483,46.6508,25,0.00679013,10,0.00771992,-1.33114,0.630846,0.0935252,170.108,0.165483,
2,1,0,1,0,48481.2,0.178667,0.17824,48.7091,25,0.00755352,10,0.00868189,-1.31239,0.766603,0.0769629,146.081,0.17824,
2,1,0,1,0,48481.2,0.191463,0.191085,50.3169,25,0.00834665,10,0.00961483,-1.29829,1.14896,0.0513507,100.641,0.191085,
2,1,0,1,0,48481.2,0.204269,0.2039,51.1867,25,0.00916002,10,0.010437,-1.29084,3.68175,0.016025,31.9387,0.2039,
2,1,0,1,0,48481.3,0.217062,0.216707,51.091,25,0.00997971,10,0.0110718,-1.29166,-2.55882,-0.0230575,-45.8741,0.216707,
2,1,0,1,0,48481.3,0.229866,0.229549,50.0337,25,0.01079,10,0.0114852,-1.30074,-0.959148,-0.0615129,-119.824,0.229549,
2,1,0,1,0,48481.3,0.242662,0.242342,48.0698,25,0.0115757,10,0.0116493,-1.31813,-0.6086,-0.0969439,-181.508,0.242342,
2,1,0,1,0,48481.3,0.255466,0.255188,45.4513,25,0.0123243,10,0.0115986,-1.34245,-0.474962,-0.12422,-220.081,0.255188,
2,1,0,1,0,48481.3,0.268259,0.267943,42.5165,25,0.0130279,10,0.011392,-1.37144,-0.42538,-0.1387,-230.131,0.267943,
2,1,0,1,0,48481.3,0.281065,0.280723,39.6246,25,0.0136847,10,0.0111235,-1.40204,-0.419005,-0.14081,-217.886,0.280723,
2,1,0,1,0,48481.4,0.293861,0.293564,36.9762,25,0.014297,10,0.0108549,-1.43208,-0.436026,-0.135313,-195.791,0.2935642,
2,1,0,1,0,48481.4,0.298983,0.298807,33.7706,25,0.0146216,10,0.0100909,-1.47146,0.0447164,1.31943,1555.18,0.298807,
2,1,0,1,0,48481.4,0.286187,0.28591,18.9686,25,0.0150285,10,0.0054233,-1.72197,0.0502744,1.17356,871.016,0.28591,
2,1,0,1,0,48481.4,0.273386,0.273072,9.80108,25,0.0152534,10,0.0026764,-2.00873,0.0364941,1.6167,605.452,0.273072,
2,1,0,1,0,48481.4,0.260585,0.260309,3.17493,25,0.0153539,10,0.000826463,-2.49827,0.0116915,5.0464,448.201,0.260309,
2,0,0,1,0,48481.4,0.247783,0.247492,-1.83735,25,0.0153623,10,-0.000454729,-2.73581,-0.0143691,-4.10603,344.091,0.247492,
2,0,0,1,0,48481.4,0.234982,0.23468,-5.74676,25,0.0152999,10,-0.00134865,-2.24058,-0.0463723,-1.27231,271.221,0.23468,
2,0,0,1,0,48481.5,0.222187,0.221887,-8.86579,25,0.0151818,10,-0.0019672,-2.05228,-0.0908193,-0.649641,221.055,0.221887,
2,0,0,1,0,48481.5,0.20938,0.209065,-11.4352,25,0.0150185,10,-0.00239069,-1.94176,-0.142885,-0.41292,182.783,0.209065,
2,0,0,1,0,48481.5,0.196587,0.196291,-13.5904,25,0.0148176,10,-0.00266768,-1.86677,-0.198872,-0.296673,156.72,0.196291,
2,0,0,1,0,48481.5,0.183783,0.183478,-15.4821,25,0.0145844,10,-0.00284063,-1.81017,-0.252231,-0.233913,141.007,0.183478,
2,0,0,1,0,48481.5,0.170987,0.170651,-17.1951,25,0.0143226,10,-0.00293437,-1.76459,-0.302191,-0.19524,130.961,0.170651,
2,0,0,1,0,48481.5,0.158183,0.15789,-18.8941,25,0.0140337,10,-0.0029832,-1.72367,-0.319712,-0.184541,136.085,0.1578905,
2,0,0,1,0,48481.6,0.145385,0.145089,-20.7341,25,0.0137168,10,-0.0030083,-1.68331,-0.304894,-0.19351,156.851,0.1450893,
2,0,0,1,0,48481.6,0.132584,0.132238,-23.0017,25,0.0133673,10,-0.00304171,-1.63824,-0.260181,-0.226765,204.166,0.132238,
2,0,0,1,0,48481.6,0.119782,0.119506,-25.979,25,0.0129761,10,-0.00310464,-1.58538,-0.229441,-0.257147,261.28,0.1195059,
2,0,0,1,0,48481.6,0.106987,0.106706,-29.6512,25,0.0125313,10,-0.00316395,-1.52796,-0.226084,-0.260964,301.835,0.106706,
2,0,0,1,0,48481.6,0.0941801,0.0938515,-33.5738,25,0.012025,10,-0.00315095,-1.474,-0.255119,-0.231265,302.417,0.0938515,
2,0,0,1,0,48481.6,0.0813844,0.0811659,-37.2494,25,0.0114573,10,-0.00302338,-1.42888,-0.308845,-0.191034,277.458,0.0811659,
2,0,0,1,0,48481.6,0.0685832,0.0683487,-40.5957,25,0.0108333,10,-0.00277467,-1.39152,-0.396311,-0.148873,235.367,0.0683487,
2,0,0,1,0,48481.7,0.0557876,0.055503,-43.2994,25,0.0101608,10,-0.00240324,-1.36352,-0.531016,-0.111108,187.432,0.055503,
2,0,0,1,0,48481.7,0.0429808,0.0427155,-45.4141,25,0.00945007,10,-0.00193989,-1.34281,-0.726077,-0.0812586,143.789,0.0427155,
2,0,0,1,0,48481.7,0.030188,0.0299185,-46.9947,25,0.00870991,10,-0.00140601,-1.32795,-1.06586,-0.0553543,101.36,0.0299185,
2,0,0,1,0,48481.7,0.017384,0.0170123,-48.0751,25,0.00794872,10,-0.00081787,-1.31808,-1.60955,-0.0366562,68.6857,0.0170123,
2,0,0,1,0,48481.7,0.00458834,0.00427896,-48.7134,25,0.00717369,10,-0.000208443,-1.31235,-2.91477,-0.0202417,38.4716,0.00427896,
2,0,0,1,0,48481.7,-0.00821564,-0.00857211,-49.0118,25,0.00639088,10,0.000420135,-1.3097,-20.8983,-0.0028232,5.39683,-0.008572109,
2,0,0,1,0,48481.8,-0.0210196,-0.0213945,-48.9087,25,0.00560691,10,0.00104638,-1.31061,4.62292,0.0127625,-24.3363,-0.0213945,
2,0,0,1,0,48481.8,-0.0338153,-0.0342053,-48.4563,25,0.00482768,10,0.00165746,-1.31465,2.4671,0.0239148,-45.1868,-0.0342053,
2,0,0,1,0,48481.8,-0.0466193,-0.0469981,-47.7744,25,0.00405777,10,0.00224531,-1.3208,1.88595,0.0312839,-58.3018,-0.04699808,
2,0,0,1,0,48481.8,-0.0594121,-0.0598258,-46.983,25,0.00329968,10,0.0028108,-1.32806,1.82855,0.0322659,-59.1843,-0.0598258,
2,0,0,1,0,48481.8,-0.0722189,-0.0725677,-46.2735,25,0.00255363,10,0.00335796,-1.33467,2.12935,0.0277079,-50.0674,-0.0725677,
2,0,0,1,0,48481.8,-0.0850146,-0.0853763,-45.7142,25,0.00181793,10,0.00390291,-1.33995,2.83809,0.0207886,-37.1123,-0.08537633,
2,0,0,1,0,48481.9,-0.0978158,-0.0982072,-45.3736,25,0.00108953,10,0.00445602,-1.3432,5.98351,0.00986044,-17.469,-0.09820725,
2,0,0,1,0,48481.9,-0.110611,-0.110975,-45.2582,25,0.000364817,10,0.00502251,-1.3443,-162.93,-0.000362118,0.640013,-0.110975,
2,0,0,1,0,48481.9,-0.123418,-0.123786,-45.3701,25,-0.00036005,10,0.0056162,-1.34323,-5.5754,-0.0105822,18.7543,-0.123786,
2,0,0,1,0,48481.9,-0.136214,-0.136556,-45.6965,25,-0.00108862,10,0.00624012,-1.34012,-3.24468,-0.0181836,32.4583,-0.136556,
2,0,0,1,0,48481.9,-0.149015,-0.149388,-46.2082,25,-0.00182392,10,0.00690295,-1.33528,-2.5377,-0.0232494,41.9332,-0.149388,
2,0,0,1,0,48481.9,-0.161816,-0.162226,-46.7945,25,-0.00256786,10,0.00759128,-1.32981,-2.35448,-0.0250586,45.7445,-0.162226,
2,0,0,1,0,48482,-0.174615,-0.174941,-47.3531,25,-0.00332111,10,0.00828402,-1.32465,-2.50729,-0.0235314,43.4799,-0.1749415,
2,0,0,1,0,48482,-0.187419,-0.187749,-47.8582,25,-0.0040831,10,0.00898533,-1.32004,-2.99773,-0.0196816,36.7611,-0.187749,
2,0,0,1,0,48482,-0.199647,-0.199998,-48.2556,25,-0.00481887,10,0.00965101,-1.31645,0.253697,0.232561,-426.232,-0.199998,
2,0,0,1,1,48482,-0.192535,-0.192963,-36.9668,25,-0.0052451,10,0.00713322,-1.43219,-0.0742823,-0.794267,1170.69,-0.192963,
2,0,0,1,1,48482,-0.179739,-0.180108,-25.5869,25,-0.00573823,10,0.0046084,-1.59198,-0.0794155,-0.742928,743.931,-0.1801078,
2,0,0,1,1,48482,-0.166932,-0.167342,-17.2881,25,-0.00607787,10,0.00289302,-1.76225,-0.0685621,-0.860534,578.427,-0.167342,
2,0,0,1,1,48482,-0.154139,-0.154581,-10.5534,25,-0.00629846,10,0.00163134,-1.97661,-0.0488742,-1.20718,487.877,-0.154581,
2,0,0,1,1,48482.1,-0.141335,-0.141748,-4.77437,25,-0.0064193,10,0.000676755,-2.32108,-0.023317,-2.53034,423.323,-0.141748,
2,1,0,1,1,48482.1,-0.12854,-0.128978,0.326571,25,-0.00645342,10,-4.21205e-05,-3.48602,0.126904,0.464919,376.589,-0.128978,
2,1,0,1,1,48482.1,-0.115736,-0.116179,4.93565,25,-0.0064102,10,-0.000573418,-2.30666,0.0303109,1.9465,344.497,-0.116179,
2,1,0,1,1,48482.1,-0.102932,-0.103403,9.16116,25,-0.00629668,10,-0.000947293,-2.03805,0.0651593,0.905473,316.359,-0.103403,
2,1,0,1,1,48482.1,-0.0901362,-0.0905734,13.0534,25,-0.00611822,10,-0.00118229,-1.88428,0.101352,0.582128,293.668,-0.0905734,
2,1,0,1,1,48482.1,-0.0773322,-0.0777827,16.6565,25,-0.00587978,10,-0.00129559,-1.77842,0.14184,0.415962,268.91,-0.0777827,
2,1,0,1,1,48482.2,-0.0645393,-0.0649306,19.9595,25,-0.00558603,10,-0.00129598,-1.69985,0.184279,0.320167,248.631,-0.0649306,
2,1,0,1,1,48482.2,-0.0517325,-0.0521464,23.0258,25,-0.0052414,10,-0.00120071,-1.63778,0.232715,0.253529,227.146,-0.0521464,
2,1,0,1,1,48482.2,-0.0389369,-0.0393557,25.8111,25,-0.00485009,10,-0.00101582,-1.58819,0.284374,0.207473,208.512,-0.0393557,
2,1,0,1,1,48482.2,-0.0261357,-0.0265057,28.3459,25,-0.00441626,10,-0.000751327,-1.54751,0.346903,0.170076,187.778,-0.0265057,
2,1,0,1,1,48482.2,-0.01334,-0.0137193,30.5927,25,-0.00394411,10,-0.000419711,-1.51438,0.423899,0.139184,166.007,-0.0137193,
2,1,0,1,1,48482.2,-0.000774628,-0.0011588,32.5655,25,-0.00344766,10,-3.7737e-05,-1.48724, , , ,-0.0011588,
2,1,0,0,1,48482.2,-0.000125413,-0.000535284,32.6766,25,-0.00342158,10,-1.74913e-05,-1.48576, , , ,-0.000535284,