File: Figure_codes/Fig_3-5/rawdata_trumpetplot_data/after 10th/20221101_1-115_003_TrumpetPlot_ParaChange_from10_every3_07_CV_C01_13.csv
mode,ox/red,error,control changes,counter inc.,time/s,control/V,Ewe/V,<I>/mA,cycle number,(Q-Qo)/C,I Range,P/W,log(|I|),Tafel slope mV/dec,alpha_eff,dI/d(E-IR),E-IR/V,
2,0,0,0,0,26776.7,2.44065e-05,-0.000325324,-2.71985,14,0.0000000E+000,10,8.8483e-07,-2.56546, , , ,-0.000325324,
2,1,0,1,0,26776.8,0.007288,0.00696679,1.36261,14,9.25762e-06,10,9.49303e-06,-2.86563,0.0150142,3.9296,192.421,0.00696679,
2,1,0,1,0,26777,0.0147816,0.0144637,2.15355,14,0.000240063,10,3.11483e-05,-2.66685,0.0752827,0.783712,65.612,0.0144637,
2,1,0,1,0,26777.1,0.0222712,0.0219336,2.52743,14,0.000536174,10,5.54355e-05,-2.59732,0.147674,0.39953,39.3332,0.0219336,
2,1,0,1,0,26777.2,0.0297648,0.0294481,2.81288,14,0.000871586,10,8.2834e-05,-2.55085,0.183358,0.321775,35.1935,0.0294481,
2,1,0,1,0,26777.3,0.0372518,0.0369183,3.07069,14,0.00124061,10,0.000113365,-2.51276,0.204532,0.288463,34.5677,0.0369183,
2,1,0,1,0,26777.5,0.0447467,0.0444213,3.32406,14,0.00164263,10,0.000147659,-2.47833,0.221952,0.265824,34.5743,0.0444213,
2,1,0,1,0,26777.6,0.052235,0.0518888,3.57941,14,0.00207625,10,0.000185731,-2.44619,0.251444,0.234645,32.797,0.0518888,
2,1,0,1,0,26777.7,0.0597299,0.0594099,3.82433,14,0.00254074,10,0.000227203,-2.41744,0.276707,0.213222,31.7581,0.0594099,
2,1,0,1,0,26777.8,0.0672156,0.0669273,4.04521,14,0.00303334,10,0.000270735,-2.39306,0.32574,0.181126,28.5193,0.0669273,
2,1,0,1,0,26778,0.0747105,0.0743953,4.2312,14,0.00355223,10,0.000314782,-2.37354,0.382476,0.154258,25.4895,0.0743953,
2,1,0,1,0,26778.1,0.0821988,0.0818835,4.39618,14,0.00409328,10,0.000359975,-2.35692,0.569901,0.103527,17.7902,0.08188349,
2,1,0,1,0,26778.2,0.0896937,0.0894265,4.55851,14,0.00465441,10,0.000407652,-2.34118,0.474116,0.124442,22.1295,0.0894265,
2,1,0,1,0,26778.3,0.0971794,0.0968713,4.76004,14,0.00523735,10,0.000461111,-2.32239,0.311384,0.189477,35.2102,0.0968713,
2,1,0,1,0,26778.5,0.104674,0.104406,5.08008,14,0.00585246,10,0.000530391,-2.29413,0.223113,0.26444,52.4327,0.104406,
2,1,0,1,0,26778.6,0.112163,0.111873,5.48288,14,0.00651336,10,0.000613388,-2.26099,0.229932,0.256598,54.9556,0.111873,
2,1,0,1,0,26778.7,0.119657,0.119393,5.89253,14,0.00722645,10,0.000703529,-2.2297,0.312916,0.188549,43.2581,0.119393,
2,1,0,1,0,26778.8,0.127143,0.126844,6.16641,14,0.00798179,10,0.00078217,-2.20997,0.457308,0.129016,31.0318,0.126844,
2,1,0,1,0,26779,0.134638,0.134326,6.35898,14,0.00876714,10,0.000854177,-2.19661,0.6573,0.0897611,22.298,0.134326,
2,1,0,1,0,26779.1,0.142126,0.141869,6.44022,14,0.00957023,10,0.000913667,-2.1911,-2.25987,-0.0261077,-6.55034,0.141869,
2,1,0,1,0,26779.2,0.149621,0.1493,6.12987,14,0.0103635,10,0.000915189,-2.21255,-0.16853,-0.350087,-83.4236,0.1492999,
2,1,0,1,0,26779.3,0.157107,0.156786,5.23991,14,0.0110795,10,0.000821547,-2.28068,-0.0851584,-0.692826,-141.196,0.1567864,
2,1,0,1,0,26779.5,0.164602,0.164286,4.21548,14,0.0116694,10,0.000692543,-2.37515,-0.0828513,-0.712119,-117.542,0.1642855,
2,1,0,1,0,26779.6,0.17209,0.171803,3.52031,14,0.0121507,10,0.000604802,-2.45342,-0.113156,-0.521406,-71.9866,0.171803,
2,1,0,1,0,26779.7,0.179585,0.179279,3.12653,14,0.012566,10,0.00056052,-2.50494,-0.170649,-0.34574,-42.292,0.179279,
2,1,0,1,0,26779.8,0.187072,0.186786,2.90298,14,0.0129428,10,0.000542237,-2.53716,-0.308,-0.191558,-21.6482,0.186786,
2,1,0,1,0,26780,0.194566,0.194229,2.75795,14,0.0132971,10,0.000535673,-2.55941,-0.542431,-0.108769,-11.7039,0.194229,
2,1,0,1,0,26780.1,0.202055,0.201727,2.65942,14,0.0136368,10,0.000536478,-2.57521,-0.580212,-0.101687,-10.5614,0.201727,
2,1,0,1,0,26780.2,0.209549,0.209248,2.60608,14,0.0139674,10,0.000545317,-2.58401,-0.572681,-0.103024,-10.4608,0.209248,
2,1,0,1,0,26780.3,0.217036,0.21674,2.55368,14,0.0142908,10,0.000553485,-2.59283,-0.960455,-0.0614292,-6.1207,0.21674,
2,1,0,1,0,26780.5,0.224529,0.224229,2.51892,14,0.0146095,10,0.000564815,-2.59879,-2.4678,-0.0239079,-2.35292,0.224229,
2,1,0,1,0,26780.6,0.232019,0.23174,2.48747,14,0.0149239,10,0.000576448,-2.60424,-2.9694,-0.0198693,-1.93103,0.23174,
2,1,0,1,0,26780.7,0.239513,0.23922,2.46689,14,0.0152355,10,0.000590128,-2.60785,-1.72085,-0.0342853,-3.30045,0.23922,
2,1,0,1,0,26780.8,0.247001,0.246689,2.44996,14,0.0155439,10,0.000604377,-2.61084,-1.20861,-0.0488163,-4.64826,0.246689,
2,1,0,1,0,26781,0.254493,0.25423,2.42484,14,0.0158501,10,0.000616468,-2.61532,-2.18349,-0.027021,-2.55668,0.25423,
2,1,0,1,0,26781.1,0.261983,0.261693,2.40124,14,0.0161535,10,0.000628389,-2.61956,-1.94179,-0.0303843,-2.85404,0.261693,
2,1,0,1,0,26781.2,0.269477,0.269169,2.3885,14,0.0164548,10,0.000642909,-2.62187,-2.89861,-0.0203546,-1.89488,0.269169,
2,1,0,1,0,26781.3,0.276965,0.276682,2.37082,14,0.0167535,10,0.000655965,-2.6251,-2.78868,-0.021157,-1.95219,0.276682,
2,1,0,1,0,26781.5,0.284457,0.284166,2.34715,14,0.0170499,10,0.000666981,-2.62946,-36.1083,-0.00163397,-0.149659,0.284166,
2,1,0,1,0,26781.6,0.291947,0.291673,2.32398,14,0.0173434,10,0.000677843,-2.63377,-2.35281,-0.0250764,-2.27413,0.291673,
2,1,0,1,0,26781.7,0.29944,0.299183,2.30338,14,0.0176345,10,0.000689131,-2.63763,-0.00640282,-9.21469,-615.465,0.299183,
2,0,0,1,0,26781.8,0.293742,0.293424,-0.542415,14,0.0176766,10,-0.000159158,-3.26567,-0.0100433,-5.87454,103.839,0.293424,
2,0,0,1,0,26781.9,0.286254,0.285885,-0.930324,14,0.017578,10,-0.000265965,-3.03137,-0.0642059,-0.918918,33.0802,0.285885,
2,0,0,1,0,26782.1,0.278761,0.278477,-1.11264,14,0.0174473,10,-0.000309845,-2.95365,-0.120619,-0.489142,21.2057,0.278477,
2,0,0,1,0,26782.2,0.271272,0.27093,-1.24115,14,0.0172975,10,-0.000336264,-2.90618,-0.169839,-0.347387,16.9046,0.27093,
2,0,0,1,0,26782.3,0.263778,0.263491,-1.34936,14,0.017133,10,-0.000355545,-2.86987,-0.278291,-0.212008,11.1558,0.2634913,
2,0,0,1,0,26782.4,0.25629,0.255977,-1.44202,14,0.0169568,10,-0.000369126,-2.84103,-0.282748,-0.208667,11.6652,0.255977,
2,0,0,1,0,26782.6,0.248797,0.248465,-1.51687,14,0.0167699,10,-0.000376889,-2.81905,-0.334829,-0.176209,10.4281,0.248465,
2,0,0,1,0,26782.7,0.241308,0.24101,-1.58418,14,0.0165738,10,-0.000381804,-2.80019,-0.41223,-0.143124,8.8932,0.24101,
2,0,0,1,0,26782.8,0.233814,0.233494,-1.65334,14,0.016369,10,-0.000386045,-2.78164,-0.52468,-0.11245,7.2618,0.233494,
2,0,0,1,0,26782.9,0.226326,0.226051,-1.72366,14,0.016156,10,-0.000389636,-2.76355,-0.484831,-0.121692,8.17893,0.226051,
2,0,0,1,0,26783.1,0.218834,0.21851,-1.7842,14,0.0159349,10,-0.000389865,-2.74856,-0.365435,-0.161451,11.2514,0.21851,
2,0,0,1,0,26783.2,0.211344,0.21106,-1.84418,14,0.0157062,10,-0.000389233,-2.7342,-0.514612,-0.11465,8.25698,0.21106,
2,0,0,1,0,26783.3,0.203856,0.203536,-1.91028,14,0.0154694,10,-0.000388811,-2.7189,-0.812644,-0.0726025,5.42566,0.203536,
2,0,0,1,0,26783.4,0.196362,0.196054,-1.98041,14,0.0152244,10,-0.000388267,-2.70324,-0.515712,-0.114405,8.83341,0.196054,
2,0,0,1,0,26783.6,0.18887,0.188542,-2.0515,14,0.0149706,10,-0.000386796,-2.68793,-0.357414,-0.165074,13.2212,0.188542,
2,0,0,1,0,26783.7,0.18138,0.181052,-2.13219,14,0.014707,10,-0.000386039,-2.67117,-0.389477,-0.151485,12.6547,0.1810524,
2,0,0,1,0,26783.8,0.173892,0.17356,-2.24055,14,0.0144317,10,-0.00038887,-2.64964,-0.370211,-0.159368,13.9483,0.17356,
2,0,0,1,0,26783.9,0.166398,0.166073,-2.38228,14,0.0141413,10,-0.000395631,-2.62301,-0.28386,-0.207849,19.3066,0.166073,
2,0,0,1,0,26784.1,0.158905,0.158594,-2.5655,14,0.0138311,10,-0.000406871,-2.59083,-0.187265,-0.315061,31.5635,0.158594,
2,0,0,1,0,26784.2,0.151417,0.151079,-2.85351,14,0.0134917,10,-0.000431106,-2.54462,-0.135053,-0.436866,48.909,0.151079,
2,0,0,1,0,26784.3,0.143927,0.143601,-3.33275,14,0.0131055,10,-0.000478586,-2.4772,-0.0958969,-0.615244,80.1458,0.143601,
2,0,0,1,0,26784.4,0.136435,0.136071,-4.05361,14,0.0126446,10,-0.000551581,-2.39216,-0.0862499,-0.684059,107.931,0.136071,
2,0,0,1,0,26784.6,0.128941,0.128631,-4.89073,14,0.0120849,10,-0.000629102,-2.31063,-0.101168,-0.583187,110.929,0.128631,
2,0,0,1,0,26784.7,0.121453,0.121152,-5.6252,14,0.0114246,10,-0.000681504,-2.24986,-0.14662,-0.402402,88.3316,0.121152,
2,0,0,1,0,26784.8,0.113963,0.113663,-6.16907,14,0.0106833,10,-0.000701194,-2.20978,-0.257625,-0.229015,55.136,0.113663,
2,0,0,1,0,26784.9,0.106471,0.106121,-6.47227,14,0.00988884,10,-0.000686843,-2.18894,-0.716753,-0.0823157,20.7634,0.106121,
2,0,0,1,0,26785.1,0.0989825,0.0986884,-6.51124,14,0.009074,10,-0.000642584,-2.18634,1.56488,0.0377025,-9.55634,0.0986884,
2,0,0,1,0,26785.2,0.0914889,0.0911826,-6.3081,14,0.0082697,10,-0.000575189,-2.2001,0.448735,0.131481,-32.3779,0.0911826,
2,0,0,1,0,26785.3,0.0839993,0.0836774,-6.0117,14,0.00749812,10,-0.000503043,-2.221,0.341539,0.172747,-40.5804,0.0836774,
2,0,0,1,0,26785.4,0.076507,0.0761997,-5.77584,14,0.00676074,10,-0.000440118,-2.23838,0.452297,0.130445,-29.3853,0.0761997,
2,0,0,1,0,26785.6,0.0690187,0.0687095,-5.59763,14,0.00604973,10,-0.00038461,-2.252,0.68554,0.0860635,-18.7872,0.0687095,
2,0,0,1,0,26785.7,0.0615251,0.0612261,-5.44639,14,0.00535759,10,-0.000333461,-2.26389,0.708143,0.0833165,-17.7446,0.0612261,
2,0,0,1,0,26785.8,0.0540355,0.0537042,-5.30691,14,0.00468392,10,-0.000285003,-2.27516,0.628113,0.0939321,-19.4698,0.0537042,
2,0,0,1,0,26785.9,0.0465432,0.0462191,-5.15594,14,0.00402817,10,-0.000238303,-2.28769,0.544907,0.108275,-21.7715,0.0462191,
2,0,0,1,0,26786.1,0.0390549,0.0387188,-4.98809,14,0.00339315,10,-0.000193133,-2.30207,0.463201,0.127374,-24.7605,0.0387188,
2,0,0,1,0,26786.2,0.0315613,0.0311943,-4.79066,14,0.00278014,10,-0.000149441,-2.3196,0.403361,0.146271,-27.3382,0.0311943,
2,0,0,1,0,26786.3,0.0240717,0.023734,-4.57535,14,0.00219292,10,-0.000108591,-2.33958,0.368929,0.159922,-28.6343,0.023734,
2,0,0,1,0,26786.4,0.0165781,0.0162505,-4.38816,14,0.00163088,10,-7.13098e-05,-2.35772,0.403702,0.146148,-25.0403,0.0162505,
2,0,0,1,0,26786.6,0.00909108,0.00874869,-4.23092,14,0.0010914,10,-3.7015e-05,-2.37357,0.579015,0.101897,-16.8229,0.00874869,
2,0,0,1,0,26786.7,0.00159616,0.00125273,-4.15477,14,0.000567838,10,-5.20481e-06,-2.38145, , , ,0.00125273,
2,0,0,1,0,26786.7,0.000199195,-0.000157355,-4.12455,14,0.000470985,10,6.4902e-07,-2.38462, , , ,-0.000157355,