File: Figure_codes/Fig_3-5/rawdata_trumpetplot_data/after 10th/20221101_1-115_003_TrumpetPlot_ParaChange_from10_every3_14_CV_C01_29.csv
mode,ox/red,error,control changes,counter inc.,time/s,control/V,Ewe/V,<I>/mA,cycle number,(Q-Qo)/C,I Range,P/W,log(|I|),Tafel slope mV/dec,alpha_eff,dI/d(E-IR),E-IR/V,
2,1,0,1,0,58332.9,2.44065e-05,-0.000287149,29.9652,30,0.0000000E+000,10,-8.60447e-06,-1.52338, , , ,-0.0002871489,
2,1,0,1,0,58332.9,0.0133084,0.0128979,33.5652,30,0.000420202,10,0.000432922,-1.47411,0.361314,0.163293,213.061,0.0128979,
2,1,0,1,0,58332.9,0.0273414,0.0269102,36.2201,30,0.000909599,10,0.00097469,-1.44105,0.47769,0.123511,174.135,0.0269102,
2,1,0,1,0,58332.9,0.0413245,0.0409584,38.4657,30,0.001433,10,0.0015755,-1.41493,0.58513,0.100832,151.176,0.0409584,
2,1,0,1,0,58332.9,0.0553076,0.0548773,40.4658,30,0.00198594,10,0.00222065,-1.39291,0.670762,0.0879597,138.849,0.0548773,
2,1,0,1,0,58333,0.0693407,0.0689712,42.3296,30,0.00256587,10,0.00291952,-1.37336,0.760242,0.0776069,128.061,0.0689712,
2,1,0,1,0,58333,0.0833238,0.0829007,44.0424,30,0.00317071,10,0.00365114,-1.35613,0.833431,0.0707917,121.666,0.0829007,
2,1,0,1,0,58333,0.0973069,0.0968577,45.7371,30,0.00379941,10,0.00443,-1.33973,0.84819,0.0695598,124.23,0.0968577,
2,1,0,1,0,58333,0.11134,0.11091,47.4848,30,0.00445218,10,0.00526655,-1.32345,0.882354,0.0668666,123.858,0.11091,
2,1,0,1,0,58333,0.125323,0.124795,49.1618,30,0.00512902,10,0.00613516,-1.30837,0.891388,0.0661889,127.154,0.124795,
2,1,0,1,0,58333,0.139306,0.138946,51.0756,30,0.00583073,10,0.00709676,-1.29179,0.836483,0.0705334,140.651,0.138946,
2,1,0,1,0,58333,0.153339,0.152924,53.0995,30,0.00656006,10,0.00812017,-1.27491,0.832501,0.0708708,146.911,0.152924,
2,1,0,1,0,58333.1,0.167322,0.166936,55.2159,30,0.0073184,10,0.00921751,-1.25794,0.841875,0.0700817,150.952,0.166936,
2,1,0,1,0,58333.1,0.181305,0.180851,57.2398,30,0.00810606,10,0.0103519,-1.2423,0.953655,0.0618672,138.134,0.180851,
2,1,0,1,0,58333.1,0.195338,0.194956,59.0122,30,0.00892059,10,0.0115048,-1.22906,1.27285,0.0463528,106.607,0.194956,
2,1,0,1,0,58333.1,0.209322,0.208911,60.2444,30,0.00975619,10,0.0125857,-1.22008,2.21466,0.0266406,62.4997,0.2089109,
2,1,0,1,0,58333.1,0.223305,0.222947,60.7351,30,0.010604,10,0.0135407,-1.21656,13.5454,0.00435572,10.3069,0.222947,
2,1,0,1,0,58333.1,0.237338,0.236947,60.4932,30,0.0114536,10,0.0143337,-1.21829,-2.99672,-0.0196882,-46.4021,0.236947,
2,1,0,1,0,58333.1,0.251321,0.250924,59.5011,30,0.0122943,10,0.0149303,-1.22547,-1.41342,-0.0417427,-96.7251,0.250924,
2,1,0,1,0,58333.2,0.265304,0.264955,57.7885,30,0.013116,10,0.0153114,-1.23816,-0.928021,-0.0635761,-143.15,0.264955,
2,1,0,1,0,58333.2,0.279337,0.27898,55.4936,30,0.0139094,10,0.0154816,-1.25576,-0.701118,-0.0841513,-182.031,0.27898,
2,1,0,1,0,58333.2,0.29332,0.292987,52.8061,30,0.0146675,10,0.0154715,-1.27732,-0.617002,-0.0956237,-197.482,0.292987,
2,1,0,1,0,58333.2,0.298714,0.298486,48.9262,30,0.0150809,10,0.0146038,-1.31046,0.0634421,0.929981,1621.98,0.298486,
2,1,0,1,0,58333.2,0.28473,0.284479,32.4327,30,0.0156373,10,0.0092264,-1.48902,0.0807243,0.730882,929.96,0.284479,
2,1,0,1,0,58333.2,0.270747,0.270454,21.3552,30,0.016009,10,0.00577558,-1.6705,0.0706191,0.835469,693.187,0.270454,
2,1,0,1,0,58333.2,0.256714,0.256409,12.7658,30,0.0162445,10,0.00327327,-1.89395,0.0531126,1.11085,544.08,0.256409,
2,1,0,1,0,58333.2,0.242731,0.242411,5.93047,30,0.0163731,10,0.00143761,-2.22691,0.0282469,2.08873,439.555,0.242411,
2,1,0,1,0,58333.3,0.228748,0.228441,0.364309,30,0.0164153,10,8.32232e-05,-3.43853,0.107975,0.546425,362.578,0.228441,
2,0,0,1,0,58333.3,0.214715,0.214385,-4.29399,30,0.0163861,10,-0.000920566,-2.36714,-0.0279614,-2.11005,301.499,0.214385,
2,0,0,1,0,58333.3,0.200732,0.200362,-8.20378,30,0.0162976,10,-0.00164373,-2.08599,-0.0705671,-0.836084,258.75,0.200362,
2,0,0,1,0,58333.3,0.186735,0.186397,-11.5857,30,0.0161583,10,-0.00215954,-1.93608,-0.115561,-0.510552,227.78,0.1863974,
2,0,0,1,0,58333.3,0.172716,0.172386,-14.5935,30,0.0159742,10,-0.00251573,-1.83584,-0.163201,-0.361517,204.665,0.172386,
2,0,0,1,0,58333.3,0.158733,0.158356,-17.3949,30,0.0157499,10,-0.00275459,-1.75958,-0.201122,-0.293355,198.585,0.158356,
2,0,0,1,0,58333.3,0.144719,0.144432,-20.234,30,0.0154865,10,-0.00292243,-1.69392,-0.219918,-0.268281,211.799,0.144432,
2,0,0,1,0,58333.4,0.130717,0.130413,-23.3552,30,0.0151815,10,-0.00304583,-1.63162,-0.222262,-0.265452,242.554,0.130413,
2,0,0,1,0,58333.4,0.116733,0.116385,-27.1005,30,0.0148288,10,-0.00315409,-1.56702,-0.214529,-0.275021,291.114,0.116385,
2,0,0,1,0,58333.4,0.102703,0.102374,-31.4576,30,0.0144193,10,-0.00322044,-1.50227,-0.227849,-0.258944,316.97,0.102374,
2,0,0,1,0,58333.4,0.0887173,0.0884084,-35.8434,30,0.0139477,10,-0.00316886,-1.44559,-0.266458,-0.221423,309.072,0.0884084,
2,0,0,1,0,58333.4,0.0747342,0.0744365,-40.0191,30,0.0134156,10,-0.00297888,-1.39773,-0.328814,-0.179433,279.327,0.0744365,
2,0,0,1,0,58333.4,0.0607011,0.0604222,-43.6927,30,0.0128288,10,-0.00264001,-1.35959,-0.421599,-0.139943,237.656,0.0604222,
2,0,0,1,0,58333.4,0.046718,0.0464481,-46.6395,30,0.0121957,10,-0.00216632,-1.33125,-0.551081,-0.107062,194.414,0.0464481,
2,0,0,1,0,58333.5,0.0327349,0.032437,-49.0629,30,0.0115248,10,-0.00159145,-1.30925,-0.737697,-0.0799787,152.859,0.032437,
2,0,0,1,0,58333.5,0.0187018,0.0183951,-51.0387,30,0.0108238,10,-0.000938861,-1.2921,-0.932284,-0.0632854,125.789,0.0183951,
2,0,0,1,0,58333.5,0.00471873,0.0044253,-52.529,30,0.0100981,10,-0.000232456,-1.2796,-1.31965,-0.0447088,91.5591,0.004425297,
2,0,0,1,0,58333.5,-0.00926437,-0.00960282,-53.5859,30,0.0093544,10,0.000514576,-1.27095,-2.16952,-0.027195,56.8003,-0.00960282,
2,0,0,1,0,58333.5,-0.0232974,-0.0236606,-54.209,30,0.00859946,10,0.00128262,-1.26593,-4.35808,-0.0135381,28.5887,-0.0236606,
2,0,0,1,0,58333.5,-0.0372805,-0.0376824,-54.3652,30,0.00783907,10,0.00204861,-1.26468,-423.081,-0.000139453,0.29561,-0.0376824,
2,0,0,1,0,58333.5,-0.0512636,-0.0516416,-54.2212,30,0.00707866,10,0.00280007,-1.26583,6.99133,0.00843902,-17.8506,-0.0516416,
2,0,0,1,0,58333.6,-0.0652967,-0.0656984,-53.9549,30,0.00632142,10,0.00354475,-1.26797,5.02901,0.0117319,-24.6846,-0.0656984,
2,0,0,1,0,58333.6,-0.0792798,-0.0796703,-53.5539,30,0.00556894,10,0.00426665,-1.27121,4.482,0.0131638,-27.5161,-0.0796703,
2,0,0,1,0,58333.6,-0.0932629,-0.0936348,-53.1873,30,0.00482179,10,0.00498018,-1.27419,5.39203,0.0109421,-22.7211,-0.0936348,
2,0,0,1,0,58333.6,-0.107296,-0.10771,-52.9527,30,0.00407899,10,0.00570351,-1.27611,8.34621,0.00706908,-14.6076,-0.10771,
2,0,0,1,0,58333.6,-0.121279,-0.121678,-52.777,30,0.00333913,10,0.00642182,-1.27755,17.1429,0.00344167,-7.09112,-0.121678,
2,0,0,1,0,58333.6,-0.135262,-0.13567,-52.7485,30,0.00260066,10,0.0071564,-1.27779,-31.9894,-0.00184436,3.79867,-0.13567,
2,0,0,1,0,58333.6,-0.149295,-0.149662,-52.8931,30,0.00186131,10,0.00791611,-1.2766,-8.53345,-0.00691397,14.2729,-0.149662,
2,0,0,1,0,58333.7,-0.163278,-0.163658,-53.1257,30,0.00111929,10,0.00869443,-1.2747,-6.17066,-0.00956138,19.8278,-0.163658,
2,0,0,1,0,58333.7,-0.177261,-0.177624,-53.4351,30,0.000373466,10,0.00949137,-1.27217,-5.09775,-0.0115737,24.1365,-0.1776243,
2,0,0,1,0,58333.7,-0.191295,-0.191704,-53.8085,30,-0.000377195,10,0.0103153,-1.26915,-4.86037,-0.012139,25.4801,-0.191704,
2,0,0,0,1,58333.7,-0.199984,-0.200628,-53.6864,30,-0.000878412,10,0.010771,-1.27014,-0.0437724,-1.34788,2527.12,-0.200628,
2,0,0,1,1,58333.7,-0.186686,-0.187127,-36.4908,30,-0.00144888,10,0.0068284,-1.43782,-0.0912092,-0.646865,933.37,-0.187127,
2,0,0,1,1,58333.7,-0.172667,-0.173166,-25.7893,30,-0.00187977,10,0.00446584,-1.58856,-0.0898581,-0.656591,661.28,-0.173166,
2,0,0,1,1,58333.7,-0.158684,-0.159205,-17.5232,30,-0.00218017,10,0.00278979,-1.75639,-0.0743219,-0.793845,538.587,-0.159205,
2,0,0,1,1,58333.7,-0.14467,-0.145155,-10.57,30,-0.00237513,10,0.00153429,-1.97592,-0.0512627,-1.15094,462.292,-0.145155,
2,0,0,1,1,58333.8,-0.130668,-0.131111,-4.52957,30,-0.00247934,10,0.000593874,-2.34394,-0.020885,-2.825,409.944,-0.131111,
2,1,0,1,1,58333.8,-0.116685,-0.117184,0.876173,30,-0.00250368,10,-0.000102674,-3.05741,0.0650207,0.907404,369.582,-0.117184,
2,1,0,1,1,58333.8,-0.102654,-0.103202,5.85524,30,-0.00245574,10,-0.000604271,-2.23246,0.0359328,1.64196,340.912,-0.103202,
2,1,0,1,1,58333.8,-0.0886685,-0.0891726,10.4088,30,-0.00234108,10,-0.000928183,-1.9826,0.0746031,0.790852,313.202,-0.0891726,
2,1,0,1,1,58333.8,-0.0746854,-0.075171,14.6566,30,-0.00216484,10,-0.00110175,-1.83397,0.114339,0.516009,291.692,-0.075171,
2,1,0,1,1,58333.8,-0.0606523,-0.061093,18.6424,30,-0.00193122,10,-0.00113892,-1.7295,0.156875,0.376096,271.192,-0.061093,
2,1,0,1,1,58333.8,-0.0466692,-0.0471115,22.2649,30,-0.00164431,10,-0.00104893,-1.65238,0.204515,0.288487,249.37,-0.0471115,
2,1,0,1,1,58333.9,-0.0326861,-0.0330845,25.6087,30,-0.00130863,10,-0.000847251,-1.59161,0.255533,0.23089,229.926,-0.0330845,
2,1,0,1,1,58333.9,-0.018653,-0.0191126,28.7229,30,-0.000927816,10,-0.000548968,-1.54177,0.313294,0.188321,210.416,-0.0191126,
2,1,0,1,1,58333.9,-0.00466992,-0.00513109,31.5212,30,-0.000505511,10,-0.000161738,-1.5014, , , ,-0.00513109,
2,1,0,0,1,58333.9,-0.000175352,-0.000630721,32.3548,30,-0.000361764,10,-2.04068e-05,-1.49006, , , ,-0.000630721,