File: Figure_codes/Fig_3-5/rawdata_trumpetplot_data/after 10th/20221101_1-115_003_TrumpetPlot_ParaChange_from10_every3_09_CV_C01_5.csv
mode,ox/red,error,control changes,counter inc.,time/s,control/V,Ewe/V,<I>/mA,cycle number,(Q-Qo)/C,I Range,P/W,log(|I|),Tafel slope mV/dec,alpha_eff,dI/d(E-IR),E-IR/V,
2,0,0,0,0,11033.2,2.44065e-05,-0.000287149,-5.34729,6,0.0000000E+000,10,1.53547e-06,-2.27187, , , ,-0.0002871489,
2,1,0,1,0,11033.3,0.00978761,0.00948556,2.32387,6,-1.63511e-05,10,2.20432e-05,-2.63379,0.0193505,3.04902,261.987,0.00948556,
2,1,0,1,0,11033.4,0.0197755,0.0194508,3.81502,6,0.00030432,10,7.42052e-05,-2.4185,0.099229,0.594584,88.2931,0.0194508,
2,1,0,1,0,11033.5,0.0297635,0.029447,4.53447,6,0.000724181,10,0.000133527,-2.34347,0.173118,0.340808,60.2917,0.029447,
2,1,0,1,0,11033.6,0.0397514,0.0394302,5.1282,6,0.00120793,10,0.000202206,-2.29004,0.189997,0.310531,62.2525,0.0394302,
2,1,0,1,0,11033.7,0.0497484,0.0494366,5.71044,6,0.00174975,10,0.000282305,-2.24333,0.229627,0.256939,57.1526,0.0494366,
2,1,0,1,0,11033.8,0.0597273,0.0594067,6.24042,6,0.00234609,10,0.000370723,-2.20479,0.262612,0.224666,54.6596,0.0594067,
2,1,0,1,0,11033.9,0.0697152,0.0693836,6.73176,6,0.00299496,10,0.000467074,-2.17187,0.345685,0.170676,44.9011,0.0693836,
2,1,0,1,0,11034,0.0797031,0.0793625,7.19043,6,0.00369128,10,0.00057065,-2.14325,0.384466,0.15346,43.0599,0.0793625,
2,1,0,1,0,11034.1,0.0896911,0.0893813,7.59192,6,0.00443016,10,0.000678576,-2.11965,0.405557,0.145479,43.1597,0.0893813,
2,1,0,1,0,11034.2,0.099679,0.0993785,8.0978,6,0.0052114,10,0.000804748,-2.09163,0.312299,0.188922,59.6446,0.0993785,
2,1,0,1,0,11034.3,0.109667,0.109343,8.8392,6,0.00605418,10,0.000966505,-2.05359,0.232567,0.25369,87.5107,0.109343,
2,1,0,1,0,11034.4,0.119655,0.119314,9.73442,6,0.00698208,10,0.00116146,-2.01169,0.272614,0.216423,82.1839,0.119314,
2,1,0,1,0,11034.5,0.129643,0.129366,10.4754,6,0.00799351,10,0.00135515,-1.97983,0.378254,0.15598,63.7141,0.129366,
2,1,0,1,0,11034.6,0.139631,0.139315,11.0172,6,0.00906877,10,0.00153486,-1.95793,0.532944,0.110706,47.61,0.139315,
2,1,0,1,0,11034.7,0.149619,0.149278,11.1685,6,0.0101826,10,0.00166722,-1.952,-0.637786,-0.0925075,-40.1643,0.149278,
2,1,0,1,0,11034.8,0.159607,0.159305,9.82515,6,0.0112465,10,0.00156519,-2.00766,-0.100001,-0.589996,-225.563,0.159305,
2,1,0,1,0,11034.9,0.169595,0.1693,7.38528,6,0.0121046,10,0.00125033,-2.13163,-0.0780088,-0.756325,-218.26,0.1693,
2,1,0,1,0,11035,0.179582,0.179268,5.81168,6,0.0127541,10,0.00104185,-2.2357,-0.124691,-0.47317,-107.655,0.179268,
2,1,0,1,0,11035.1,0.18957,0.189289,5.054,6,0.0132929,10,0.000956668,-2.29636,-0.208408,-0.283098,-55.9395,0.189289,
2,1,0,1,0,11035.2,0.199558,0.19927,4.64731,6,0.0137751,10,0.000926069,-2.3328,-0.390849,-0.150953,-27.3669,0.19927,
2,1,0,1,0,11035.3,0.209546,0.209273,4.40628,6,0.0142259,10,0.000922117,-2.35593,-0.419213,-0.14074,-24.1903,0.209273,
2,1,0,1,0,11035.4,0.219534,0.219268,4.23343,6,0.0146564,10,0.000928253,-2.37331,-0.765989,-0.0770246,-12.7307,0.219268,
2,1,0,1,0,11035.5,0.229522,0.229227,4.11445,6,0.0150735,10,0.00094314,-2.38569,-0.823918,-0.0716091,-11.5148,0.229227,
2,1,0,1,0,11035.6,0.23951,0.239227,4.03304,6,0.0154808,10,0.000964811,-2.39437,-2.37699,-0.0248213,-3.91492,0.239227,
2,1,0,1,0,11035.7,0.249498,0.249211,3.97651,6,0.0158807,10,0.000990991,-2.4005,-1.22546,-0.0481452,-7.46964,0.249211,
2,1,0,1,0,11035.8,0.259486,0.259177,3.91791,6,0.0162747,10,0.00101543,-2.40695,-1.07808,-0.0547271,-8.363,0.259177,
2,1,0,1,0,11035.9,0.269474,0.269169,3.86259,6,0.0166634,10,0.00103969,-2.41312,-2.43238,-0.0242561,-3.6624,0.269169,
2,1,0,1,0,11036,0.279462,0.279157,3.8149,6,0.0170472,10,0.00106496,-2.41852,-1.86466,-0.0316412,-4.71148,0.2791568,
2,1,0,1,0,11036.1,0.28945,0.289208,3.76686,6,0.0174256,10,0.00108941,-2.42402,-2.05242,-0.0287465,-4.22113,0.289208,
2,1,0,1,0,11036.2,0.299438,0.299183,3.71422,6,0.0177986,10,0.00111123,-2.43013,-0.0262469,-2.24788,-295.839,0.299183,
2,0,0,1,0,11036.3,0.291747,0.291443,-1.18981,6,0.0178276,10,-0.000346761,-2.92452,-0.0211717,-2.78674,122.864,0.291443,
2,0,0,1,0,11036.4,0.281759,0.281427,-1.80798,6,0.0176723,10,-0.000508814,-2.74281,-0.107226,-0.550241,38.6521,0.281427,
2,0,0,1,0,11036.5,0.271771,0.271455,-2.10684,6,0.0174763,10,-0.000571913,-2.67637,-0.176569,-0.334148,27.4159,0.271455,
2,0,0,1,0,11036.6,0.261783,0.261475,-2.32837,6,0.0172549,10,-0.000608809,-2.63295,-0.313936,-0.187936,17.0318,0.261475,
2,0,0,1,0,11036.7,0.251795,0.251482,-2.49781,6,0.017014,10,-0.000628154,-2.60244,-0.367354,-0.160608,15.6686,0.251482,
2,0,0,1,0,11036.8,0.241807,0.241512,-2.64685,6,0.0167565,10,-0.000639246,-2.57727,-0.379549,-0.155448,16.1309,0.241512,
2,0,0,1,0,11036.9,0.231815,0.231469,-2.80272,6,0.0164844,10,-0.000648744,-2.55242,-0.39883,-0.147933,16.1521,0.2314689,
2,0,0,1,0,11037,0.221831,0.221545,-2.93516,6,0.0161986,10,-0.00065027,-2.53237,-0.473257,-0.124668,14.257,0.221545,
2,0,0,1,0,11037.1,0.211843,0.211576,-3.0705,6,0.0158991,10,-0.000649645,-2.51279,-0.632454,-0.0932875,11.164,0.211576,
2,0,0,1,0,11037.2,0.201856,0.201518,-3.20705,6,0.0155856,10,-0.000646278,-2.49389,-0.518539,-0.113781,14.2586,0.2015183,
2,0,0,1,0,11037.3,0.191868,0.191523,-3.36827,6,0.0152573,10,-0.000645102,-2.47259,-0.434728,-0.135717,17.8817,0.191523,
2,0,0,1,0,11037.4,0.18188,0.18156,-3.57383,6,0.0149121,10,-0.000648864,-2.44687,-0.32172,-0.183389,25.4973,0.18156,
2,0,0,1,0,11037.5,0.171892,0.171564,-3.82507,6,0.0145439,10,-0.000656245,-2.41736,-0.315274,-0.187139,27.9561,0.171564,
2,0,0,1,0,11037.6,0.161904,0.161584,-4.21815,6,0.014144,10,-0.000681588,-2.37488,-0.200118,-0.294826,48.5957,0.161584,
2,0,0,1,0,11037.7,0.151916,0.151592,-4.87289,6,0.0136928,10,-0.000738693,-2.31221,-0.130448,-0.452288,86.2649,0.151592,
2,0,0,1,0,11037.8,0.141928,0.141586,-6.04356,6,0.0131527,10,-0.000855684,-2.21871,-0.0915497,-0.644459,152.195,0.141586,
2,0,0,1,0,11037.9,0.13194,0.131654,-7.77532,6,0.0124665,10,-0.00102365,-2.10928,-0.0936114,-0.630265,191.151,0.1316539,
2,0,0,1,0,11038,0.121952,0.121692,-9.56615,6,0.0115976,10,-0.00116412,-2.01926,-0.143777,-0.410358,152.859,0.121692,
2,0,0,1,0,11038.1,0.111964,0.111618,-10.804,6,0.010575,10,-0.00120593,-1.96641,-0.263182,-0.22418,94.435,0.111618,
2,0,0,1,0,11038.2,0.101976,0.101647,-11.3744,6,0.00946128,10,-0.00115616,-1.94407,-1.34405,-0.0438973,19.4511,0.1016465,
2,0,0,1,0,11038.3,0.0919883,0.0916511,-11.2267,6,0.00832686,10,-0.00102894,-1.94975,0.602864,0.0978662,-42.8504,0.0916511,
2,0,0,1,0,11038.4,0.0820004,0.0816555,-10.5199,6,0.00723874,10,-0.000859005,-1.97799,0.297656,0.198216,-81.341,0.0816555,
2,0,0,1,0,11038.5,0.0720124,0.0716833,-9.78346,6,0.00622714,10,-0.000701311,-2.00951,0.380042,0.155246,-59.3328,0.0716833,
2,0,0,1,0,11038.6,0.0620245,0.0616906,-9.30406,6,0.0052756,10,-0.000573973,-2.03133,0.530483,0.111219,-40.4208,0.0616906,
2,0,0,1,0,11038.7,0.0520366,0.0517041,-8.95247,6,0.00436419,10,-0.000462879,-2.04806,0.55895,0.105555,-36.8386,0.0517041,
2,0,0,1,0,11038.8,0.0420486,0.0416971,-8.59072,6,0.00348782,10,-0.000358208,-2.06597,0.57194,0.103158,-34.6183,0.0416971,
2,0,0,1,0,11038.9,0.0320607,0.0317725,-8.20258,6,0.00264925,10,-0.000260616,-2.08605,0.420325,0.140368,-44.8846,0.0317725,
2,0,0,1,0,11039,0.0220728,0.02177,-7.70804,6,0.00185441,10,-0.000167804,-2.11306,0.339234,0.173921,-52.2981,0.02176998,
2,0,0,1,0,11039.1,0.0120848,0.0117171,-7.22098,6,0.00110969,10,-8.4609e-05,-2.1414,0.349009,0.16905,-47.6021,0.0117171,
2,0,0,1,0,11039.2,0.0020969,0.00174131,-6.90005,6,0.000408919,10,-1.20151e-05,-2.16115,0.832078,0.0709068,-18.9822,0.00174131,
2,0,0,1,0,11039.3,-0.00789103,-0.00823453,-6.66476,6,-0.000266048,10,5.48812e-05,-2.17622,1.98459,0.029729,-7.74479,-0.00823453,
2,0,0,1,0,11039.3,-0.017879,-0.0182695,-6.65795,6,-0.000929755,10,0.000121637,-2.17666,-2.05912,-0.0286531,7.44363,-0.0182695,
2,0,0,1,0,11039.4,-0.0278669,-0.0282258,-6.76728,6,-0.00159944,10,0.000191012,-2.16959,-1.07138,-0.0550692,14.557,-0.0282258,
2,0,0,1,0,11039.5,-0.0378548,-0.0382415,-6.96793,6,-0.00228495,10,0.000266464,-2.1569,-0.755844,-0.0780584,21.2181,-0.0382415,
2,0,0,1,0,11039.6,-0.0478428,-0.0481929,-7.23027,6,-0.00299378,10,0.000348447,-2.14085,-0.47599,-0.123952,35.0107,-0.0481929,
2,0,0,1,0,11039.7,-0.0578216,-0.0581994,-7.56624,6,-0.00373174,10,0.000440351,-2.12112,-0.482096,-0.122382,36.1327,-0.0581994,
2,0,0,1,0,11039.8,-0.0678187,-0.068192,-7.97008,6,-0.00450737,10,0.000543495,-2.09854,-0.395974,-0.149,46.357,-0.068192,
2,0,0,1,0,11039.9,-0.0778066,-0.0781669,-8.46578,6,-0.00532816,10,0.000661744,-2.07233,-0.379418,-0.155501,51.4035,-0.07816691,
2,0,0,1,0,11040,-0.0877945,-0.0881623,-9.05028,6,-0.00620255,10,0.000797894,-2.04334,-0.35175,-0.167733,59.1928,-0.0881623,
2,0,0,1,0,11040.1,-0.0977825,-0.0981336,-9.62813,6,-0.00713596,10,0.000944843,-2.01646,-0.388178,-0.151992,57.1121,-0.0981336,
2,0,0,1,1,11040.2,-0.0927386,-0.0930715,-1.47682,6,-0.00768809,10,0.00013745,-2.83067,-0.00467435,-12.6221,609.625,-0.0930715,
2,1,0,1,1,11040.3,-0.0827529,-0.0831478,2.27645,6,-0.00761759,10,-0.000189282,-2.64274,0.0223575,2.63893,227.685,-0.0831478,
2,1,0,1,1,11040.4,-0.0727627,-0.0731385,3.9019,6,-0.00729915,10,-0.000285379,-2.40872,0.0787638,0.749075,113.163,-0.07313849,
2,1,0,1,1,11040.5,-0.0627748,-0.06311,4.70565,6,-0.006865,10,-0.000296974,-2.32738,0.184066,0.320537,58.7931,-0.06311,
2,1,0,1,1,11040.6,-0.0527868,-0.0531175,5.13517,6,-0.00637085,10,-0.000272768,-2.28945,0.401239,0.147045,29.4436,-0.0531175,
2,1,0,1,1,11040.7,-0.0427989,-0.0431842,5.35144,6,-0.00584533,10,-0.000231098,-2.27153,0.685965,0.0860102,17.9723,-0.04318418,
2,1,0,1,1,11040.8,-0.0328109,-0.0331373,5.45466,6,-0.00530537,10,-0.000180753,-2.26323,2.74381,0.021503,4.57021,-0.0331373,
2,1,0,1,1,11040.9,-0.022823,-0.0231575,5.46779,6,-0.00475992,10,-0.00012662,-2.26219,-13.6521,-0.00432169,-0.921579,-0.0231575,
2,1,0,1,1,11041,-0.0128351,-0.0131867,5.443,6,-0.00421462,10,-7.17753e-05,-2.26416,-3.64613,-0.0161815,-3.44164,-0.0131867,
2,1,0,1,1,11041.1,-0.00284713,-0.00321041,5.44078,6,-0.00367071,10,-1.74672e-05,-2.26434,-24.7892,-0.00238007,-0.50489,-0.003210414,
2,1,0,1,1,11041.2,-2.55332e-05,-0.000401673,5.45762,6,-0.00351782,10,-2.19218e-06,-2.263, , , ,-0.000401673,