File: Figure_codes/Fig_3-5/rawdata_trumpetplot_data/after 10th/20221101_1-115_003_TrumpetPlot_ParaChange_from10_every3_07_CV_C01_19.csv
mode,ox/red,error,control changes,counter inc.,time/s,control/V,Ewe/V,<I>/mA,cycle number,(Q-Qo)/C,I Range,P/W,log(|I|),Tafel slope mV/dec,alpha_eff,dI/d(E-IR),E-IR/V,
2,0,0,0,0,38597.5,2.44065e-05,-0.000325324,-2.71539,20,0.0000000E+000,10,8.83381e-07,-2.56617, , , ,-0.000325324,
2,1,0,1,0,38597.6,0.007288,0.00697231,1.11728,20,-1.63816e-05,10,7.79006e-06,-2.95184,0.0117111,5.03796,197.303,0.00697231,
2,1,0,1,0,38597.7,0.0147816,0.0144699,1.9776,20,0.000188659,10,2.86157e-05,-2.70386,0.0649922,0.907802,69.684,0.0144699,
2,1,0,1,0,38597.9,0.0222712,0.0219738,2.3832,20,0.000464986,10,5.23679e-05,-2.62284,0.127452,0.462919,42.8668,0.0219738,
2,1,0,1,0,38598,0.0297648,0.0294318,2.66444,20,0.000782521,10,7.84194e-05,-2.57439,0.171364,0.344297,35.7996,0.0294318,
2,1,0,1,0,38598.1,0.0372518,0.0369246,2.91799,20,0.00113356,10,0.000107746,-2.53492,0.208926,0.282397,32.244,0.0369246,
2,1,0,1,0,38598.2,0.0447467,0.0444582,3.17639,20,0.00151644,10,0.000141217,-2.49807,0.235443,0.250591,31.0437,0.0444582,
2,1,0,1,0,38598.4,0.052235,0.0519587,3.41934,20,0.00193,10,0.000177665,-2.46606,0.239846,0.245991,32.7811,0.0519587,
2,1,0,1,0,38598.5,0.0597299,0.0594122,3.6515,20,0.00237352,10,0.000216944,-2.43753,0.264616,0.222965,31.7131,0.0594122,
2,1,0,1,0,38598.6,0.0672156,0.0668836,3.86311,20,0.00284446,10,0.000258379,-2.41306,0.302013,0.195356,29.4577,0.0668836,
2,1,0,1,0,38598.7,0.0747105,0.0743721,4.04829,20,0.00334111,10,0.00030108,-2.39273,0.417241,0.141405,22.3756,0.07437212,
2,1,0,1,0,38598.9,0.0821988,0.0818938,4.2153,20,0.0038594,10,0.000345207,-2.37517,0.535692,0.110138,18.0984,0.0818938,
2,1,0,1,0,38599,0.0896937,0.0893409,4.36354,20,0.00439712,10,0.000389842,-2.36016,0.47192,0.125021,21.2964,0.0893409,
2,1,0,1,0,38599.1,0.0971794,0.0968562,4.54341,20,0.00495474,10,0.000440057,-2.34262,0.323402,0.182436,32.4059,0.0968562,
2,1,0,1,0,38599.2,0.104674,0.104358,4.82469,20,0.00554087,10,0.000503492,-2.31653,0.245141,0.240678,45.3684,0.104358,
2,1,0,1,0,38599.4,0.112163,0.111843,5.20803,20,0.0061682,10,0.000582483,-2.28333,0.232529,0.253732,51.4694,0.1118431,
2,1,0,1,0,38599.5,0.119657,0.119365,5.58757,20,0.00684423,10,0.000666958,-2.25278,0.281985,0.209231,45.5212,0.119365,
2,1,0,1,0,38599.6,0.127143,0.126814,5.85743,20,0.00756149,10,0.000742803,-2.23229,0.431792,0.13664,31.2579,0.1268138,
2,1,0,1,0,38599.7,0.134638,0.134342,6.03639,20,0.00830789,10,0.000810939,-2.21922,0.85941,0.0686518,16.1893,0.134342,
2,1,0,1,0,38599.9,0.142126,0.141844,6.11816,20,0.00907026,10,0.000867827,-2.21338,-3.19454,-0.018469,-4.39833,0.141844,
2,1,0,1,0,38600,0.149621,0.149286,5.86961,20,0.00982548,10,0.000876252,-2.23139,-0.198652,-0.297002,-67.6926,0.149286,
2,1,0,1,0,38600.1,0.157107,0.156806,5.10377,20,0.0105163,10,0.000800303,-2.29211,-0.0935578,-0.630626,-125.342,0.156806,
2,1,0,1,0,38600.2,0.164602,0.164295,4.17271,20,0.0110959,10,0.000685556,-2.37958,-0.0885945,-0.665955,-108.63,0.164295,
2,1,0,1,0,38600.4,0.17209,0.171799,3.50419,20,0.0115738,10,0.000602015,-2.45541,-0.117842,-0.500672,-68.7717,0.171799,
2,1,0,1,0,38600.5,0.179585,0.179285,3.11664,20,0.0119872,10,0.000558766,-2.50631,-0.179705,-0.328316,-39.939,0.179285,
2,1,0,1,0,38600.6,0.187072,0.186772,2.88106,20,0.012362,10,0.000538102,-2.54045,-0.299484,-0.197006,-22.1807,0.186772,
2,1,0,1,0,38600.7,0.194566,0.194261,2.73412,20,0.012714,10,0.000531134,-2.56318,-0.476128,-0.123916,-13.2535,0.194261,
2,1,0,1,0,38600.9,0.202055,0.201729,2.64317,20,0.0130512,10,0.000533203,-2.57788,-0.49617,-0.118911,-12.2447,0.201729,
2,1,0,1,0,38601,0.209549,0.209233,2.58571,20,0.0133789,10,0.000541015,-2.58742,-0.813845,-0.0724954,-7.29303,0.209233,
2,1,0,1,0,38601.1,0.217036,0.216726,2.52425,20,0.0136994,10,0.000547069,-2.59787,-1.72886,-0.0341265,-3.37129,0.216726,
2,1,0,1,0,38601.2,0.224529,0.224245,2.48924,20,0.0140149,10,0.000558198,-2.60393,-1.31453,-0.0448828,-4.37175,0.2242447,
2,1,0,1,0,38601.4,0.232019,0.231687,2.46281,20,0.0143261,10,0.000570601,-2.60857,-1.24863,-0.0472517,-4.54527,0.2316867,
2,1,0,1,0,38601.5,0.239513,0.239223,2.44255,20,0.0146342,10,0.000584315,-2.61216,-1.27397,-0.046312,-4.39983,0.239223,
2,1,0,1,0,38601.6,0.247001,0.2467,2.42219,20,0.0149391,10,0.000597554,-2.61579,-2.68775,-0.0219515,-2.06781,0.2467,
2,1,0,1,0,38601.7,0.254493,0.254215,2.39476,20,0.0152416,10,0.000608785,-2.62074,-2.107,-0.0280019,-2.62056,0.254215,
2,1,0,1,0,38601.9,0.261983,0.261676,2.37599,20,0.0155415,10,0.00062174,-2.62416,-1.32236,-0.0446174,-4.14754,0.261676,
2,1,0,1,0,38602,0.269477,0.269222,2.36256,20,0.0158392,10,0.000636053,-2.62662,-2.37401,-0.0248525,-2.28706,0.269222,
2,1,0,1,0,38602.1,0.276965,0.276653,2.3417,20,0.0161345,10,0.00064784,-2.63047,-4.05434,-0.0145523,-1.32885,0.2766535,
2,1,0,1,0,38602.2,0.284457,0.284147,2.32275,20,0.0164276,10,0.000660002,-2.634,-6.00802,-0.00982021,-0.890015,0.284147,
2,1,0,1,0,38602.4,0.291947,0.291636,2.3007,20,0.016718,10,0.000670968,-2.63814,-1.33989,-0.0440334,-3.95763,0.291636,
2,1,0,1,0,38602.5,0.29944,0.299177,2.2837,20,0.0170061,10,0.000683231,-2.64136,-0.00762693,-7.73575,-534.482,0.299177,
2,0,0,1,0,38602.6,0.293742,0.293367,-0.425729,20,0.0170624,10,-0.000124895,-3.37087,-0.00588644,-10.023,119.159,0.2933667,
2,0,0,1,0,38602.7,0.286254,0.285903,-0.875951,20,0.0169736,10,-0.000250437,-3.05752,-0.0570685,-1.03384,34.9605,0.285903,
2,0,0,1,0,38602.8,0.278761,0.278474,-1.07315,20,0.0168485,10,-0.000298845,-2.96934,-0.117848,-0.500643,21.0328,0.278474,
2,0,0,1,0,38603,0.271272,0.270942,-1.21488,20,0.0167031,10,-0.000329162,-2.91547,-0.183855,-0.320905,15.1675,0.270942,
2,0,0,1,0,38603.1,0.263778,0.263468,-1.32254,20,0.0165425,10,-0.000348446,-2.87859,-0.221007,-0.26696,13.7472,0.263468,
2,0,0,1,0,38603.2,0.25629,0.255971,-1.41639,20,0.0163698,10,-0.000362556,-2.84882,-0.269462,-0.218955,12.0048,0.2559714,
2,0,0,1,0,38603.3,0.248797,0.248464,-1.4847,20,0.0161865,10,-0.000368895,-2.82836,-0.377197,-0.156417,9.08939,0.248464,
2,0,0,1,0,38603.5,0.241308,0.241009,-1.55693,20,0.0159939,10,-0.000375235,-2.80773,-0.403382,-0.146263,8.91909,0.241009,
2,0,0,1,0,38603.6,0.233814,0.233515,-1.6291,20,0.0157927,10,-0.000380419,-2.78805,-0.447997,-0.131697,8.34943,0.233515,
2,0,0,1,0,38603.7,0.226326,0.225998,-1.69508,20,0.0155833,10,-0.000383085,-2.77081,-0.402625,-0.146538,9.67595,0.225998,
2,0,0,1,0,38603.8,0.218834,0.218563,-1.74907,20,0.015366,10,-0.000382281,-2.75719,-0.451588,-0.13065,8.94674,0.218563,
2,0,0,1,0,38604,0.211344,0.210986,-1.81205,20,0.0151411,10,-0.000382318,-2.74183,-0.593018,-0.0994911,7.05004,0.210986,
2,0,0,1,0,38604.1,0.203856,0.203552,-1.8831,20,0.0149085,10,-0.000383308,-2.72513,-0.714625,-0.0825608,6.0533,0.203552,
2,0,0,1,0,38604.2,0.196362,0.196042,-1.94587,20,0.0146679,10,-0.000381472,-2.71089,-0.52234,-0.112953,8.54667,0.196042,
2,0,0,1,0,38604.3,0.18887,0.18852,-2.00914,20,0.0144189,10,-0.000378762,-2.69699,-0.39949,-0.147688,11.6162,0.18852,
2,0,0,1,0,38604.5,0.18138,0.181062,-2.09353,20,0.0141608,10,-0.000379059,-2.67912,-0.45797,-0.128829,10.5162,0.1810617,
2,0,0,1,0,38604.6,0.173892,0.17356,-2.18789,20,0.013892,10,-0.000379729,-2.65998,-0.349921,-0.16861,14.3642,0.17356,
2,0,0,1,0,38604.7,0.166398,0.166071,-2.30879,20,0.0136098,10,-0.000383424,-2.63662,-0.305916,-0.192863,17.342,0.166071,
2,0,0,1,0,38604.8,0.158905,0.158562,-2.46523,20,0.0133103,10,-0.000390892,-2.60814,-0.203803,-0.289495,27.8691,0.158562,
2,0,0,1,0,38605,0.151417,0.151091,-2.70321,20,0.0129862,10,-0.000408432,-2.56812,-0.152661,-0.386476,41.0183,0.151091,
2,0,0,1,0,38605.1,0.143927,0.143618,-3.10823,20,0.0126227,10,-0.000446396,-2.50749,-0.106176,-0.555682,67.5599,0.143618,
2,0,0,1,0,38605.2,0.136435,0.136113,-3.7263,20,0.0121958,10,-0.000507197,-2.42872,-0.0937297,-0.62947,91.366,0.136113,
2,0,0,1,0,38605.3,0.128941,0.128624,-4.46627,20,0.0116829,10,-0.000574471,-2.35005,-0.101769,-0.579745,100.816,0.1286242,
2,0,0,1,0,38605.5,0.121453,0.121184,-5.15501,20,0.0110789,10,-0.000624707,-2.28777,-0.143575,-0.410935,82.5952,0.121184,
2,0,0,1,0,38605.6,0.113963,0.113609,-5.69153,20,0.0103975,10,-0.000646612,-2.24477,-0.226416,-0.260583,57.8782,0.113609,
2,0,0,1,0,38605.7,0.106471,0.10612,-6.0402,20,0.00966018,10,-0.000640988,-2.21895,-0.488859,-0.120689,28.4237,0.10612,
2,0,0,1,0,38605.8,0.0989825,0.0986449,-6.14774,20,0.00889497,10,-0.000606443,-2.21128,53.5642,0.00110148,-0.263673,0.09864492,
2,0,0,1,0,38606,0.0914889,0.0911901,-6.03432,20,0.0081305,10,-0.000550271,-2.21937,0.600459,0.0982581,-23.1111,0.0911901,
2,0,0,1,0,38606.1,0.0839993,0.0836653,-5.80773,20,0.00738911,10,-0.000485905,-2.23599,0.415727,0.14192,-32.1903,0.0836653,
2,0,0,1,0,38606.2,0.076507,0.0761859,-5.6157,20,0.00667436,10,-0.000427838,-2.2506,0.506086,0.116581,-25.5144,0.0761859,
2,0,0,1,0,38606.3,0.0690187,0.0687228,-5.46406,20,0.00598168,10,-0.000375506,-2.26248,0.682774,0.0864122,-18.4195,0.0687228,
2,0,0,1,0,38606.5,0.0615251,0.0611841,-5.33307,20,0.0053052,10,-0.000326299,-2.27302,0.786173,0.0750471,-15.6366,0.0611841,
2,0,0,1,0,38606.6,0.0540355,0.053707,-5.19984,20,0.0046455,10,-0.000279268,-2.28401,0.710846,0.0829997,-16.8522,0.053707,
2,0,0,1,0,38606.7,0.0465432,0.0462161,-5.05882,20,0.00400238,10,-0.000233799,-2.29595,0.558492,0.105642,-20.857,0.0462161,
2,0,0,1,0,38606.8,0.0390549,0.0387459,-4.90692,20,0.00337885,10,-0.000190123,-2.30919,0.468079,0.126047,-24.0691,0.0387459,
2,0,0,1,0,38607,0.0315613,0.0312206,-4.72031,20,0.00277562,10,-0.000147371,-2.32603,0.462024,0.127699,-23.5308,0.0312206,
2,0,0,1,0,38607.1,0.0240717,0.0237812,-4.51983,20,0.00219641,10,-0.000107487,-2.34488,0.39504,0.149352,-26.4032,0.0237812,
2,0,0,1,0,38607.2,0.0165781,0.0162362,-4.34693,20,0.00164047,10,-7.05776e-05,-2.36182,0.45465,0.12977,-22.022,0.0162362,
2,0,0,1,0,38607.3,0.00909108,0.00874391,-4.20163,20,0.00110547,10,-3.67387e-05,-2.37658,0.595673,0.0990477,-16.2124,0.00874391,
2,0,0,1,0,38607.5,0.00159616,0.00121765,-4.12568,20,0.000585522,10,-5.02365e-06,-2.3845, , , ,0.00121765,
2,0,0,1,0,38607.5,0.000199195,-0.0002108,-4.09701,20,0.000489298,10,8.63649e-07,-2.38753, , , ,-0.0002108,