File: Figure_codes/Fig_3-5/rawdata_trumpetplot_data/after 10th/20221101_1-115_003_TrumpetPlot_ParaChange_from10_every3_05_CV_C01_23.csv
mode,ox/red,error,control changes,counter inc.,time/s,control/V,Ewe/V,<I>/mA,cycle number,(Q-Qo)/C,I Range,P/W,log(|I|),Tafel slope mV/dec,alpha_eff,dI/d(E-IR),E-IR/V,
2,0,0,1,0,46433,2.44065e-05,-0.000287149,-0.746238,24,0.0000000E+000,10,2.14282e-07,-3.12712, , , ,-0.0002871489,
2,1,0,1,0,46433.4,0.00729063,0.0069863,0.653479,24,0.000128719,10,4.5654e-06,-3.18477,0.0435612,1.35442,33.7828,0.0069863,
2,1,0,1,0,46433.8,0.0147802,0.0144629,0.808671,24,0.00041247,10,1.16957e-05,-3.09223,0.114849,0.513719,16.1688,0.0144629,
2,1,0,1,0,46434.1,0.0222725,0.0219999,0.909284,24,0.00074139,10,2.00041e-05,-3.0413,0.166086,0.355237,12.6009,0.0219999,
2,1,0,1,0,46434.5,0.0297644,0.029492,1.00249,24,0.0011055,10,2.95655e-05,-2.99892,0.194209,0.303797,11.867,0.02949205,
2,1,0,1,0,46434.9,0.0372544,0.0369476,1.09425,24,0.00150394,10,4.04301e-05,-2.96088,0.20782,0.283899,12.1137,0.0369476,
2,1,0,1,0,46435.3,0.0447449,0.0444786,1.1861,24,0.00193724,10,5.27559e-05,-2.92588,0.20702,0.284997,13.1856,0.0444786,
2,1,0,1,0,46435.6,0.0522363,0.0519164,1.27334,24,0.00240452,10,6.61073e-05,-2.89505,0.238563,0.247315,12.2914,0.0519164,
2,1,0,1,0,46436,0.0597291,0.0594052,1.35652,24,0.00290363,10,8.05846e-05,-2.86757,0.302853,0.194814,10.3012,0.0594052,
2,1,0,1,0,46436.4,0.0672182,0.0668842,1.43062,24,0.00343129,10,9.56862e-05,-2.84447,0.352441,0.167404,9.3164,0.0668842,
2,1,0,1,0,46436.8,0.0747092,0.0743913,1.48815,24,0.00398368,10,0.000110705,-2.82735,0.515316,0.114493,6.63872,0.0743913,
2,1,0,1,0,46437.1,0.0822001,0.0819123,1.53527,24,0.00455684,10,0.000125758,-2.81381,0.583254,0.101157,6.07192,0.0819123,
2,1,0,1,0,46437.5,0.0896911,0.0893587,1.59498,24,0.00514847,10,0.000142526,-2.79724,0.372569,0.15836,9.84782,0.0893587,
2,1,0,1,0,46437.9,0.097182,0.0968537,1.6798,24,0.0057667,10,0.000162695,-2.77474,0.243508,0.242292,15.9042,0.0968537,
2,1,0,1,0,46438.2,0.104673,0.10436,1.81886,24,0.0064266,10,0.000189817,-2.7402,0.197142,0.299277,21.2235,0.10436,
2,1,0,1,0,46438.6,0.112164,0.111841,1.97045,24,0.00714284,10,0.000220378,-2.70543,0.239952,0.245882,18.8844,0.111841,
2,1,0,1,0,46439,0.119655,0.119365,2.08754,24,0.00791044,10,0.000249179,-2.68037,0.470084,0.125509,10.2197,0.1193649,
2,1,0,1,0,46439.4,0.127146,0.126804,2.14728,24,0.0087112,10,0.000272283,-2.66811,0.842335,0.0700434,5.87225,0.126804,
2,1,0,1,0,46439.7,0.134637,0.13431,2.17863,24,0.00952983,10,0.000292612,-2.66182,-3.99015,-0.0147864,-1.25672,0.13431,
2,1,0,1,0,46440.1,0.142128,0.141818,2.09034,24,0.0103419,10,0.000296448,-2.67978,-0.19554,-0.301729,-24.5123,0.141818,
2,1,0,1,0,46440.5,0.149619,0.149301,1.78657,24,0.0110796,10,0.000266737,-2.74798,-0.0822783,-0.717079,-49.8369,0.149301,
2,1,0,1,0,46440.9,0.157108,0.156836,1.43146,24,0.0116849,10,0.000224504,-2.84422,-0.0824373,-0.715696,-40.0473,0.156836,
2,1,0,1,0,46441.2,0.164601,0.164246,1.2085,24,0.0121807,10,0.000198491,-2.91775,-0.134728,-0.43792,-20.696,0.164246,
2,1,0,1,0,46441.6,0.172092,0.171757,1.09412,24,0.012616,10,0.000187923,-2.96093,-0.230691,-0.255753,-10.9678,0.171757,
2,1,0,1,0,46442,0.179582,0.179294,1.03706,24,0.0130201,10,0.000185938,-2.9842,-0.404442,-0.14588,-5.91749,0.179294,
2,1,0,1,0,46442.4,0.187073,0.186794,1.00259,24,0.0134075,10,0.000187278,-2.99888,-0.822572,-0.0717262,-2.80161,0.1867943,
2,1,0,1,0,46442.7,0.194564,0.194242,0.982753,24,0.0137847,10,0.000190892,-3.00756,-0.969799,-0.0608374,-2.32678,0.194242,
2,1,0,1,0,46443.1,0.202057,0.201748,0.965073,24,0.0141549,10,0.000194702,-3.01544,-0.82562,-0.0714615,-2.68936,0.201748,
2,1,0,1,0,46443.5,0.209546,0.209253,0.956149,24,0.0145201,10,0.000200077,-3.01947,-1.09341,-0.0539594,-2.0085,0.209253,
2,1,0,1,0,46443.9,0.217037,0.216733,0.941476,24,0.014881,10,0.000204049,-3.02619,-1.65818,-0.0355813,-1.31346,0.2167331,
2,1,0,1,0,46444.2,0.224528,0.224235,0.936798,24,0.0152389,10,0.000210063,-3.02835,-1.55294,-0.0379926,-1.38828,0.224235,
2,1,0,1,0,46444.6,0.232019,0.231721,0.930125,24,0.0155939,10,0.00021553,-3.03146,-2.59386,-0.022746,-0.825802,0.231721,
2,1,0,1,0,46445,0.23951,0.239192,0.922961,24,0.0159466,10,0.000220765,-3.03482,-5.58046,-0.0105726,-0.380546,0.2391921,
2,1,0,1,0,46445.4,0.247001,0.246687,0.91709,24,0.0162971,10,0.000226234,-3.03759,-2.61354,-0.0225748,-0.80688,0.2466868,
2,1,0,1,0,46445.7,0.254492,0.254195,0.912201,24,0.0166454,10,0.000231877,-3.03991,-3.25359,-0.0181338,-0.64555,0.254195,
2,1,0,1,0,46446.1,0.261983,0.261682,0.905331,24,0.0169916,10,0.000236909,-3.04319,-1.76915,-0.0333493,-1.17922,0.261682,
2,1,0,1,0,46446.5,0.269474,0.269112,0.899726,24,0.0173354,10,0.000242127,-3.04589,-2.83681,-0.020798,-0.73064,0.269112,
2,1,0,1,0,46446.9,0.276965,0.276653,0.893836,24,0.017677,10,0.000247282,-3.04874,-1.81954,-0.0324257,-1.13129,0.276653,
2,1,0,1,0,46447.2,0.284456,0.284188,0.885872,24,0.018016,10,0.000251754,-3.05263,-1.60671,-0.036721,-1.26867,0.2841883,
2,1,0,1,0,46447.6,0.291947,0.291639,0.878806,24,0.0183519,10,0.000256294,-3.05611,-2.19043,-0.0269353,-0.922893,0.291639,
2,1,0,1,0,46448,0.299436,0.299139,0.867391,24,0.018685,10,0.000259471,-3.06179,-0.00414249,-14.2426,-302.869,0.299139,
2,0,0,1,0,46448.3,0.293745,0.293469,-0.168417,24,0.0187148,10,-4.94251e-05,-3.77361,-0.0144121,-4.09378,24.3534,0.293469,
2,0,0,1,0,46448.7,0.286254,0.285944,-0.277993,24,0.0186224,10,-7.94904e-05,-3.55597,-0.0578649,-1.01962,11.0552,0.285944,
2,0,0,1,0,46449.1,0.278763,0.278488,-0.344558,24,0.0184989,10,-9.59553e-05,-3.46274,-0.109133,-0.540627,7.29761,0.2784878,
2,0,0,1,0,46449.5,0.271272,0.270937,-0.393793,24,0.0183541,10,-0.000106693,-3.40473,-0.149442,-0.394802,6.06526,0.270937,
2,0,0,1,0,46449.8,0.263781,0.263456,-0.433925,24,0.0181923,10,-0.00011432,-3.36258,-0.203299,-0.290213,4.93482,0.263456,
2,0,0,1,0,46450.2,0.25629,0.255963,-0.473534,24,0.0180163,10,-0.000121207,-3.32465,-0.257447,-0.229173,4.20795,0.255963,
2,0,0,1,0,46450.6,0.248799,0.248482,-0.503985,24,0.0178276,10,-0.000125231,-3.29758,-0.300825,-0.196127,3.85864,0.2484822,
2,0,0,1,0,46451,0.241308,0.241041,-0.531063,24,0.0176274,10,-0.000128008,-3.27485,-0.399406,-0.147719,3.07337,0.241041,
2,0,0,1,0,46451.3,0.233817,0.233486,-0.559842,24,0.0174166,10,-0.000130715,-3.25193,-0.438743,-0.134475,2.94157,0.233486,
2,0,0,1,0,46451.7,0.226326,0.226039,-0.58827,24,0.0171955,10,-0.000132972,-3.23042,-0.363947,-0.162111,3.7134,0.226039,
2,0,0,1,0,46452.1,0.218835,0.21855,-0.613291,24,0.0169645,10,-0.000134035,-3.21233,-0.417824,-0.141208,3.38086,0.21855,
2,0,0,1,0,46452.4,0.211344,0.21104,-0.638234,24,0.016724,10,-0.000134693,-3.19502,-0.543958,-0.108464,2.70497,0.21104,
2,0,0,1,0,46452.8,0.203855,0.20354,-0.664741,24,0.0164738,10,-0.000135302,-3.17735,-0.583416,-0.101129,2.62599,0.20354,
2,0,0,1,0,46453.2,0.196362,0.196063,-0.690119,24,0.0162139,10,-0.000135307,-3.16108,-0.433796,-0.136009,3.67386,0.196063,
2,0,0,1,0,46453.6,0.188871,0.188539,-0.717886,24,0.0159434,10,-0.00013535,-3.14394,-0.302024,-0.195349,5.48797,0.188539,
2,0,0,1,0,46453.9,0.18138,0.181059,-0.753306,24,0.0156614,10,-0.000136393,-3.12303,-0.354479,-0.166441,4.8915,0.1810585,
2,0,0,1,0,46454.3,0.173891,0.173613,-0.791802,24,0.0153665,10,-0.000137467,-3.10138,-0.305555,-0.193091,5.96376,0.173613,
2,0,0,1,0,46454.7,0.166398,0.166079,-0.838822,24,0.0150555,10,-0.000139311,-3.07633,-0.314302,-0.187717,6.16176,0.166079,
2,0,0,1,0,46455.1,0.158906,0.158589,-0.901182,24,0.0147234,10,-0.000142918,-3.04519,-0.20464,-0.288311,10.1962,0.158589,
2,0,0,1,0,46455.4,0.151417,0.151072,-1.00534,24,0.0143608,10,-0.000151879,-2.99769,-0.141917,-0.415737,16.3803,0.151072,
2,0,0,1,0,46455.8,0.143926,0.143626,-1.17964,24,0.0139481,10,-0.000169427,-2.92825,-0.0875454,-0.673936,31.0274,0.143626,
2,0,0,1,0,46456.2,0.136435,0.136118,-1.44198,24,0.0134532,10,-0.00019628,-2.84104,-0.0837609,-0.704386,39.6032,0.136118,
2,0,0,1,0,46456.6,0.128942,0.128622,-1.7414,24,0.0128503,10,-0.000223982,-2.7591,-0.106252,-0.555282,37.6475,0.128622,
2,0,0,1,0,46456.9,0.121453,0.121114,-1.9937,24,0.0121424,10,-0.000241464,-2.70034,-0.166357,-0.354658,27.532,0.121114,
2,0,0,1,0,46457.3,0.113962,0.113632,-2.14938,24,0.0113564,10,-0.000244239,-2.66769,-0.386865,-0.152508,12.779,0.113632,
2,0,0,1,0,46457.7,0.106471,0.106152,-2.19139,24,0.010533,10,-0.00023262,-2.65928,4.81451,0.0122546,-1.04846,0.106152,
2,0,0,1,0,46458.1,0.0989798,0.0986796,-2.1486,24,0.00971168,10,-0.000212023,-2.66784,0.662533,0.0890522,-7.47129,0.0986796,
2,0,0,1,0,46458.4,0.0914889,0.091194,-2.08835,24,0.00891222,10,-0.000190445,-2.6802,0.644911,0.0914855,-7.4421,0.091194,
2,0,0,1,0,46458.8,0.083998,0.0837161,-2.02769,24,0.00813636,10,-0.00016975,-2.693,0.615166,0.0959091,-7.5805,0.0837161,
2,0,0,1,0,46459.2,0.076507,0.0761851,-1.97564,24,0.00738074,10,-0.000150514,-2.70429,0.599901,0.0983495,-7.57346,0.0761851,
2,0,0,1,0,46459.6,0.069016,0.068699,-1.91952,24,0.00664484,10,-0.000131869,-2.71681,0.608667,0.0969332,-7.27103,0.068699,
2,0,0,1,0,46459.9,0.0615251,0.0612178,-1.86826,24,0.00592875,10,-0.000114371,-2.72856,0.617903,0.0954843,-6.96472,0.0612178,
2,0,0,1,0,46460.3,0.0540341,0.0537303,-1.81184,24,0.00523377,10,-9.73506e-05,-2.74188,0.622205,0.094824,-6.70007,0.0537303,
2,0,0,1,0,46460.7,0.0465432,0.046218,-1.74812,24,0.00456016,10,-8.07947e-05,-2.75743,0.494813,0.119237,-8.14661,0.046218,
2,0,0,1,0,46461.1,0.0390523,0.0387243,-1.6881,24,0.00391013,10,-6.53706e-05,-2.7726,0.39646,0.148817,-9.78146,0.0387243,
2,0,0,1,0,46461.4,0.0315626,0.0312062,-1.62024,24,0.00328509,10,-5.05614e-05,-2.79042,0.418967,0.140822,-8.89917,0.0312062,
2,0,0,1,0,46461.8,0.0240704,0.0237606,-1.55349,24,0.00268412,10,-3.69117e-05,-2.80869,0.452167,0.130483,-7.9333,0.0237606,
2,0,0,1,0,46462.2,0.0165785,0.0162511,-1.50475,24,0.00210475,10,-2.44538e-05,-2.82254,0.73975,0.0797566,-4.69053,0.0162511,
2,0,0,1,0,46462.6,0.00908846,0.00876961,-1.4715,24,0.00154181,10,-1.29045e-05,-2.83224,1.21204,0.0486782,-2.79323,0.00876961,
2,0,0,1,0,46462.9,0.0015984,0.00127358,-1.46992,24,0.000987771,10,-1.87206e-06,-2.83271, , , ,0.00127358,
2,0,0,1,0,46463,0.000199195,-0.000137683,-1.45588,24,0.000884157,10,2.00449e-07,-2.83688, , , ,-0.000137683,