File: Figure_codes/Fig_3-5/rawdata_trumpetplot_data/after 10th/20221101_1-115_003_TrumpetPlot_ParaChange_from10_every3_12_CV_C01_31.csv
mode,ox/red,error,control changes,counter inc.,time/s,control/V,Ewe/V,<I>/mA,cycle number,(Q-Qo)/C,I Range,P/W,log(|I|),Tafel slope mV/dec,alpha_eff,dI/d(E-IR),E-IR/V,
2,1,0,1,0,62270.6,2.44065e-05,-0.000401673,13.1727,32,0.0000000E+000,10,-5.29111e-06,-1.88033, , , ,-0.000401673,
2,1,0,1,0,62270.6,0.0104008,0.0100338,16.0438,32,0.000254038,10,0.00016098,-1.79469,0.178802,0.329973,205.567,0.0100338,
2,1,0,1,0,62270.6,0.0212099,0.0208468,18.0096,32,0.000561352,10,0.000375441,-1.7445,0.25556,0.230865,161.774,0.0208468,
2,1,0,1,0,62270.6,0.0320052,0.0316374,19.6102,32,0.000900385,10,0.000620417,-1.70752,0.324321,0.181919,138.977,0.0316374,
2,1,0,1,0,62270.6,0.0428033,0.0424091,21.0217,32,0.00126638,10,0.000891512,-1.67733,0.392287,0.1504,123.251,0.0424091,
2,1,0,1,0,62270.7,0.0535986,0.0532167,22.3055,32,0.00165653,10,0.00118703,-1.65159,0.440728,0.133869,116.497,0.0532167,
2,1,0,1,0,62270.7,0.0644077,0.0640604,23.5401,32,0.00206937,10,0.00150799,-1.62819,0.476397,0.123846,113.737,0.0640604,
2,1,0,1,0,62270.7,0.075203,0.0748713,24.7534,32,0.00250419,10,0.00185332,-1.60637,0.504257,0.117004,113.043,0.0748713,
2,1,0,1,0,62270.7,0.0860011,0.0856546,25.9693,32,0.00296081,10,0.00222439,-1.58554,0.530167,0.111286,112.806,0.0856546,
2,1,0,1,0,62270.7,0.0968075,0.0964474,27.2035,32,0.00343951,10,0.0026237,-1.56538,0.547764,0.107711,114.342,0.0964474,
2,1,0,1,0,62270.7,0.107606,0.107227,28.4529,32,0.00394053,10,0.00305093,-1.54587,0.563502,0.104702,116.247,0.107227,
2,1,0,1,0,62270.8,0.118401,0.118017,29.7323,32,0.00446414,10,0.00350892,-1.52677,0.568238,0.10383,120.482,0.1180171,
2,1,0,1,0,62270.8,0.129207,0.128839,31.0799,32,0.00501141,10,0.00400429,-1.50752,0.566777,0.104097,126.231,0.128839,
2,1,0,1,0,62270.8,0.140005,0.139578,32.5194,32,0.00558347,10,0.004539,-1.48786,0.524267,0.112538,142.791,0.139578,
2,1,0,1,0,62270.8,0.150803,0.150409,34.0516,32,0.00618283,10,0.00512168,-1.46786,0.566065,0.104228,138.476,0.150409,
2,1,0,1,0,62270.8,0.161604,0.161225,35.5077,32,0.0068091,10,0.00572475,-1.44968,0.632478,0.0932839,129.201,0.161225,
2,1,0,1,0,62270.9,0.172405,0.172026,36.8131,32,0.00746048,10,0.00633279,-1.434,0.761278,0.0775013,111.262,0.172026,
2,1,0,1,0,62270.9,0.183203,0.182806,37.8354,32,0.00813309,10,0.00691653,-1.4221,1.16484,0.0506507,74.7051,0.182806,
2,1,0,1,0,62270.9,0.194001,0.193629,38.3742,32,0.00881993,10,0.00743038,-1.41596,3.92549,0.01503,22.4822,0.193629,
2,1,0,1,0,62270.9,0.204808,0.204433,38.3287,32,0.00951127,10,0.00783564,-1.41648,-2.78662,-0.0211726,-31.631,0.204433,
2,1,0,1,0,62270.9,0.215603,0.215242,37.686,32,0.0101963,10,0.0081116,-1.42382,-1.0183,-0.05794,-85.1029,0.215242,
2,1,0,1,0,62270.9,0.226401,0.226073,36.485,32,0.0108646,10,0.00824827,-1.43789,-0.622042,-0.0948489,-134.887,0.226073,
2,1,0,1,0,62271,0.237207,0.236855,34.8562,32,0.0115069,10,0.00825587,-1.45772,-0.484129,-0.121868,-165.617,0.236855,
2,1,0,1,0,62271,0.248005,0.24766,32.9977,32,0.0121175,10,0.00817222,-1.48152,-0.437004,-0.13501,-173.769,0.24766,
2,1,0,1,0,62271,0.258801,0.258482,31.1022,32,0.012694,10,0.00803936,-1.50721,-0.416223,-0.141751,-172.056,0.258482,
2,1,0,1,0,62271,0.26961,0.269299,29.3181,32,0.0132373,10,0.00789533,-1.53286,-0.427869,-0.137893,-157.806,0.269299,
2,1,0,1,0,62271,0.280405,0.280046,27.7034,32,0.0137501,10,0.00775822,-1.55747,-0.457659,-0.128917,-139.437,0.280046,
2,1,0,1,0,62271,0.291203,0.290863,26.2811,32,0.0142355,10,0.00764419,-1.58036,-0.494995,-0.119193,-122.345,0.290863,
2,1,0,0,0,62271.1,0.300012,0.299727,25.2509,32,0.0146142,10,0.0075684,-1.59772,0.00341668,17.2682,15601.9,0.299727,
2,1,0,1,0,62271.1,0.290842,0.290535,15.5256,32,0.0149147,10,0.00451074,-1.80895,0.0463282,1.27352,776.884,0.290535,
2,1,0,1,0,62271.1,0.280047,0.279709,8.77162,32,0.0151288,10,0.0024535,-2.05692,0.0383495,1.53848,522.285,0.279709,
2,1,0,1,0,62271.1,0.269244,0.268916,3.91976,32,0.0152403,10,0.00105409,-2.40674,0.0221948,2.65828,386.964,0.2689161,
2,1,0,1,0,62271.1,0.258443,0.258183,0.253286,32,0.0152761,10,6.5394e-05,-3.59639,0.0478952,1.23185,299.926,0.2581827,
2,0,0,1,0,62271.2,0.247645,0.247287,-2.62409,32,0.0152534,10,-0.000648903,-2.58102,-0.0231955,-2.5436,237.671,0.247287,
2,0,0,1,0,62271.2,0.236849,0.236513,-4.94239,32,0.0151843,10,-0.00116894,-2.30606,-0.056991,-1.03525,195.55,0.236513,
2,0,0,1,0,62271.2,0.22604,0.225743,-6.84688,32,0.0150775,10,-0.00154563,-2.16451,-0.0977037,-0.603867,159.838,0.225743,
2,0,0,1,0,62271.2,0.215245,0.214874,-8.45251,32,0.0149393,10,-0.00181622,-2.07301,-0.140166,-0.420929,138.118,0.214874,
2,0,0,1,0,62271.2,0.204447,0.204067,-9.83485,32,0.0147744,10,-0.00200697,-2.00723,-0.187946,-0.313921,120.065,0.204067,
2,0,0,1,0,62271.2,0.19364,0.193237,-11.0517,32,0.0145862,10,-0.00213559,-1.95657,-0.238876,-0.24699,106.274,0.193237,
2,0,0,1,0,62271.3,0.182842,0.182466,-12.134,32,0.0143773,10,-0.00221404,-1.916,-0.285955,-0.206326,97.6454,0.182466,
2,0,0,1,0,62271.3,0.172047,0.171719,-13.1673,32,0.0141494,10,-0.00226109,-1.8805,-0.320469,-0.184105,94.6203,0.171719,
2,0,0,1,0,62271.3,0.161241,0.160928,-14.191,32,0.0139031,10,-0.00228372,-1.84799,-0.341821,-0.172605,95.6255,0.1609275,
2,0,0,1,0,62271.3,0.150443,0.150118,-15.279,32,0.0136379,10,-0.00229365,-1.81591,-0.324946,-0.181568,108.359,0.150118,
2,0,0,1,0,62271.3,0.139645,0.139292,-16.5635,32,0.0133516,10,-0.00230717,-1.78085,-0.285174,-0.206892,133.997,0.139292,
2,0,0,1,0,62271.3,0.128849,0.128484,-18.2235,32,0.013039,10,-0.00234144,-1.73937,-0.240644,-0.245176,174.702,0.128484,
2,0,0,1,0,62271.4,0.118043,0.117744,-20.3745,32,0.0126923,10,-0.00239897,-1.69091,-0.211251,-0.279288,222.234,0.117744,
2,0,0,1,0,62271.4,0.107245,0.106919,-22.9173,32,0.0123027,10,-0.00245029,-1.63984,-0.216427,-0.27261,243.716,0.106919,
2,0,0,1,0,62271.4,0.0964468,0.0961271,-25.5534,32,0.0118662,10,-0.00245638,-1.59255,-0.243316,-0.242483,241.574,0.0961271,
2,0,0,1,0,62271.4,0.0856404,0.085329,-28.0387,32,0.0113833,10,-0.00239251,-1.55224,-0.287478,-0.205233,224.462,0.085329,
2,0,0,1,0,62271.4,0.0748451,0.0744906,-30.305,32,0.0108573,10,-0.00225744,-1.51849,-0.35686,-0.165331,195.273,0.0744906,
2,0,0,1,0,62271.5,0.0640471,0.0637222,-32.1882,32,0.010294,10,-0.0020511,-1.4923,-0.47831,-0.123351,154.735,0.0637222,
2,0,0,1,0,62271.5,0.0532407,0.0529495,-33.6639,32,0.0097007,10,-0.00178249,-1.47284,-0.64272,-0.0917974,120.473,0.0529495,
2,0,0,1,0,62271.5,0.0424426,0.04211,-34.7946,32,0.00908394,10,-0.0014652,-1.45849,-0.900901,-0.06549,88.8483,0.04211,
2,0,0,1,0,62271.5,0.0316473,0.0312854,-35.6005,32,0.00844982,10,-0.00111378,-1.44854,-1.33016,-0.0443556,61.584,0.0312854,
2,0,0,1,0,62271.5,0.0208437,0.0205127,-36.1467,32,0.00780377,10,-0.000741468,-1.44193,-2.1892,-0.0269505,37.9826,0.0205127,
2,0,0,1,0,62271.5,0.0100429,0.00968279,-36.45,32,0.00715012,10,-0.000352937,-1.4383,-4.4691,-0.0132018,18.7668,0.00968279,
2,0,0,1,0,62271.6,-0.000755208,-0.00115774,-36.5846,32,0.00649262,10,4.23556e-05,-1.4367,-31.0627,-0.00189938,2.70873,-0.001157743,
2,0,0,1,0,62271.6,-0.0115505,-0.0119718,-36.4593,32,0.00583497,10,0.000436483,-1.43819,4.15329,0.0142056,-20.206,-0.0119718,
2,0,0,1,0,62271.6,-0.0223597,-0.0227328,-36.1584,32,0.00518117,10,0.000821981,-1.44179,2.33138,0.0253069,-35.6924,-0.0227328,
2,0,0,1,0,62271.6,-0.033155,-0.0335309,-35.6975,32,0.00453425,10,0.00119697,-1.44736,1.89389,0.0311529,-43.414,-0.0335309,
2,0,0,1,0,62271.6,-0.043953,-0.0443725,-35.2013,32,0.00389607,10,0.00156197,-1.45344,1.68518,0.0350111,-48.1091,-0.04437251,
2,0,0,1,0,62271.7,-0.0547594,-0.0551727,-34.7064,32,0.00326702,10,0.00191485,-1.45959,1.81271,0.0325479,-44.0957,-0.0551727,
2,0,0,1,0,62271.7,-0.0655575,-0.0659475,-34.279,32,0.00264627,10,0.00226061,-1.46497,2.38603,0.0247272,-33.0987,-0.0659475,
2,0,0,1,0,62271.7,-0.0763528,-0.0767584,-33.9795,32,0.0020321,10,0.00260822,-1.46878,3.41746,0.0172643,-22.9017,-0.0767584,
2,0,0,1,0,62271.7,-0.0871592,-0.0875639,-33.8123,32,0.00142233,10,0.00296074,-1.47093,7.55413,0.00781029,-10.3073,-0.0875639,
2,0,0,1,0,62271.7,-0.0979573,-0.0983621,-33.7607,32,0.000814443,10,0.00332078,-1.47159,10.6394,0.00554542,-7.29948,-0.0983621,
2,0,0,1,1,62271.7,-0.0955546,-0.0959709,-27.0391,32,0.000471677,10,0.00259496,-1.56801,-0.0517716,-1.13962,1221.86,-0.0959709,
2,0,0,1,1,62271.8,-0.0847538,-0.0851939,-17.2292,32,8.05247e-05,10,0.00146782,-1.76374,-0.0530737,-1.11166,748.135,-0.0851939,
2,0,0,1,1,62271.8,-0.0739557,-0.0744064,-10.2036,32,-0.000163131,10,0.000759214,-1.99125,-0.0404012,-1.46035,575.137,-0.0744064,
2,0,0,1,1,62271.8,-0.0631604,-0.0635648,-4.60398,32,-0.000294177,10,0.000292651,-2.33687,-0.0210547,-2.80222,471.088,-0.0635648,
2,0,0,1,1,62271.8,-0.0523512,-0.0528165,0.0332186,32,-0.000333581,10,-1.75449e-06,-4.47862,-0.504471,-0.116954,395.837,-0.0528165,
2,1,0,1,1,62271.8,-0.0415559,-0.0420195,3.92262,32,-0.000296649,10,-0.000164827,-2.40642,0.0252773,2.33411,331.627,-0.0420195,
2,1,0,1,1,62271.8,-0.0307579,-0.0312129,7.24981,32,-0.000194957,10,-0.000226287,-2.13967,0.0577015,1.0225,284.364,-0.0312129,
2,1,0,1,1,62271.9,-0.0199515,-0.0203681,10.1106,32,-3.77122e-05,10,-0.000205934,-1.99522,0.0951778,0.619893,242.473,-0.0203681,
2,1,0,1,1,62271.9,-0.0091534,-0.00954662,12.5572,32,0.000167064,10,-0.000119879,-1.90111,0.137348,0.429566,209.36,-0.00954662,
2,1,0,0,1,62271.9,-7.54729e-05,-0.000363498,14.2775,32,0.000370387,10,-5.18983e-06,-1.84535, , , ,-0.000363498,