File: Figure_codes/Fig_3-5/rawdata_trumpetplot_data/after 10th/20221101_1-115_003_TrumpetPlot_ParaChange_from10_every3_10_CV_C01_5.csv
mode,ox/red,error,control changes,counter inc.,time/s,control/V,Ewe/V,<I>/mA,cycle number,(Q-Qo)/C,I Range,P/W,log(|I|),Tafel slope mV/dec,alpha_eff,dI/d(E-IR),E-IR/V,
2,1,0,0,0,11041.2,-2.44065e-05,-0.000287149,5.35458,6,0.0000000E+000,10,-1.53756e-06,-2.27127, , , ,-0.0002871489,
2,1,0,1,0,11041.2,0.00977853,0.0094014,8.58049,6,0.000357692,10,8.06686e-05,-2.06649,0.110953,0.531757,177.133,0.0094014,
2,1,0,1,0,11041.3,0.0197755,0.0194439,9.8056,6,0.000820756,10,0.000190659,-2.00853,0.250484,0.235544,90.0994,0.0194439,
2,1,0,1,0,11041.3,0.0297726,0.0294492,10.5825,6,0.00133152,10,0.000311647,-1.97541,0.354265,0.166542,68.7829,0.0294492,
2,1,0,1,0,11041.4,0.0397514,0.0393842,11.2926,6,0.00187763,10,0.00044475,-1.94721,0.33378,0.176763,77.9952,0.0393842,
2,1,0,1,0,11041.4,0.0497393,0.0493737,12.0556,6,0.0024598,10,0.000595229,-1.91881,0.358152,0.164734,77.3812,0.0493737,
2,1,0,1,0,11041.5,0.0597364,0.0594041,12.8338,6,0.00308179,10,0.00076238,-1.89164,0.363222,0.162435,81.3362,0.0594041,
2,1,0,1,0,11041.5,0.0697152,0.0693998,13.6277,6,0.00374204,10,0.000945763,-1.86558,0.389075,0.151642,80.6593,0.0693998,
2,1,0,1,0,11041.6,0.0796941,0.0793842,14.4114,6,0.00444226,10,0.00114404,-1.84129,0.437333,0.134909,75.8875,0.0793842,
2,1,0,1,0,11041.6,0.0896911,0.0893599,15.1374,6,0.00518165,10,0.00135268,-1.81995,0.488709,0.120726,71.3657,0.0893599,
2,1,0,1,0,11041.7,0.099679,0.0993717,15.8573,6,0.00595487,10,0.00157576,-1.79977,0.498763,0.118293,73.1506,0.0993717,
2,1,0,1,0,11041.7,0.109658,0.109327,16.6906,6,0.00676565,10,0.00182474,-1.77753,0.387145,0.152398,99.3081,0.109327,
2,1,0,1,0,11041.8,0.119655,0.119337,17.8564,6,0.0076281,10,0.00213094,-1.74821,0.322096,0.183175,127.643,0.119337,
2,1,0,1,0,11041.8,0.129652,0.129324,19.1865,6,0.00855421,10,0.00248128,-1.71701,0.328936,0.179366,134.285,0.129324,
2,1,0,1,0,11041.9,0.139631,0.139312,20.4042,6,0.00954347,10,0.00284255,-1.69028,0.434938,0.135651,108.02,0.139312,
2,1,0,1,0,11041.9,0.149619,0.149273,21.3589,6,0.0105868,10,0.00318831,-1.67042,0.616883,0.0956421,79.6375,0.149273,
2,1,0,1,0,11042,0.159616,0.159285,21.6866,6,0.0116672,10,0.00345437,-1.66381,-1.5052,-0.0391975,-33.133,0.159285,
2,1,0,1,0,11042,0.169595,0.16926,20.3187,6,0.0127246,10,0.00343914,-1.6921,-0.176359,-0.334546,-264.502,0.16926,
2,1,0,1,0,11042.1,0.179573,0.179258,16.7761,6,0.0136555,10,0.00300725,-1.77531,-0.0979652,-0.602255,-394.312,0.179258,
2,1,0,1,0,11042.1,0.18957,0.189285,13.2729,6,0.0144014,10,0.00251237,-1.87703,-0.108764,-0.542459,-281.467,0.189285,
2,1,0,1,0,11042.2,0.199558,0.199291,11.1712,6,0.0150056,10,0.00222631,-1.9519,-0.172126,-0.342772,-149.491,0.199291,
2,1,0,1,0,11042.2,0.209537,0.209216,10.0139,6,0.0155311,10,0.00209507,-1.9994,-0.255648,-0.230786,-90.2864,0.209216,
2,1,0,1,0,11042.3,0.219534,0.219206,9.32071,6,0.0160129,10,0.00204315,-2.03055,-0.398769,-0.147955,-53.8171,0.219206,
2,1,0,1,0,11042.3,0.229531,0.229227,8.84548,6,0.0164665,10,0.00202762,-2.05328,-0.482495,-0.122281,-42.2677,0.229227,
2,1,0,1,0,11042.4,0.23951,0.239214,8.52623,6,0.0168997,10,0.00203959,-2.06924,-0.690274,-0.0854733,-28.4445,0.239214,
2,1,0,1,0,11042.4,0.249498,0.249205,8.28111,6,0.0173187,10,0.00206369,-2.08191,-0.877514,-0.0672354,-21.7206,0.2492049,
2,1,0,1,0,11042.5,0.259495,0.259234,8.09257,6,0.0177277,10,0.00209787,-2.09191,-0.945609,-0.0623936,-19.6834,0.259234,
2,1,0,1,0,11042.5,0.269474,0.269163,7.92358,6,0.018127,10,0.00213273,-2.10108,-1.30678,-0.045149,-13.9697,0.269163,
2,1,0,1,0,11042.6,0.279453,0.279127,7.78411,6,0.0185188,10,0.00217275,-2.10879,-1.17538,-0.0501967,-15.2394,0.279127,
2,1,0,1,0,11042.6,0.28945,0.28907,7.64437,6,0.0189045,10,0.00220975,-2.11666,-1.61119,-0.036619,-10.933,0.28907,
2,1,0,1,0,11042.7,0.299438,0.299134,7.53213,6,0.0192833,10,0.00225312,-2.12308,-0.0522293,-1.12963,-316.953,0.299134,
2,0,0,1,0,11042.7,0.291747,0.291401,-0.716822,6,0.0193931,10,-0.000208883,-3.14459,-0.00463933,-12.7174,394.092,0.291401,
2,0,0,1,0,11042.8,0.28175,0.281427,-2.78531,6,0.0192945,10,-0.000783862,-2.55513,-0.0559562,-1.0544,113.754,0.281427,
2,0,0,1,0,11042.8,0.27178,0.271497,-3.59703,6,0.0191334,10,-0.000976585,-2.44406,-0.130995,-0.4504,62.9273,0.271497,
2,0,0,1,0,11042.9,0.261783,0.261448,-4.08877,6,0.0189405,10,-0.001069,-2.38841,-0.231747,-0.254588,40.6216,0.2614477,
2,0,0,1,0,11042.9,0.251786,0.251452,-4.47211,6,0.0187261,10,-0.00112452,-2.34949,-0.296431,-0.199034,34.6977,0.251452,
2,0,0,1,0,11043,0.241807,0.241501,-4.78521,6,0.0184946,10,-0.00115563,-2.3201,-0.380133,-0.155209,29.0843,0.241501,
2,0,0,1,0,11043,0.231824,0.231512,-5.09086,6,0.0182482,10,-0.00117859,-2.29321,-0.373769,-0.157852,31.2819,0.231512,
2,0,0,1,0,11043.1,0.221822,0.221523,-5.34713,6,0.0179872,10,-0.00118451,-2.27188,-0.43841,-0.134577,28.1089,0.221523,
2,0,0,1,0,11043.1,0.211843,0.211537,-5.62309,6,0.0177136,10,-0.00118949,-2.25002,-0.542249,-0.108806,23.8208,0.211537,
2,0,0,1,0,11043.2,0.201865,0.201507,-5.88796,6,0.0174264,10,-0.00118647,-2.23003,-0.502265,-0.117468,27.0339,0.201507,
2,0,0,1,0,11043.2,0.191868,0.191538,-6.18978,6,0.0171245,10,-0.00118558,-2.20833,-0.424038,-0.139138,33.5939,0.191538,
2,0,0,1,0,11043.3,0.18188,0.181543,-6.54473,6,0.0168073,10,-0.00118815,-2.18411,-0.338505,-0.174296,44.475,0.181543,
2,0,0,1,0,11043.3,0.171901,0.17156,-6.99331,6,0.0164704,10,-0.00119978,-2.15532,-0.311664,-0.189307,51.5557,0.1715603,
2,0,0,1,0,11043.4,0.161904,0.161589,-7.60868,6,0.0161064,10,-0.00122948,-2.11869,-0.230175,-0.256327,76.211,0.161589,
2,0,0,1,0,11043.4,0.151907,0.15158,-8.58306,6,0.0157031,10,-0.00130102,-2.06636,-0.166188,-0.35502,119.001,0.15158,
2,0,0,1,0,11043.5,0.141928,0.141603,-10.1561,6,0.0152385,10,-0.00143814,-1.99327,-0.116292,-0.507344,201.375,0.141603,
2,0,0,1,0,11043.5,0.13194,0.131673,-12.4929,6,0.0146762,10,-0.00164497,-1.90334,-0.109315,-0.539727,263.013,0.131673,
2,0,0,1,0,11043.6,0.121943,0.12168,-15.1945,6,0.0139834,10,-0.00184887,-1.81831,-0.133435,-0.442164,262.346,0.12168,
2,0,0,1,0,11043.6,0.111964,0.111654,-17.6683,6,0.0131607,10,-0.00197272,-1.75281,-0.189687,-0.311039,214.185,0.111654,
2,0,0,1,0,11043.7,0.101985,0.101708,-19.466,6,0.0122311,10,-0.00197984,-1.71072,-0.315698,-0.186887,141.829,0.101708,
2,0,0,1,0,11043.7,0.0919883,0.0916808,-20.5005,6,0.0112282,10,-0.0018795,-1.68824,-0.757626,-0.0778748,62.2575,0.0916808,
2,0,0,1,0,11043.8,0.0820004,0.0816968,-20.6299,6,0.0101978,10,-0.0016854,-1.6855,1.50372,0.0392359,-31.5654,0.0816968,
2,0,0,1,0,11043.8,0.0720215,0.0716903,-19.9083,6,0.0091837,10,-0.00142723,-1.70097,0.463581,0.12727,-98.8695,0.0716903,
2,0,0,1,0,11043.9,0.0620245,0.0617397,-18.891,6,0.00821388,10,-0.00116632,-1.72375,0.4536,0.13007,-95.9647,0.0617397,
2,0,0,1,0,11043.9,0.0520275,0.0516928,-18.0756,6,0.00729081,10,-0.00093438,-1.74291,0.564882,0.104447,-73.6301,0.0516928,
2,0,0,1,0,11044,0.0420486,0.0417216,-17.3891,6,0.00640633,10,-0.000725503,-1.75972,0.633296,0.0931634,-63.2978,0.0417216,
2,0,0,1,0,11044,0.0320607,0.031685,-16.77,6,0.00555397,10,-0.000531357,-1.77547,0.590613,0.0998963,-65.3019,0.031685,
2,0,0,1,0,11044.1,0.0220637,0.0217518,-16.0451,6,0.00473317,10,-0.000349009,-1.79466,0.464017,0.127151,-79.6183,0.0217518,
2,0,0,1,0,11044.1,0.0120848,0.0117402,-15.1755,6,0.00395367,10,-0.000178164,-1.81886,0.356868,0.165327,-97.8448,0.0117402,
2,0,0,1,0,11044.2,0.00210598,0.00171789,-14.2623,6,0.00322077,10,-2.4501e-05,-1.84581,0.412714,0.142956,-79.4343,0.00171789,
2,0,0,1,0,11044.2,-0.00789103,-0.00819798,-13.4273,6,0.00252975,10,0.000110077,-1.87201,0.47652,0.123814,-64.9535,-0.00819798,
2,0,0,1,0,11044.3,-0.017879,-0.0182602,-12.9553,6,0.00187278,10,0.000236566,-1.88755,0.974177,0.060564,-30.6184,-0.01826025,
2,0,0,1,0,11044.3,-0.0278578,-0.0281989,-12.7577,6,0.00123251,10,0.000359754,-1.89423,3.21367,0.0183591,-9.14666,-0.0281989,
2,0,0,1,0,11044.4,-0.0378548,-0.0382024,-12.7936,6,0.00059455,10,0.000488747,-1.89301,-2.58577,-0.0228172,11.3893,-0.03820239,
2,0,0,1,0,11044.4,-0.0478519,-0.0482085,-12.9776,6,-4.9275e-05,10,0.00062563,-1.88681,-1.00237,-0.0588607,29.8284,-0.0482085,
2,0,0,1,0,11044.5,-0.0578126,-0.0581972,-13.2884,6,-0.000703087,10,0.000773346,-1.87653,-0.879396,-0.0670915,34.8015,-0.0581972,
2,0,0,1,0,11044.5,-0.0678187,-0.0681999,-13.7031,6,-0.0013773,10,0.000934548,-1.86318,-0.688978,-0.0856341,45.7499,-0.0681999,
2,0,0,1,0,11044.6,-0.0778157,-0.0781886,-14.195,6,-0.0020744,10,0.00110989,-1.84786,-0.596077,-0.0989804,54.8711,-0.0781886,
2,0,0,1,0,11044.6,-0.0877945,-0.088158,-14.8253,6,-0.002798,10,0.00130697,-1.829,-0.497322,-0.118635,68.6114,-0.088158,
2,0,0,1,0,11044.7,-0.0977734,-0.0981583,-15.5235,6,-0.00355512,10,0.00152376,-1.80901,-0.470507,-0.125397,76.0389,-0.0981583,
2,0,0,1,1,11044.7,-0.0936874,-0.0940775,-5.87022,6,-0.00404427,10,0.000552255,-2.23135,-0.0125449,-4.70312,1066.54,-0.0940775,
2,1,0,1,1,11044.8,-0.0837086,-0.0841005,1.40089,6,-0.00413336,10,-0.000117815,-2.8536,0.00469341,12.5708,507.917,-0.08410047,
2,1,0,1,1,11044.8,-0.0737025,-0.0741056,5.32493,6,-0.00395589,10,-0.000394607,-2.27369,0.0404089,1.46007,299.381,-0.07410565,
2,1,0,1,1,11044.9,-0.0637236,-0.0641017,7.60032,6,-0.00362821,10,-0.000487193,-2.11917,0.101944,0.578751,171.571,-0.0641017,
2,1,0,1,1,11044.9,-0.0537447,-0.0541004,8.97022,6,-0.00321148,10,-0.000485292,-2.0472,0.205066,0.287712,100.502,-0.0541004,
2,1,0,1,1,11045,-0.0437477,-0.0440726,9.76383,6,-0.00274106,10,-0.000430317,-2.01038,0.389115,0.151626,57.7812,-0.0440726,
2,1,0,1,1,11045,-0.0337507,-0.0340977,10.2114,6,-0.00224038,10,-0.000348185,-1.99092,0.754148,0.078234,31.1533,-0.0340977,
2,1,0,1,1,11045.1,-0.0237809,-0.0241723,10.4162,6,-0.00172598,10,-0.000251783,-1.98229,1.60606,0.0367359,14.9281,-0.0241723,
2,1,0,1,1,11045.1,-0.0137839,-0.0141463,10.4922,6,-0.00120288,10,-0.000148425,-1.97913,28.1148,0.00209854,0.858943,-0.0141463,
2,1,0,1,1,11045.2,-0.0037869,-0.00416448,10.5005,6,-0.000677976,10,-4.37293e-05,-1.97879,12.3767,0.00476704,1.95414,-0.00416448,
2,1,0,1,1,11045.2,-2.55332e-05,-0.000382585,10.495,6,-0.000481583,10,-4.01523e-06,-1.97902, , , ,-0.000382585,