File: Figure_codes/Fig_3-5/rawdata_trumpetplot_data/after 10th/20221101_1-115_003_TrumpetPlot_ParaChange_from10_every3_14_CV_C01_2.csv
mode,ox/red,error,control changes,counter inc.,time/s,control/V,Ewe/V,<I>/mA,cycle number,(Q-Qo)/C,I Range,P/W,log(|I|),Tafel slope mV/dec,alpha_eff,dI/d(E-IR),E-IR/V,
2,1,0,1,0,5139.37,2.44065e-05,-0.000268062,45.6828,3,0.0000000E+000,10,-1.22458e-05,-1.34025, , , ,-0.000268062,
2,1,0,1,0,5139.38,0.0133084,0.0129616,49.2767,3,0.000626599,10,0.000638704,-1.30736,0.582027,0.10137,194.167,0.0129616,
2,1,0,1,0,5139.4,0.0273414,0.0269483,51.4472,3,0.00133293,10,0.00138642,-1.28864,0.929378,0.0634833,127.092,0.0269483,
2,1,0,1,0,5139.41,0.0413245,0.0409372,52.8826,3,0.00206388,10,0.00216487,-1.27669,1.28886,0.045777,94.4365,0.0409372,
2,1,0,1,0,5139.42,0.0553076,0.0549399,54.119,3,0.00281326,10,0.00297329,-1.26665,1.41617,0.0416618,88.0292,0.0549399,
2,1,0,1,0,5139.44,0.0693407,0.0689532,55.4034,3,0.00357968,10,0.00382024,-1.25646,1.18406,0.0498284,107.879,0.0689532,
2,1,0,1,0,5139.45,0.0833238,0.0829834,57.1069,3,0.00436716,10,0.00473893,-1.24331,0.976115,0.0604437,134.877,0.0829834,
2,1,0,1,0,5139.47,0.0973069,0.0969521,59.2217,3,0.00518121,10,0.00574167,-1.22752,0.790353,0.0746502,172.865,0.0969521,
2,1,0,1,0,5139.48,0.11134,0.110944,61.8824,3,0.00602879,10,0.0068655,-1.20843,0.706656,0.0834918,201.725,0.110944,
2,1,0,1,0,5139.49,0.125323,0.124943,64.8659,3,0.00691583,10,0.00810452,-1.18798,0.659371,0.0894792,226.638,0.124943,
2,1,0,1,0,5139.51,0.139306,0.138934,68.2063,3,0.00784727,10,0.00947615,-1.16618,0.61263,0.096306,256.727,0.138934,
2,1,0,1,0,5139.52,0.153339,0.15297,72.0629,3,0.00882917,10,0.0110235,-1.14229,0.579135,0.101876,286.703,0.15297,
2,1,0,1,0,5139.54,0.167322,0.166958,76.2992,3,0.00986775,10,0.0127388,-1.11748,0.563381,0.104725,311.801,0.166958,
2,1,0,1,0,5139.55,0.181305,0.180998,80.6316,3,0.010967,10,0.0145941,-1.09349,0.612758,0.096286,302.789,0.180998,
2,1,0,1,0,5139.56,0.195338,0.194997,84.5757,3,0.0121249,10,0.016492,-1.07275,0.813164,0.0725561,238.88,0.1949973,
2,1,0,1,0,5139.58,0.209322,0.209014,87.1729,3,0.0133295,10,0.0182203,-1.05962,1.99782,0.0295322,99.9289,0.209014,
2,1,0,1,0,5139.59,0.223305,0.22296,86.9564,3,0.0145526,10,0.0193878,-1.0607,-1.27392,-0.0463137,-155.917,0.22296,
2,1,0,1,0,5139.61,0.237338,0.23706,82.5197,3,0.015744,10,0.0195622,-1.08344,-0.396429,-0.148829,-475.267,0.23706,
2,1,0,1,0,5139.62,0.251321,0.251014,74.1995,3,0.0168433,10,0.0186251,-1.1296,-0.255704,-0.230735,-665.002,0.251014,
2,1,0,1,0,5139.63,0.265304,0.265033,64.5414,3,0.0178133,10,0.0171056,-1.19016,-0.225995,-0.261068,-658.345,0.265033,
2,1,0,1,0,5139.65,0.279337,0.279072,56.0225,3,0.0186545,10,0.0156343,-1.25164,-0.238762,-0.247108,-542.543,0.279072,
2,1,0,1,0,5139.66,0.29332,0.293053,49.4697,3,0.01939,10,0.0144972,-1.30566,-0.280816,-0.210102,-409.719,0.293053,
2,1,0,1,0,5139.67,0.298714,0.29868,43.1811,3,0.01977,10,0.0128973,-1.36471,0.029309,2.01304,2752.4,0.29868,
2,1,0,1,0,5139.68,0.28473,0.284606,15.6816,3,0.0201555,10,0.00446307,-1.80461,0.0246015,2.39823,1396.41,0.284606,
2,1,0,1,0,5139.7,0.270747,0.270511,1.17606,3,0.0202628,10,0.000318138,-2.92957,0.055081,1.07115,793.603,0.270511,
2,0,0,1,0,5139.71,0.256714,0.256448,-7.50878,3,0.0202125,10,-0.00192561,-2.12443,-0.029277,-2.01523,488.256,0.256448,
2,0,0,1,0,5139.73,0.242731,0.242423,-13.0353,3,0.0200657,10,-0.00316005,-1.88488,-0.0890804,-0.662323,324.761,0.242423,
2,0,0,1,0,5139.74,0.228748,0.228462,-16.8376,3,0.0198548,10,-0.00384675,-1.77372,-0.161775,-0.364704,236.95,0.228462,
2,0,0,1,0,5139.75,0.214715,0.214397,-19.7521,3,0.0195971,10,-0.0042348,-1.70439,-0.246263,-0.239581,183.701,0.214397,
2,0,0,1,0,5139.77,0.200732,0.200446,-22.1218,3,0.0193034,10,-0.00443421,-1.65518,-0.316355,-0.1865,160.545,0.200446,
2,0,0,1,0,5139.78,0.186735,0.186458,-24.3094,3,0.0189782,10,-0.00453268,-1.61423,-0.352057,-0.167587,158.965,0.186458,
2,0,0,1,0,5139.8,0.172716,0.172466,-26.5772,3,0.0186218,10,-0.00458365,-1.57549,-0.356338,-0.165573,172.115,0.172466,
2,0,0,1,0,5139.81,0.158733,0.158425,-29.2711,3,0.0182313,10,-0.00463728,-1.53356,-0.306578,-0.192447,220.651,0.158425,
2,0,0,1,0,5139.82,0.144719,0.144445,-32.9089,3,0.0177974,10,-0.00475351,-1.48269,-0.246224,-0.239619,309.307,0.144445,
2,0,0,1,0,5139.84,0.130717,0.13045,-37.9543,3,0.0173024,10,-0.00495115,-1.42074,-0.209054,-0.282224,420.149,0.13045,
2,0,0,1,0,5139.85,0.116733,0.116483,-44.606,3,0.0167254,10,-0.00519582,-1.35061,-0.197797,-0.298286,519.61,0.116483,
2,0,0,1,0,5139.87,0.102703,0.102488,-52.3343,3,0.0160474,10,-0.00536366,-1.28121,-0.215763,-0.273448,556.216,0.1024885,
2,0,0,1,0,5139.88,0.0887173,0.0885145,-59.8723,3,0.0152605,10,-0.00529956,-1.22277,-0.268626,-0.219636,510.873,0.08851447,
2,0,0,1,0,5139.89,0.0747341,0.0745807,-66.5426,3,0.0143743,10,-0.00496279,-1.1769,-0.344943,-0.171043,442.18,0.0745807,
2,0,0,1,0,5139.91,0.0607011,0.0605526,-72.0644,3,0.0134021,10,-0.00436369,-1.14228,-0.484977,-0.121655,340.746,0.0605526,
2,0,0,1,0,5139.92,0.046718,0.0464365,-75.9858,3,0.0123634,10,-0.00352851,-1.11927,-0.824204,-0.0715842,211.305,0.0464365,
2,0,0,1,0,5139.94,0.0327349,0.0324921,-77.9543,3,0.0112834,10,-0.0025329,-1.10816,-2.22064,-0.026569,80.5718,0.0324921,
2,0,0,1,0,5139.95,0.0187018,0.0183696,-78.4749,3,0.0101874,10,-0.00144156,-1.10527,51.9953,0.00113472,-3.46599,0.0183696,
2,0,0,1,0,5139.96,0.00471873,0.00443696,-77.9575,3,0.00909187,10,-0.000345894,-1.10814,3.32989,0.0177183,-53.8607,0.00443696,
2,0,0,1,0,5139.98,-0.00926438,-0.00960176,-76.9185,3,0.00800686,10,0.000738554,-1.11397,1.78151,0.0331179,-99.3059,-0.00960176,
2,0,0,1,0,5139.99,-0.0232974,-0.0236288,-75.2815,3,0.00694098,10,0.00177881,-1.12331,1.17198,0.0503423,-147.548,-0.0236288,
2,0,0,1,0,5140.01,-0.0372805,-0.0376676,-72.7583,3,0.00590421,10,0.00274063,-1.13812,0.820462,0.0719107,-203.862,-0.0376676,
2,0,0,1,0,5140.02,-0.0512636,-0.0516204,-69.6742,3,0.00490722,10,0.00359661,-1.15693,0.729183,0.0809124,-220.068,-0.05162039,
2,0,0,1,0,5140.03,-0.0652967,-0.0656644,-66.8271,3,0.00395273,10,0.00438816,-1.17505,0.844537,0.0698608,-182.406,-0.0656644,
2,0,0,1,0,5140.05,-0.0792798,-0.0796088,-64.6269,3,0.0030338,10,0.00514487,-1.18959,1.19119,0.0495303,-125.195,-0.0796088,
2,0,0,1,0,5140.06,-0.0932629,-0.0936231,-63.3169,3,0.00213927,10,0.00592792,-1.19848,2.31485,0.0254876,-63.1115,-0.0936231,
2,0,0,1,0,5140.08,-0.107296,-0.107651,-62.8507,3,0.00125708,10,0.00676596,-1.20169,12.9026,0.00457273,-11.2277,-0.107651,
2,0,0,1,0,5140.09,-0.121279,-0.121646,-62.9233,3,0.00037738,10,0.0076544,-1.20119,-6.45059,-0.00914645,22.4841,-0.121646,
2,0,0,1,0,5140.1,-0.135262,-0.135605,-63.461,3,-0.000506767,10,0.00860561,-1.19749,-2.75734,-0.0213974,53.043,-0.135605,
2,0,0,1,0,5140.12,-0.149295,-0.149614,-64.4208,3,-0.00140165,10,0.00963823,-1.19097,-1.93113,-0.030552,76.83,-0.149614,
2,0,0,1,0,5140.13,-0.163278,-0.163652,-65.5693,3,-0.00231148,10,0.0107306,-1.1833,-1.69896,-0.0347271,88.8955,-0.163652,
2,0,0,1,0,5140.15,-0.177261,-0.177581,-66.8927,3,-0.00323859,10,0.0118789,-1.17462,-1.53123,-0.0385311,100.615,-0.177581,
2,0,0,1,0,5140.16,-0.191295,-0.191586,-68.4362,3,-0.00418576,10,0.0131114,-1.16471,-1.36045,-0.043368,115.81,-0.191586,
2,0,0,0,1,5140.17,-0.199984,-0.200399,-69.1273,3,-0.0048271,10,0.013853,-1.16035,-0.0360731,-1.63557,3844.58,-0.200399,
2,0,0,1,1,5140.18,-0.186686,-0.187191,-41.7031,3,-0.00552844,10,0.00780645,-1.37983,-0.0597271,-0.987827,1613,-0.187191,
2,0,0,1,1,5140.2,-0.172667,-0.173102,-22.8423,3,-0.00597136,10,0.00395403,-1.64126,-0.0439257,-1.34318,1166.92,-0.173102,
2,0,0,1,1,5140.21,-0.158684,-0.159119,-8.46579,3,-0.00618521,10,0.00134707,-2.07233,-0.015653,-3.76926,922.253,-0.159119,
2,1,0,1,1,5140.22,-0.14467,-0.145157,3.15652,3,-0.00621873,10,-0.000458191,-2.50079,0.0362857,1.62598,755.224,-0.145157,
2,1,0,1,1,5140.24,-0.130668,-0.131205,12.7754,3,-0.00610409,10,-0.00167619,-1.89363,0.0432429,1.36439,631.001,-0.131205,
2,1,0,1,1,5140.25,-0.116685,-0.117111,20.9795,3,-0.00586556,10,-0.00245693,-1.6782,0.0875499,0.673902,538.292,-0.117111,
2,1,0,1,1,5140.27,-0.102654,-0.103061,27.9656,3,-0.00552117,10,-0.00288215,-1.55338,0.139395,0.423258,456.136,-0.103061,
2,1,0,1,1,5140.28,-0.0886685,-0.0890581,33.8331,3,-0.00508683,10,-0.00301311,-1.47066,0.199851,0.295219,387.122,-0.0890581,
2,1,0,1,1,5140.29,-0.0746854,-0.0750427,38.8496,3,-0.00457672,10,-0.00291537,-1.41061,0.269963,0.218548,329.716,-0.0750427,
2,1,0,1,1,5140.31,-0.0606523,-0.0610739,43.1718,3,-0.00400172,10,-0.00263667,-1.3648,0.351488,0.167858,281.589,-0.0610739,
2,1,0,1,1,5140.32,-0.0466692,-0.0471062,46.7401,3,-0.00337128,10,-0.00220175,-1.33031,0.460819,0.128033,232.905,-0.0471062,
2,1,0,1,1,5140.34,-0.0326861,-0.0330155,49.706,3,-0.00269524,10,-0.00164107,-1.30359,0.596283,0.0989463,191.475,-0.0330155,
2,1,0,1,1,5140.35,-0.018653,-0.0190617,52.142,3,-0.00198164,10,-0.000993913,-1.28281,0.780995,0.0755446,153.362,-0.0190617,
2,1,0,1,1,5140.36,-0.00466992,-0.00503671,53.955,3,-0.00123803,10,-0.000271756,-1.26797, , , ,-0.00503671,
2,1,0,0,1,5140.37,-0.000175352,-0.000592546,54.4346,3,-0.000994144,10,-3.2255e-05,-1.26412, , , ,-0.000592546,