File: Figure_codes/Fig_3-5/rawdata_trumpetplot_data/after 10th/20221101_1-115_003_TrumpetPlot_ParaChange_from10_every3_10_CV_C01_10.csv
mode,ox/red,error,control changes,counter inc.,time/s,control/V,Ewe/V,<I>/mA,cycle number,(Q-Qo)/C,I Range,P/W,log(|I|),Tafel slope mV/dec,alpha_eff,dI/d(E-IR),E-IR/V,
2,1,0,0,0,20891.8,-2.44065e-05,-0.000287149,5.13388,11,0.0000000E+000,10,-1.47419e-06,-2.28955, , , ,-0.0002871489,
2,1,0,1,0,20891.9,0.00977853,0.00945519,7.93247,11,0.00033323,10,7.50031e-05,-2.10059,0.110072,0.536013,165.109,0.00945519,
2,1,0,1,0,20891.9,0.0197755,0.0194639,9.10445,11,0.000762118,10,0.000177208,-2.04075,0.23481,0.251267,89.2998,0.0194639,
2,1,0,1,0,20892,0.0297726,0.0294795,9.88719,11,0.00123776,10,0.00029147,-2.00493,0.327409,0.180203,69.441,0.0294795,
2,1,0,1,0,20892,0.0397514,0.0393946,10.5618,11,0.0017481,10,0.000416078,-1.97626,0.333482,0.176921,72.9668,0.0393946,
2,1,0,1,0,20892.1,0.0497393,0.0494197,11.2608,11,0.00229242,10,0.000556506,-1.94843,0.371512,0.15881,69.7132,0.0494197,
2,1,0,1,0,20892.1,0.0597364,0.059411,11.9736,11,0.00287303,10,0.000711367,-1.92177,0.362891,0.162583,75.9612,0.059411,
2,1,0,1,0,20892.2,0.0697152,0.0693664,12.7071,11,0.00348898,10,0.000881447,-1.89595,0.423777,0.139224,69.0209,0.0693664,
2,1,0,1,0,20892.2,0.0796941,0.0793651,13.4212,11,0.00414079,10,0.00106518,-1.87221,0.443324,0.133086,69.7018,0.07936509,
2,1,0,1,0,20892.3,0.0896911,0.0893781,14.0819,11,0.00482887,10,0.00125862,-1.85134,0.494374,0.119343,65.6149,0.0893781,
2,1,0,1,0,20892.3,0.099679,0.0993431,14.7164,11,0.00554743,10,0.00146198,-1.8322,0.526184,0.112128,64.3597,0.0993431,
2,1,0,1,0,20892.4,0.109658,0.109316,15.4219,11,0.00629842,10,0.00168585,-1.81186,0.424507,0.138985,83.6904,0.109316,
2,1,0,1,0,20892.4,0.119655,0.119284,16.3854,11,0.00709267,10,0.00195451,-1.78554,0.356456,0.165518,105.873,0.119284,
2,1,0,1,0,20892.5,0.129652,0.129337,17.5122,11,0.00794017,10,0.00226499,-1.75666,0.356696,0.165407,113.04,0.129337,
2,1,0,1,0,20892.5,0.139631,0.139282,18.5692,11,0.00884158,10,0.00258635,-1.73121,0.450824,0.130871,94.8258,0.139282,
2,1,0,1,0,20892.6,0.149619,0.149274,19.3816,11,0.00978963,10,0.00289318,-1.71261,0.691697,0.0852975,64.4564,0.149274,
2,1,0,1,0,20892.6,0.159616,0.159298,19.673,11,0.0107693,10,0.00313385,-1.70613,-2.10809,-0.0279874,-21.4673,0.159298,
2,1,0,1,0,20892.7,0.169595,0.169263,18.6984,11,0.0117335,10,0.00316495,-1.7282,-0.228272,-0.258464,-188.193,0.169263,
2,1,0,1,0,20892.7,0.179573,0.179265,16.0826,11,0.012606,10,0.00288305,-1.79364,-0.11993,-0.491955,-308.697,0.179265,
2,1,0,1,0,20892.8,0.18957,0.189237,13.2204,11,0.0133358,10,0.00250179,-1.87875,-0.123251,-0.478699,-247.165,0.189237,
2,1,0,1,0,20892.8,0.199558,0.199231,11.2369,11,0.0139416,10,0.00223874,-1.94935,-0.17077,-0.345494,-151.586,0.199231,
2,1,0,1,0,20892.9,0.209537,0.209216,10.0418,11,0.0144695,10,0.00210092,-1.99819,-0.241225,-0.244585,-95.8854,0.209216,
2,1,0,1,0,20892.9,0.219534,0.219206,9.28316,11,0.0149509,10,0.00203492,-2.0323,-0.355918,-0.165769,-60.0926,0.219206,
2,1,0,1,0,20893,0.229531,0.229223,8.77523,11,0.0154017,10,0.00201149,-2.05674,-0.464515,-0.127014,-43.5253,0.229223,
2,1,0,1,0,20893,0.23951,0.239193,8.42502,11,0.0158305,10,0.00201521,-2.07443,-0.722501,-0.0816607,-26.8721,0.239193,
2,1,0,1,0,20893.1,0.249498,0.249165,8.16753,11,0.0162443,10,0.00203506,-2.08791,-0.846696,-0.0696826,-22.21,0.249165,
2,1,0,1,0,20893.1,0.259495,0.259175,7.97227,11,0.0166474,10,0.00206621,-2.09842,-0.930376,-0.0634152,-19.7154,0.259175,
2,1,0,1,0,20893.2,0.269474,0.269126,7.80129,11,0.0170407,10,0.00209953,-2.10783,-1.11539,-0.0528961,-16.1028,0.269126,
2,1,0,1,0,20893.2,0.279453,0.279087,7.65548,11,0.0174265,10,0.00213655,-2.11603,-1.39731,-0.0422239,-12.6254,0.279087,
2,1,0,1,0,20893.3,0.28945,0.289158,7.53172,11,0.0178062,10,0.00217786,-2.12311,-1.80931,-0.0326092,-9.58394,0.289158,
2,1,0,1,0,20893.3,0.299438,0.29911,7.41442,11,0.0181791,10,0.00221773,-2.12992,-0.0586363,-1.0062,-279.609,0.29911,
2,1,0,1,0,20893.4,0.291747,0.291445,0.13111,11,0.018314,10,3.82113e-05,-3.88237,0.0145121,4.06556,399.364,0.291445,
2,0,0,1,0,20893.4,0.28175,0.281411,-2.13509,11,0.0182535,10,-0.000600837,-2.67058,-0.0364535,-1.6185,133.035,0.281411,
2,0,0,1,0,20893.5,0.27178,0.271432,-3.08967,11,0.0181208,10,-0.000838635,-2.51009,-0.0961779,-0.613447,73.5707,0.271432,
2,0,0,1,0,20893.5,0.261783,0.261442,-3.66145,11,0.017951,10,-0.000957255,-2.43635,-0.184521,-0.319746,45.6738,0.261442,
2,0,0,1,0,20893.6,0.251786,0.251488,-4.08672,11,0.0177567,10,-0.00102776,-2.38862,-0.252002,-0.234125,37.2889,0.251488,
2,0,0,1,0,20893.6,0.241807,0.241493,-4.42107,11,0.0175439,10,-0.00106766,-2.35447,-0.309545,-0.190602,33.0144,0.241493,
2,0,0,1,0,20893.7,0.231824,0.231469,-4.73975,11,0.0173152,10,-0.00109711,-2.32424,-0.357777,-0.164907,30.4358,0.231469,
2,0,0,1,0,20893.7,0.221822,0.221514,-4.9994,11,0.0170717,10,-0.00110743,-2.30108,-0.413014,-0.142852,27.8759,0.221514,
2,0,0,1,0,20893.8,0.211844,0.211516,-5.26872,11,0.0168154,10,-0.00111442,-2.2783,-0.51706,-0.114107,23.4241,0.211516,
2,0,0,1,0,20893.8,0.201865,0.201569,-5.52554,11,0.016546,10,-0.00111378,-2.25763,-0.515532,-0.114445,24.718,0.201569,
2,0,0,1,0,20893.9,0.191868,0.191534,-5.80266,11,0.0162627,10,-0.00111141,-2.23637,-0.45254,-0.130375,29.5041,0.191534,
2,0,0,1,0,20893.9,0.18188,0.181565,-6.11143,11,0.0159658,10,-0.00110962,-2.21386,-0.392667,-0.150255,35.8299,0.181565,
2,0,0,1,0,20894,0.171901,0.171542,-6.48089,11,0.0156522,10,-0.00111175,-2.18837,-0.351938,-0.167643,42.3437,0.171542,
2,0,0,1,0,20894,0.161904,0.161542,-6.96406,11,0.0153168,10,-0.00112499,-2.15714,-0.272446,-0.216556,58.915,0.161542,
2,0,0,1,0,20894.1,0.151907,0.151582,-7.69893,11,0.0149513,10,-0.00116702,-2.11357,-0.193723,-0.304558,91.6064,0.151582,
2,0,0,1,0,20894.1,0.141928,0.141597,-8.88872,11,0.0145395,10,-0.00125861,-2.05116,-0.130551,-0.451931,157.239,0.141597,
2,0,0,1,0,20894.2,0.13194,0.131647,-10.7673,11,0.0140515,10,-0.00141749,-1.96789,-0.111428,-0.529489,222.349,0.131647,
2,0,0,1,0,20894.2,0.121943,0.121639,-13.0524,11,0.0134565,10,-0.00158769,-1.88431,-0.13593,-0.434045,220.742,0.121639,
2,0,0,1,0,20894.3,0.111964,0.111636,-15.2102,11,0.0127502,10,-0.00169801,-1.81787,-0.177072,-0.333197,197.576,0.1116361,
2,0,0,1,0,20894.3,0.101985,0.101706,-16.9093,11,0.0119463,10,-0.00171978,-1.77187,-0.278592,-0.211779,139.645,0.101706,
2,0,0,1,0,20894.4,0.0919883,0.0916764,-18.0383,11,0.0110699,10,-0.00165369,-1.7438,-0.484938,-0.121665,85.6046,0.0916764,
2,0,0,1,0,20894.4,0.0820004,0.0816674,-18.467,11,0.0101554,10,-0.00150815,-1.7336,-12.146,-0.00485758,3.49872,0.0816674,
2,0,0,1,0,20894.5,0.0720215,0.071692,-18.1835,11,0.0092387,10,-0.00130361,-1.74032,0.764284,0.0771965,-54.7419,0.071692,
2,0,0,1,0,20894.5,0.0620245,0.0616972,-17.5577,11,0.00834493,10,-0.00108326,-1.75553,0.649931,0.0907788,-62.2406,0.0616972,
2,0,0,1,0,20894.6,0.0520275,0.0516902,-17.0076,11,0.00748127,10,-0.000879129,-1.76936,0.748407,0.0788341,-52.2945,0.0516902,
2,0,0,1,0,20894.6,0.0420486,0.0417344,-16.5175,11,0.00664493,10,-0.000689348,-1.78206,0.864309,0.0682626,-44.0477,0.0417344,
2,0,0,1,0,20894.7,0.0320607,0.0316945,-16.0548,11,0.00583203,10,-0.000508848,-1.7944,0.719911,0.0819546,-51.3069,0.03169452,
2,0,0,1,0,20894.7,0.0220637,0.021724,-15.4979,11,0.00504284,10,-0.000336677,-1.80973,0.584397,0.100959,-61.0824,0.021724,
2,0,0,1,0,20894.8,0.0120848,0.0117259,-14.8231,11,0.00428584,10,-0.000173814,-1.82906,0.440546,0.133925,-77.4246,0.0117259,
2,0,0,1,0,20894.8,0.00210598,0.00174739,-14.0766,11,0.00356603,10,-2.45973e-05,-1.8515,0.484249,0.121838,-66.8229,0.00174739,
2,0,0,1,0,20894.9,-0.00789103,-0.00826478,-13.3281,11,0.00288159,10,0.000110154,-1.87523,0.506261,0.116541,-60.677,-0.00826478,
2,0,0,1,0,20894.9,-0.017879,-0.0182483,-12.8419,11,0.00222952,10,0.000234343,-1.89137,0.816986,0.0722167,-36.1943,-0.0182483,
2,0,0,1,0,20895,-0.0278578,-0.0282206,-12.5861,11,0.0015962,10,0.000355187,-1.90011,1.71821,0.0343381,-16.8703,-0.0282206,
2,0,0,1,0,20895,-0.0378548,-0.0382397,-12.5313,11,0.000968945,10,0.000479192,-1.902,-36.6215,-0.00161107,0.788233,-0.0382397,
2,0,0,1,0,20895.1,-0.0478519,-0.0482042,-12.6381,11,0.000340075,10,0.000609209,-1.89832,-1.31243,-0.0449548,22.1847,-0.04820415,
2,0,0,1,0,20895.1,-0.0578126,-0.0582163,-12.8655,11,-0.000294765,10,0.000748982,-1.89057,-1.06421,-0.0554401,27.8537,-0.0582163,
2,0,0,1,0,20895.2,-0.0678187,-0.0681921,-13.2027,11,-0.000946063,10,0.000900319,-1.87934,-0.779485,-0.075691,38.9699,-0.06819205,
2,0,0,1,0,20895.2,-0.0778157,-0.0781747,-13.6122,11,-0.00161623,10,0.00106413,-1.86607,-0.688005,-0.0857552,45.6125,-0.0781747,
2,0,0,1,0,20895.3,-0.0877945,-0.0881636,-14.1593,11,-0.00230881,10,0.00124834,-1.84896,-0.551434,-0.106994,59.087,-0.0881636,
2,0,0,1,0,20895.3,-0.0977734,-0.0981522,-14.7705,11,-0.00303037,10,0.00144976,-1.8306,-0.503412,-0.1172,67.6077,-0.0981522,
2,0,0,1,1,20895.4,-0.0936874,-0.0940934,-6.53867,11,-0.0035123,10,0.000615246,-2.18451,-0.0168016,-3.51157,894.417,-0.0940934,
2,0,0,1,1,20895.4,-0.0837086,-0.0841213,-0.0834788,11,-0.00365974,10,7.02234e-06,-4.07842,-0.0386116,-1.52804,481.813,-0.0841213,
2,1,0,1,1,20895.5,-0.0737025,-0.0741004,3.69042,11,-0.00356158,10,-0.000273461,-2.43292,0.0280111,2.10631,297.32,-0.0741004,
2,1,0,1,1,20895.5,-0.0637236,-0.0640857,6.06336,11,-0.00331361,10,-0.000388575,-2.21729,0.0739541,0.797792,188.602,-0.0640857,
2,1,0,1,1,20895.6,-0.0537447,-0.0541143,7.63514,11,-0.00296874,10,-0.00041317,-2.11718,0.145456,0.405621,120.44,-0.0541143,
2,1,0,1,1,20895.6,-0.0437477,-0.0441255,8.62053,11,-0.00256031,10,-0.000380386,-2.06447,0.249205,0.236753,79.6746,-0.0441255,
2,1,0,1,1,20895.7,-0.0337507,-0.0340787,9.25827,11,-0.00211177,10,-0.000315509,-2.03347,0.44384,0.132931,47.9736,-0.0340787,
2,1,0,1,1,20895.7,-0.0237809,-0.024194,9.61735,11,-0.00164085,10,-0.000232682,-2.01694,0.76337,0.0772888,29.0114,-0.024194,
2,1,0,1,1,20895.8,-0.0137839,-0.0141454,9.82246,11,-0.00115436,10,-0.000138943,-2.00778,2.35257,0.025079,9.59847,-0.0141454,
2,1,0,1,1,20895.8,-0.0037869,-0.00415927,9.90424,11,-0.000661038,10,-4.11945e-05,-2.00418,3.1781,0.0185645,7.17913,-0.00415927,
2,1,0,1,1,20895.8,-2.55332e-05,-0.000325324,9.90539,11,-0.000475558,10,-3.22246e-06,-2.00413, , , ,-0.000325324,