File: Figure_codes/Fig_3-5/rawdata_trumpetplot_data/after 10th/20221101_1-115_003_TrumpetPlot_ParaChange_from10_every3_13_CV_C01_22.csv
mode,ox/red,error,control changes,counter inc.,time/s,control/V,Ewe/V,<I>/mA,cycle number,(Q-Qo)/C,I Range,P/W,log(|I|),Tafel slope mV/dec,alpha_eff,dI/d(E-IR),E-IR/V,
2,1,0,1,0,44540.7,2.44065e-05,-0.000229887,18.1865,23,0.0000000E+000,10,-4.18084e-06,-1.74025, , , ,-0.000229887,
2,1,0,1,0,44540.7,0.0122624,0.0118906,22.3342,23,0.000311469,10,0.000265566,-1.65103,0.201139,0.29333,253.895,0.0118906,
2,1,0,1,0,44540.8,0.0250636,0.0247257,25.1726,23,0.000692863,10,0.00062241,-1.59907,0.288705,0.204361,200.22,0.0247257,
2,1,0,1,0,44540.8,0.0378703,0.0375121,27.5445,23,0.00111534,10,0.00103325,-1.55997,0.369274,0.159773,171.405,0.0375121,
2,1,0,1,0,44540.8,0.0506632,0.0503144,29.6342,23,0.00157316,10,0.00149103,-1.52821,0.429558,0.13735,158.672,0.0503144,
2,1,0,1,0,44540.8,0.0634672,0.0630933,31.6163,23,0.00206344,10,0.00199478,-1.50009,0.47615,0.123911,152.8,0.0630933,
2,1,0,1,0,44540.8,0.0762629,0.0759009,33.5606,23,0.00258512,10,0.00254728,-1.47417,0.501994,0.117531,153.954,0.07590095,
2,1,0,1,0,44540.8,0.0890668,0.0887159,35.5535,23,0.00313825,10,0.00315416,-1.44912,0.518718,0.113742,157.831,0.0887159,
2,1,0,1,0,44540.9,0.10186,0.101477,37.5843,23,0.00372358,10,0.00381394,-1.42499,0.543482,0.108559,159.228,0.101477,
2,1,0,1,0,44540.9,0.114666,0.114267,39.6612,23,0.00434177,10,0.00453199,-1.40163,0.549007,0.107467,166.362,0.114267,
2,1,0,1,0,44540.9,0.127462,0.127066,41.8446,23,0.00499389,10,0.005317,-1.37836,0.551022,0.107074,174.887,0.127066,
2,1,0,1,0,44540.9,0.140263,0.139825,44.1022,23,0.00568186,10,0.00616661,-1.35554,0.535103,0.110259,190.136,0.139825,
2,1,0,1,0,44540.9,0.153064,0.152725,46.685,23,0.00640864,10,0.00712998,-1.33082,0.552749,0.106739,194.322,0.152725,
2,1,0,1,0,44540.9,0.165866,0.165506,49.0853,23,0.00717535,10,0.00812393,-1.30905,0.635607,0.0928246,177.634,0.165506,
2,1,0,1,0,44540.9,0.178667,0.178338,51.1703,23,0.00797811,10,0.00912562,-1.29098,0.825501,0.0714717,142.486,0.178338,
2,1,0,1,0,44541,0.191463,0.191098,52.6469,23,0.00880989,10,0.0100607,-1.27863,1.46972,0.0401437,82.2892,0.191098,
2,1,0,1,0,44541,0.204269,0.203899,53.1674,23,0.00965797,10,0.0108408,-1.27435,-29.9976,-0.00196682,-4.07032,0.203899,
2,1,0,1,0,44541,0.217062,0.216672,52.5363,23,0.0105051,10,0.0113831,-1.27954,-1.29098,-0.0457016,-93.4605,0.216672,
2,1,0,1,0,44541,0.229866,0.229588,50.8156,23,0.0113332,10,0.0116666,-1.294,-0.674603,-0.0874588,-173.007,0.229588,
2,1,0,1,0,44541,0.242662,0.242307,48.1634,23,0.0121258,10,0.0116703,-1.31728,-0.476046,-0.123938,-232.568,0.242307,
2,1,0,1,0,44541,0.255466,0.255155,44.9828,23,0.012871,10,0.0114776,-1.34695,-0.402883,-0.146445,-256.882,0.255155,
2,1,0,1,0,44541.1,0.268259,0.267915,41.6884,23,0.013564,10,0.011169,-1.37998,-0.385653,-0.152987,-249.033,0.267915,
2,1,0,1,0,44541.1,0.281065,0.28075,38.65,23,0.0142062,10,0.010851,-1.41285,-0.399776,-0.147583,-222.855,0.28075,
2,1,0,1,0,44541.1,0.293861,0.293511,36.0058,23,0.0148027,10,0.0105681,-1.44363,-0.43696,-0.135024,-190.271,0.293511,
2,1,0,1,0,44541.1,0.298983,0.298814,32.601,23,0.0151184,10,0.00974164,-1.48677,0.0400261,1.47404,1655.26,0.2988143,
2,1,0,1,0,44541.1,0.286187,0.285949,16.9387,23,0.0154977,10,0.00484362,-1.77112,0.0435668,1.35424,896.16,0.285949,
2,1,0,1,0,44541.1,0.273386,0.273123,7.62073,23,0.0156885,10,0.00208139,-2.118,0.0276099,2.13691,606.826,0.273123,
2,1,0,1,0,44541.1,0.260585,0.260315,1.0649,23,0.0157545,10,0.000277209,-2.97269,0.0303705,1.94267,437.042,0.260315,
2,0,0,1,0,44541.2,0.247783,0.247479,-3.79166,23,0.0157303,10,-0.000938357,-2.42117,-0.0222547,-2.65113,331.363,0.247479,
2,0,0,1,0,44541.2,0.234982,0.234695,-7.52478,23,0.0156381,10,-0.00176603,-2.12351,-0.0653515,-0.90281,257.064,0.234695,
2,0,0,1,0,44541.2,0.222187,0.221908,-10.4599,23,0.0154931,10,-0.00232115,-1.98047,-0.11483,-0.513803,207.214,0.2219083,
2,0,0,1,0,44541.2,0.20938,0.209109,-12.8601,23,0.0153057,10,-0.00268917,-1.89076,-0.170977,-0.345075,172.2,0.209109,
2,0,0,1,0,44541.2,0.196587,0.196299,-14.8824,23,0.015083,10,-0.00292141,-1.82733,-0.232476,-0.253789,146.978,0.196299,
2,0,0,1,0,44541.2,0.183783,0.183471,-16.6589,23,0.01483,10,-0.00305643,-1.77835,-0.288036,-0.204836,132.999,0.183471,
2,0,0,1,0,44541.3,0.170987,0.170682,-18.3155,23,0.01455,10,-0.00312612,-1.73718,-0.331735,-0.177853,127.073,0.170682,
2,0,0,1,0,44541.3,0.158183,0.157878,-19.997,23,0.0142434,10,-0.00315708,-1.69904,-0.334856,-0.176195,137.562,0.157878,
2,0,0,1,0,44541.3,0.145385,0.145064,-21.9007,23,0.0139086,10,-0.003177,-1.65954,-0.298728,-0.197504,169.248,0.145064,
2,0,0,1,0,44541.3,0.132584,0.132277,-24.3644,23,0.013539,10,-0.00322286,-1.61324,-0.250965,-0.235092,224.387,0.132277,
2,0,0,1,0,44541.3,0.119783,0.119496,-27.6981,23,0.0131233,10,-0.00330983,-1.55755,-0.217849,-0.27083,293.356,0.119496,
2,0,0,1,0,44541.3,0.106987,0.106681,-31.7714,23,0.0126477,10,-0.00338942,-1.49796,-0.222488,-0.265183,328.422,0.106681,
2,0,0,1,0,44541.4,0.0941801,0.093931,-35.9992,23,0.012105,10,-0.00338144,-1.44371,-0.259513,-0.227349,318.321,0.093931,
2,0,0,1,0,44541.4,0.0813844,0.0811287,-39.8984,23,0.0114972,10,-0.00323691,-1.39904,-0.313713,-0.18807,292.002,0.0811287,
2,0,0,1,0,44541.4,0.0685832,0.0683307,-43.2701,23,0.0108305,10,-0.00295667,-1.36381,-0.426377,-0.138375,233.045,0.06833069,
2,0,0,1,0,44541.4,0.0557876,0.0555623,-45.8728,23,0.0101161,10,-0.0025488,-1.33845,-0.59017,-0.0999713,178.688,0.0555623,
2,0,0,1,0,44541.4,0.0429808,0.0426678,-47.858,23,0.009365,10,-0.002042,-1.32005,-0.873434,-0.0675494,125.913,0.0426678,
2,0,0,1,0,44541.4,0.030188,0.0298729,-49.177,23,0.00858793,10,-0.00146906,-1.30824,-1.35085,-0.0436761,83.7074,0.02987293,
2,0,0,1,0,44541.5,0.017384,0.0170749,-50.0018,23,0.00779369,10,-0.000853774,-1.30101,-2.34294,-0.0251821,49.0984,0.0170749,
2,0,0,1,0,44541.5,0.00458834,0.0042779,-50.4033,23,0.00698963,10,-0.00021562,-1.29754,-6.48799,-0.00909373,17.8828,0.0042779,
2,0,0,1,0,44541.5,-0.00821564,-0.00859438,-50.4434,23,0.00618191,10,0.00043353,-1.2972,6.87372,0.00858341,-16.8817,-0.008594377,
2,0,0,1,0,44541.5,-0.0210196,-0.0213914,-50.0588,23,0.00537746,10,0.00107083,-1.30052,2.54475,0.023185,-45.2404,-0.0213914,
2,0,0,1,0,44541.5,-0.0338153,-0.0341693,-49.3226,23,0.00458218,10,0.00168532,-1.30695,1.7626,0.0334732,-64.3987,-0.0341693,
2,0,0,1,0,44541.5,-0.0466193,-0.0470278,-48.43,23,0.00380014,10,0.00227755,-1.31489,1.54012,0.0383087,-72.3923,-0.04702777,
2,0,0,1,0,44541.5,-0.0594121,-0.0597845,-47.5095,23,0.00303271,10,0.00284033,-1.32322,1.65984,0.0355457,-65.9422,-0.0597845,
2,0,0,1,0,44541.6,-0.0722189,-0.072556,-46.7625,23,0.00227878,10,0.0033929,-1.3301,2.09444,0.0281698,-51.4321,-0.072556,
2,0,0,1,0,44541.6,-0.0850145,-0.0853763,-46.2211,23,0.00153533,10,0.00394618,-1.33516,3.3412,0.0176583,-31.8736,-0.0853763,
2,0,0,1,0,44541.6,-0.0978158,-0.0981807,-45.9386,23,0.000798425,10,0.00451029,-1.33782,9.23858,0.00638626,-11.4583,-0.0981807,
2,0,0,1,0,44541.6,-0.110611,-0.111012,-45.9166,23,6.38314e-05,10,0.00509728,-1.33803,-11.2503,-0.00524429,9.40663,-0.111012,
2,0,0,1,0,44541.6,-0.123418,-0.123795,-46.1739,23,-0.000672779,10,0.00571609,-1.3356,-3.63835,-0.0162162,29.2426,-0.123795,
2,0,0,1,0,44541.6,-0.136214,-0.136565,-46.642,23,-0.00141521,10,0.00636968,-1.33122,-2.47168,-0.0238704,43.4785,-0.136565,
2,0,0,1,0,44541.7,-0.149015,-0.149324,-47.2902,23,-0.00216671,10,0.00706158,-1.32523,-2.03197,-0.0290358,53.591,-0.149324,
2,0,0,1,0,44541.7,-0.161816,-0.162175,-47.9954,23,-0.00292904,10,0.00778366,-1.3188,-2.03861,-0.0289413,54.1945,-0.162175,
2,0,0,1,0,44541.7,-0.174615,-0.174966,-48.6582,23,-0.00370244,10,0.00851353,-1.31284,-2.23688,-0.026376,50.0781,-0.174966,
2,0,0,1,0,44541.7,-0.187419,-0.18771,-49.2517,23,-0.00448597,10,0.00924503,-1.30758,-2.68581,-0.0219673,42.215,-0.18771,
2,0,0,1,0,44541.7,-0.199647,-0.199984,-49.7186,23,-0.0052434,10,0.00994291,-1.30348,0.231424,0.254943,-480.061,-0.199984,
2,0,0,1,1,44541.7,-0.192535,-0.192912,-37.3151,23,-0.00567785,10,0.00719854,-1.42812,-0.0689667,-0.855486,1276.51,-0.192912,
2,0,0,1,1,44541.8,-0.179739,-0.180105,-25.2091,23,-0.00617003,10,0.00454028,-1.59844,-0.074302,-0.794057,783.058,-0.180105,
2,0,0,1,1,44541.8,-0.166932,-0.167329,-16.4689,23,-0.00649976,10,0.00275573,-1.78333,-0.0617267,-0.955826,610.561,-0.1673288,
2,0,0,1,1,44541.8,-0.154139,-0.15455,-9.40814,23,-0.00670441,10,0.00145403,-2.0265,-0.041471,-1.42268,507.805,-0.15455,
2,0,0,1,1,44541.8,-0.141335,-0.141726,-3.36817,23,-0.00680472,10,0.000477359,-2.47261,-0.0127975,-4.61027,441.567,-0.141726,
2,1,0,1,1,44541.8,-0.12854,-0.128964,1.93803,23,-0.00681473,10,-0.000249937,-2.71264,0.0151141,3.90364,392.804,-0.128964,
2,1,0,1,1,44541.8,-0.115736,-0.116228,6.71258,23,-0.0067444,10,-0.000780188,-2.17311,0.0411795,1.43275,357.505,-0.1162278,
2,1,0,1,1,44541.8,-0.102932,-0.103379,11.0981,23,-0.00660106,10,-0.0011473,-1.95475,0.0769762,0.766471,326.281,-0.103379,
2,1,0,1,1,44541.9,-0.0901362,-0.0905723,15.0999,23,-0.0063906,10,-0.00136764,-1.82103,0.114279,0.516279,301.969,-0.0905723,
2,1,0,1,1,44541.9,-0.0773322,-0.0776894,18.8024,23,-0.00611846,10,-0.00146075,-1.72579,0.157119,0.375512,274.204,-0.0776894,
2,1,0,1,1,44541.9,-0.0645393,-0.0649402,22.1813,23,-0.00578988,10,-0.00144046,-1.65401,0.201213,0.293222,252.958,-0.0649402,
2,1,0,1,1,44541.9,-0.0517325,-0.0521135,25.2871,23,-0.00540948,10,-0.0013178,-1.5971,0.251058,0.235006,231.218,-0.0521135,
2,1,0,1,1,44541.9,-0.0389369,-0.0393144,28.0934,23,-0.00498185,10,-0.00110447,-1.5514,0.308968,0.190958,208.917,-0.0393144,
2,1,0,1,1,44541.9,-0.0261357,-0.0265365,30.6116,23,-0.0045115,10,-0.000812323,-1.51411,0.37866,0.155813,185.881,-0.0265365,
2,1,0,1,1,44542,-0.01334,-0.0137077,32.841,23,-0.00400314,10,-0.000450173,-1.48358,0.464489,0.127021,162.625,-0.01370766,
2,1,0,1,1,44542,-0.000774628,-0.0011429,34.7634,23,-0.00347179,10,-3.9731e-05,-1.45888, , , ,-0.0011429,
2,1,0,0,1,44542,-0.000125413,-0.000497109,34.8671,23,-0.00344395,10,-1.73328e-05,-1.45758, , , ,-0.000497109,