File: Figure_codes/Fig_3-5/rawdata_trumpetplot_data/after 10th/20221101_1-115_003_TrumpetPlot_ParaChange_from10_every3_03_CV_C01_5.csv
mode,ox/red,error,control changes,counter inc.,time/s,control/V,Ewe/V,<I>/mA,cycle number,(Q-Qo)/C,I Range,P/W,log(|I|),Tafel slope mV/dec,alpha_eff,dI/d(E-IR),E-IR/V,
2,0,0,1,0,10790.7,2.44065e-05,-0.000268062,-0.107026,6,0.0000000E+000,10,2.86897e-08,-3.97051, , , ,-0.000268062,
2,1,0,1,0,10792.1,0.00729041,0.0069763,0.213476,6,0.000280358,10,1.48927e-06,-3.67065,0.0830396,0.710505,5.88696,0.0069763,
2,1,0,1,0,10793.6,0.0147815,0.0144323,0.245085,6,0.000651391,10,3.53715e-06,-3.61068,0.141428,0.417173,4.00427,0.0144323,
2,1,0,1,0,10795.1,0.0222725,0.0219474,0.27422,6,0.00106645,10,6.01842e-06,-3.5619,0.169627,0.347823,3.69641,0.0219474,
2,1,0,1,0,10796.6,0.0297635,0.0294521,0.301449,6,0.00152136,10,8.87828e-06,-3.52079,0.212062,0.278221,3.26421,0.0294521,
2,1,0,1,0,10798.1,0.0372545,0.036948,0.327673,6,0.00201707,10,1.21069e-05,-3.48456,0.204003,0.289211,3.70747,0.036948,
2,1,0,1,0,10799.6,0.0447456,0.0444051,0.355032,6,0.00255386,10,1.57652e-05,-3.44973,0.228268,0.258468,3.57195,0.0444051,
2,1,0,1,0,10801.1,0.0522367,0.0519041,0.379685,6,0.0031301,10,1.97072e-05,-3.42058,0.217066,0.271806,4.01382,0.0519041,
2,1,0,1,0,10802.6,0.0597277,0.0594067,0.405052,6,0.00374369,10,2.40628e-05,-3.39249,0.339298,0.173888,2.74074,0.05940669,
2,1,0,1,0,10804.1,0.0672187,0.0669377,0.427838,6,0.0043918,10,2.86385e-05,-3.36872,0.40558,0.145471,2.41565,0.0669377,
2,1,0,1,0,10805.6,0.0747092,0.074357,0.445347,6,0.00507083,10,3.31147e-05,-3.3513,0.468979,0.125805,2.1899,0.074357,
2,1,0,0,0,10807.1,0.0822001,0.0818975,0.461487,6,0.00577717,10,3.77947e-05,-3.33584,0.494201,0.119385,2.16098,0.0818975,
2,1,0,1,0,10808.6,0.0896911,0.0893692,0.48591,6,0.00651355,10,4.34254e-05,-3.31344,0.298737,0.197498,3.75632,0.0893692,
2,1,0,0,0,10810.1,0.097182,0.0968684,0.522586,6,0.0072945,10,5.06221e-05,-3.28184,0.186711,0.315996,6.44428,0.0968684,
2,1,0,1,0,10811.6,0.104673,0.104371,0.572419,6,0.00813801,10,5.97438e-05,-3.24229,0.189754,0.310929,6.91258,0.104371,
2,1,0,0,0,10813.1,0.112164,0.111846,0.612355,6,0.00905152,10,6.84892e-05,-3.213,0.31022,0.190188,4.53924,0.111846,
2,1,0,1,0,10814.6,0.119655,0.119321,0.646739,6,0.0100232,10,7.71698e-05,-3.18927,0.381791,0.154535,3.90842,0.1193214,
2,1,0,0,0,10816.1,0.127146,0.126821,0.678309,6,0.0110446,10,8.60236e-05,-3.16857,0.395322,0.149245,3.96833,0.126821,
2,1,0,1,0,10817.6,0.134637,0.134339,0.694277,6,0.0121074,10,9.32683e-05,-3.15847,-0.720154,-0.081927,-2.21736,0.134339,
2,1,0,1,0,10819.1,0.142127,0.141804,0.635246,6,0.0131407,10,9.00802e-05,-3.19706,-0.110661,-0.533161,-13.1332,0.1418038,
2,1,0,1,0,10820.6,0.149618,0.149284,0.513509,6,0.014029,10,7.66587e-05,-3.28945,-0.0734255,-0.803535,-16.1259,0.149284,
2,1,0,1,0,10822.1,0.157109,0.156797,0.417265,6,0.0147459,10,6.54259e-05,-3.37959,-0.0968791,-0.609007,-9.949,0.156797,
2,1,0,1,0,10823.6,0.1646,0.164278,0.367946,6,0.0153553,10,6.04456e-05,-3.43422,-0.165151,-0.357249,-5.12344,0.164278,
2,1,0,1,0,10825.1,0.172091,0.171799,0.337161,6,0.015906,10,5.79238e-05,-3.47216,-0.287543,-0.205187,-2.70786,0.171799,
2,1,0,1,0,10826.6,0.179582,0.179248,0.320347,6,0.0164231,10,5.74216e-05,-3.49438,-0.469817,-0.125581,-1.57403,0.179248,
2,1,0,1,0,10828.1,0.187074,0.186771,0.31126,6,0.0169195,10,5.81343e-05,-3.50688,-0.594533,-0.0992375,-1.19965,0.186771,
2,1,0,1,0,10829.6,0.194564,0.194258,0.301019,6,0.0174019,10,5.84754e-05,-3.52141,-0.799743,-0.0737737,-0.870746,0.194258,
2,1,0,1,0,10831.1,0.202056,0.201757,0.295689,6,0.017874,10,5.96572e-05,-3.52917,-0.512363,-0.115153,-1.32565,0.201757,
2,1,0,1,0,10832.6,0.209547,0.209208,0.290239,6,0.0183379,10,6.07204e-05,-3.53724,-1.2294,-0.0479907,-0.544062,0.209208,
2,1,0,1,0,10834.1,0.217038,0.2167,0.286791,6,0.0187944,10,6.21477e-05,-3.54243,-1.71738,-0.0343546,-0.385212,0.2167,
2,1,0,1,0,10835.6,0.224529,0.224203,0.283695,6,0.0192458,10,6.36053e-05,-3.54715,-2.76263,-0.0213565,-0.235691,0.224203,
2,1,0,1,0,10837.1,0.232019,0.231729,0.280166,6,0.0196927,10,6.49224e-05,-3.55259,-1.40321,-0.0420465,-0.460275,0.231729,
2,1,0,0,0,10838.6,0.23951,0.23918,0.279124,6,0.0201358,10,6.6761e-05,-3.5542,3.81761,0.0154547,0.167891,0.23918,
2,1,0,1,0,10840.1,0.247001,0.24671,0.276055,6,0.0205755,10,6.81055e-05,-3.559,-0.699858,-0.0843029,-0.907831,0.24671,
2,1,0,0,0,10841.6,0.254492,0.254196,0.274046,6,0.0210118,10,6.96614e-05,-3.56218,-1.03516,-0.0569963,-0.610344,0.2541956,
2,1,0,1,0,10843.1,0.261983,0.261606,0.272408,6,0.021445,10,7.12634e-05,-3.56478,-1.19663,-0.0493052,-0.522509,0.261606,
2,1,0,0,0,10844.6,0.269474,0.269189,0.26978,6,0.0218753,10,7.26216e-05,-3.56899,2.42318,0.0243481,0.255781,0.269189,
2,1,0,1,0,10846.1,0.276965,0.276674,0.267253,6,0.0223031,10,7.3942e-05,-3.57308,-0.85383,-0.0691004,-0.723595,0.276674,
2,1,0,0,0,10847.6,0.284456,0.284151,0.266685,6,0.022728,10,7.57788e-05,-3.574,-1.19535,-0.0493581,-0.511486,0.284151,
2,1,0,1,0,10849.1,0.291947,0.291639,0.264756,6,0.0231498,10,7.72131e-05,-3.57715,-2.51244,-0.0234831,-0.243003,0.291639,
2,1,0,1,0,10850.5,0.299437,0.299157,0.262336,6,0.0235692,10,7.84794e-05,-3.58114,-0.00221143,-26.6796,-125.63,0.299157,
2,0,0,1,0,10851.9,0.293744,0.293427,-0.0200894,6,0.0235951,10,-5.89477e-06,-4.69703,-0.00699419,-8.43557,5.44405,0.293427,
2,0,0,1,0,10853.4,0.286253,0.285987,-0.0484061,6,0.0235172,10,-1.38435e-05,-4.3151,-0.0420712,-1.40238,2.68251,0.285987,
2,0,0,0,0,10854.9,0.278763,0.27846,-0.0694981,6,0.023404,10,-1.93524e-05,-4.15803,-0.0675121,-0.873917,2.33439,0.27846,
2,0,0,1,0,10856.4,0.271272,0.270983,-0.0839821,6,0.0232645,10,-2.27577e-05,-4.07581,-0.100786,-0.585401,1.94115,0.270983,
2,0,0,0,0,10857.9,0.263781,0.26349,-0.0973211,6,0.0231031,10,-2.56431e-05,-4.01179,-0.121493,-0.485625,1.85742,0.26349,
2,0,0,1,0,10859.4,0.25629,0.256016,-0.10917,6,0.0229235,10,-2.79493e-05,-3.9619,-0.183579,-0.321388,1.35861,0.256016,
2,0,0,0,0,10860.9,0.248799,0.248491,-0.119983,6,0.0227275,10,-2.98146e-05,-3.92088,-0.189153,-0.311916,1.46454,0.248491,
2,0,0,1,0,10862.4,0.241308,0.240946,-0.130663,6,0.0225162,10,-3.14826e-05,-3.88385,-0.281724,-0.209425,1.06411,0.2409458,
2,0,0,0,0,10863.9,0.233817,0.2335,-0.13827,6,0.0222905,10,-3.2286e-05,-3.85927,-0.367917,-0.160362,0.868966,0.2334996,
2,0,0,1,0,10865.4,0.226326,0.226013,-0.147369,6,0.0220513,10,-3.33073e-05,-3.83159,-0.349455,-0.168834,0.979359,0.226013,
2,0,0,0,0,10866.9,0.218835,0.218533,-0.156076,6,0.0217983,10,-3.41078e-05,-3.80666,-0.2485,-0.237425,1.4539,0.218533,
2,0,0,1,0,10868.4,0.211344,0.211076,-0.166088,6,0.0215313,10,-3.50571e-05,-3.77966,-0.332533,-0.177426,1.1493,0.211076,
2,0,0,1,0,10869.9,0.203854,0.203532,-0.173859,6,0.0212501,10,-3.53859e-05,-3.7598,-0.468193,-0.126016,0.867122,0.203532,
2,0,0,1,0,10871.4,0.196363,0.19603,-0.186438,6,0.0209542,10,-3.65475e-05,-3.72947,-0.250693,-0.235347,1.70378,0.19603,
2,0,0,1,0,10872.9,0.188871,0.188584,-0.198039,6,0.0206408,10,-3.73471e-05,-3.70325,-0.194368,-0.303548,2.3445,0.188584,
2,0,0,1,0,10874.4,0.181381,0.181092,-0.214642,6,0.0203073,10,-3.887e-05,-3.66829,-0.228592,-0.258102,2.1452,0.181092,
2,0,0,1,0,10875.9,0.173889,0.173598,-0.231778,6,0.0199496,10,-4.02363e-05,-3.63493,-0.176015,-0.335199,3.02033,0.173598,
2,0,0,1,0,10877.4,0.166398,0.166092,-0.255784,6,0.0195601,10,-4.24836e-05,-3.59213,-0.15575,-0.378813,3.80768,0.166092,
2,0,0,1,0,10878.9,0.158907,0.158599,-0.29005,6,0.019126,10,-4.60015e-05,-3.53753,-0.122375,-0.482126,5.516,0.158599,
2,0,0,1,0,10880.4,0.151416,0.151122,-0.35028,6,0.0186224,10,-5.29349e-05,-3.45559,-0.0817975,-0.721293,9.87323,0.151122,
2,0,0,1,0,10881.9,0.143925,0.14366,-0.443092,6,0.018007,10,-6.36545e-05,-3.35351,-0.0611284,-0.965181,16.6756,0.14366,
2,0,0,1,0,10883.4,0.136434,0.136085,-0.566903,6,0.0172252,10,-7.7147e-05,-3.24649,-0.0794346,-0.74275,16.3393,0.136085,
2,0,0,1,0,10884.9,0.128943,0.128655,-0.664724,6,0.0162693,10,-8.552e-05,-3.17736,-0.174539,-0.338033,8.72539,0.128655,
2,0,0,0,0,10886.4,0.121453,0.121141,-0.70392,6,0.0152106,10,-8.52737e-05,-3.15248,-1.92403,-0.0306648,0.838147,0.121141,
2,0,0,1,0,10887.9,0.113962,0.113666,-0.691943,6,0.014134,10,-7.86506e-05,-3.15993,0.52399,0.112598,-3.04302,0.113666,
2,0,0,0,0,10889.4,0.106471,0.106137,-0.667904,6,0.0130863,10,-7.08895e-05,-3.17529,0.454832,0.129718,-3.38881,0.106137,
2,0,0,1,0,10890.9,0.0989799,0.0986477,-0.636424,6,0.0120812,10,-6.27818e-05,-3.19625,0.36814,0.160265,-3.97991,0.0986477,
2,0,0,0,0,10892.4,0.0914889,0.0911369,-0.60828,6,0.0111239,10,-5.54367e-05,-3.2159,0.346595,0.170228,-4.01937,0.09113685,
2,0,0,1,0,10893.9,0.083998,0.0836843,-0.575324,6,0.0102127,10,-4.81456e-05,-3.24009,0.29352,0.201008,-4.51389,0.0836843,
2,0,0,0,0,10895.4,0.076507,0.0761692,-0.553643,6,0.00934106,10,-4.21706e-05,-3.25677,0.446028,0.132279,-2.85229,0.0761692,
2,0,0,1,0,10896.9,0.0690161,0.0687177,-0.53275,6,0.0085013,10,-3.66094e-05,-3.27348,0.470926,0.125285,-2.61063,0.06871774,
2,0,0,0,0,10898.4,0.0615251,0.0612228,-0.516289,6,0.00768841,10,-3.16087e-05,-3.28711,0.487719,0.120971,-2.44095,0.0612228,
2,0,0,1,0,10899.9,0.0540342,0.0537066,-0.498146,6,0.00690244,10,-2.67538e-05,-3.30264,0.633975,0.0930636,-1.80754,0.0537066,
2,0,0,1,0,10901.4,0.0465436,0.0462449,-0.479759,6,0.00614345,10,-2.21864e-05,-3.31898,0.493662,0.119515,-2.24043,0.0462449,
2,0,0,1,0,10902.9,0.0390526,0.0387774,-0.462753,6,0.00541172,10,-1.79444e-05,-3.33465,0.379283,0.155557,-2.80043,0.0387774,
2,0,0,1,0,10904.4,0.0315615,0.0312784,-0.444189,6,0.00470721,10,-1.38935e-05,-3.35243,0.388417,0.151899,-2.63569,0.0312784,
2,0,0,1,0,10905.9,0.0240706,0.0237684,-0.428312,6,0.00402806,10,-1.01803e-05,-3.36824,0.632372,0.0932995,-1.56448,0.0237684,
2,0,0,1,0,10907.4,0.0165795,0.0162224,-0.418663,6,0.00336857,10,-6.79172e-06,-3.37814,1.186,0.0497472,-0.81208,0.0162224,
2,0,0,1,0,10908.8,0.00908846,0.00875499,-0.413259,6,0.00272119,10,-3.61808e-06,-3.38378,5.19483,0.0113574,-0.183381,0.00875499,
2,0,0,1,0,10910.3,0.00159739,0.00120914,-0.417307,6,0.00207518,10,-5.04584e-07,-3.37954, , , ,0.00120914,
2,0,0,0,0,10910.6,0.000199195,-0.000138268,-0.415197,6,0.00195399,10,5.74084e-08,-3.38175, , , ,-0.000138268,