File: Figure_codes/Fig_3-5/rawdata_trumpetplot_data/after 10th/20221101_1-115_003_TrumpetPlot_ParaChange_from10_every3_09_CV_C01_15.csv
mode,ox/red,error,control changes,counter inc.,time/s,control/V,Ewe/V,<I>/mA,cycle number,(Q-Qo)/C,I Range,P/W,log(|I|),Tafel slope mV/dec,alpha_eff,dI/d(E-IR),E-IR/V,
2,0,0,0,0,30734.5,2.44065e-05,-0.000325324,-5.33584,16,0.0000000E+000,10,1.73588e-06,-2.2728, , , ,-0.000325324,
2,1,0,1,0,30734.6,0.00978761,0.00946777,1.25253,16,-0.00010367,10,1.18586e-05,-2.90221,0.00861717,6.8468,289.594,0.00946777,
2,1,0,1,0,30734.7,0.0197755,0.0194657,3.02548,16,0.000124402,10,5.88932e-05,-2.51921,0.0615184,0.959063,112.703,0.0194657,
2,1,0,1,0,30734.8,0.0297635,0.0294565,3.90228,16,0.000474609,10,0.000114948,-2.40868,0.128597,0.458798,69.7575,0.02945653,
2,1,0,1,0,30734.9,0.0397514,0.0394497,4.53169,16,0.000897674,10,0.000178774,-2.34374,0.168406,0.350344,62.0725,0.0394497,
2,1,0,1,0,30735,0.0497484,0.0494353,5.10607,16,0.00138009,10,0.00025242,-2.29191,0.216474,0.27255,54.2003,0.0494353,
2,1,0,1,0,30735.1,0.0597273,0.0594141,5.61894,16,0.00191574,10,0.000333844,-2.25035,0.250309,0.235709,51.6453,0.0594141,
2,1,0,1,0,30735.2,0.0697152,0.0694085,6.08745,16,0.00250151,10,0.000422521,-2.21556,0.322207,0.183112,43.5075,0.0694085,
2,1,0,1,0,30735.3,0.0797031,0.0793798,6.50492,16,0.00313197,10,0.000516359,-2.18676,0.387495,0.15226,38.6682,0.0793798,
2,1,0,1,0,30735.4,0.0896911,0.0893357,6.86497,16,0.00380113,10,0.000613287,-2.16336,0.444487,0.132737,35.5889,0.0893357,
2,1,0,1,0,30735.5,0.099679,0.0993727,7.25807,16,0.00450536,10,0.000721254,-2.13918,0.376045,0.156896,44.3697,0.0993727,
2,1,0,1,0,30735.6,0.109667,0.109339,7.81643,16,0.00525676,10,0.000854642,-2.10699,0.275795,0.213927,65.27,0.109339,
2,1,0,1,0,30735.7,0.119655,0.119354,8.55095,16,0.00607433,10,0.00102059,-2.06799,0.27484,0.21467,71.6379,0.119354,
2,1,0,1,0,30735.8,0.129643,0.129283,9.20471,16,0.00696367,10,0.00119001,-2.03599,0.377853,0.156145,56.0535,0.129283,
2,1,0,1,0,30735.9,0.139631,0.139359,9.65101,16,0.00790834,10,0.00134496,-2.01543,0.640497,0.092116,34.7,0.139359,
2,1,0,1,0,30736,0.149619,0.149319,9.7915,16,0.00888402,10,0.00146206,-2.00915,-1.14254,-0.0516394,-19.68,0.149319,
2,1,0,1,0,30736.1,0.159607,0.159278,8.95565,16,0.00983137,10,0.00142644,-2.0479,-0.140808,-0.419009,-146.122,0.159278,
2,1,0,1,0,30736.2,0.169595,0.169279,7.21539,16,0.0106421,10,0.00122141,-2.14174,-0.0961517,-0.613614,-172.884,0.169279,
2,1,0,1,0,30736.3,0.179582,0.179264,5.80003,16,0.0112871,10,0.00103974,-2.23657,-0.12339,-0.47816,-108.482,0.1792642,
2,1,0,1,0,30736.4,0.18957,0.189215,4.99904,16,0.0118234,10,0.000945892,-2.30111,-0.193887,-0.304302,-59.4578,0.189215,
2,1,0,1,0,30736.5,0.199558,0.199228,4.55736,16,0.0122989,10,0.000907956,-2.34129,-0.326279,-0.180827,-32.1371,0.199228,
2,1,0,1,0,30736.6,0.209546,0.209266,4.29436,16,0.0127404,10,0.000898667,-2.3671,-0.435385,-0.135512,-22.7215,0.209266,
2,1,0,1,0,30736.7,0.219534,0.219258,4.1171,16,0.0131606,10,0.00090271,-2.38541,-0.661212,-0.0892301,-14.3384,0.219258,
2,1,0,1,0,30736.8,0.229522,0.229198,3.99607,16,0.0135669,10,0.000915892,-2.39837,-0.861847,-0.0684576,-10.6956,0.229198,
2,1,0,1,0,30736.9,0.23951,0.239203,3.91932,16,0.0139632,10,0.000937516,-2.40679,-1.67933,-0.0351331,-5.37562,0.239203,
2,1,0,1,0,30737,0.249498,0.249197,3.85925,16,0.0143519,10,0.000961714,-2.4135,-1.85383,-0.0318259,-4.78887,0.249197,
2,1,0,1,0,30737.1,0.259486,0.25921,3.80388,16,0.0147351,10,0.000986003,-2.41977,-1.07699,-0.0547821,-8.11893,0.25921,
2,1,0,1,0,30737.2,0.269474,0.26912,3.75332,16,0.0151132,10,0.00101009,-2.42558,-2.3991,-0.0245925,-3.60096,0.2691195,
2,1,0,1,0,30737.3,0.279462,0.279141,3.70285,16,0.0154867,10,0.00103362,-2.43146,-1.65847,-0.0355749,-5.14761,0.279141,
2,1,0,1,0,30737.4,0.28945,0.289123,3.65928,16,0.0158555,10,0.00105798,-2.4366,-3.10421,-0.0190064,-2.7131,0.289123,
2,1,0,1,0,30737.5,0.299438,0.299123,3.61608,16,0.0162194,10,0.00108165,-2.44176,-0.0349705,-1.68714,-221.221,0.299123,
2,0,0,1,0,30737.6,0.291747,0.291406,-0.702905,16,0.0162911,10,-0.000204831,-3.1531,-0.00834327,-7.07157,163.086,0.291406,
2,0,0,1,0,30737.7,0.281759,0.281465,-1.56686,16,0.0161689,10,-0.000441016,-2.80497,-0.0741459,-0.795728,48.2656,0.281465,
2,0,0,1,0,30737.8,0.271771,0.271463,-1.93216,16,0.0159922,10,-0.00052451,-2.71396,-0.149419,-0.394863,29.7448,0.271463,
2,0,0,1,0,30737.9,0.261783,0.261469,-2.18077,16,0.0157858,10,-0.000570205,-2.66139,-0.267677,-0.220415,18.7131,0.261469,
2,0,0,1,0,30738,0.251795,0.25149,-2.36655,16,0.0155582,10,-0.000595164,-2.62588,-0.344596,-0.171215,15.792,0.25149,
2,0,0,1,0,30738.1,0.241807,0.241483,-2.51589,16,0.0153134,10,-0.000607546,-2.59931,-0.365621,-0.16137,15.903,0.2414832,
2,0,0,1,0,30738.2,0.231815,0.231506,-2.66905,16,0.0150537,10,-0.000617901,-2.57364,-0.395046,-0.14935,15.5302,0.231506,
2,0,0,1,0,30738.3,0.221831,0.221525,-2.79649,16,0.0147807,10,-0.000619491,-2.55339,-0.478084,-0.123409,13.4627,0.2215248,
2,0,0,1,0,30738.4,0.211843,0.211561,-2.92483,16,0.0144945,10,-0.000618781,-2.5339,-0.575977,-0.102435,11.6803,0.2115609,
2,0,0,1,0,30738.5,0.201856,0.2015,-3.05401,16,0.0141956,10,-0.000615381,-2.51513,-0.611512,-0.0964821,11.4982,0.2015,
2,0,0,1,0,30738.6,0.191868,0.191538,-3.19097,16,0.0138835,10,-0.000611192,-2.49608,-0.481237,-0.122601,15.2679,0.191538,
2,0,0,1,0,30738.7,0.18188,0.181538,-3.35053,16,0.0135573,10,-0.00060825,-2.47489,-0.39454,-0.149541,19.527,0.181538,
2,0,0,1,0,30738.8,0.171892,0.17157,-3.53949,16,0.0132134,10,-0.000607271,-2.45106,-0.386476,-0.152662,21.0981,0.17157,
2,0,0,1,0,30738.9,0.161904,0.161591,-3.81457,16,0.012847,10,-0.000616401,-2.41855,-0.26447,-0.223087,33.1811,0.161591,
2,0,0,1,0,30739,0.151916,0.151578,-4.23694,16,0.0124464,10,-0.000642229,-2.37295,-0.17819,-0.331107,54.8897,0.151578,
2,0,0,1,0,30739.1,0.141928,0.141581,-5.00293,16,0.011988,10,-0.000708318,-2.30078,-0.112565,-0.524141,102.56,0.141581,
2,0,0,1,0,30739.2,0.13194,0.131647,-6.24432,16,0.0114294,10,-0.000822048,-2.20451,-0.10166,-0.580367,141.617,0.131647,
2,0,0,1,0,30739.3,0.121952,0.121616,-7.67616,16,0.0107329,10,-0.000933542,-2.11486,-0.132909,-0.443914,132.797,0.121616,
2,0,0,1,0,30739.4,0.111964,0.111621,-8.8325,16,0.00990477,10,-0.000985896,-2.05392,-0.210913,-0.279737,96.3641,0.111621,
2,0,0,1,0,30739.5,0.101976,0.101644,-9.5956,16,0.00898013,10,-0.000975334,-2.01793,-0.463767,-0.127219,47.558,0.101644,
2,0,0,1,0,30739.6,0.0919883,0.0916482,-9.82394,16,0.0080055,10,-0.000900346,-2.00771,67.1449,0.000878697,-0.336691,0.0916482,
2,0,0,1,0,30739.7,0.0820004,0.0816933,-9.57748,16,0.00703399,10,-0.000782416,-2.01875,0.532079,0.110886,-41.4219,0.0816933,
2,0,0,1,0,30739.8,0.0720124,0.0716894,-9.173,16,0.00609794,10,-0.000657607,-2.03749,0.543724,0.108511,-38.8499,0.0716894,
2,0,0,1,0,30739.9,0.0620245,0.0616806,-8.85061,16,0.00519846,10,-0.000545911,-2.05303,0.702961,0.0839307,-29.0077,0.0616806,
2,0,0,1,0,30740,0.0520366,0.0516854,-8.58978,16,0.00432742,10,-0.000443966,-2.06602,0.755562,0.0780876,-26.1652,0.0516854,
2,0,0,1,0,30740.1,0.0420486,0.0417381,-8.30323,16,0.00348355,10,-0.000346561,-2.08075,0.693554,0.0850691,-27.5803,0.0417381,
2,0,0,1,0,30740.2,0.0320607,0.0317223,-7.98993,16,0.00267022,10,-0.000253459,-2.09746,0.51896,0.113689,-35.423,0.0317223,
2,0,0,1,0,30740.3,0.0220728,0.0217383,-7.59572,16,0.00189171,10,-0.000165118,-2.11943,0.411538,0.143365,-42.4911,0.0217383,
2,0,0,1,0,30740.4,0.0120848,0.0117325,-7.18758,16,0.00115382,10,-8.4328e-05,-2.14342,0.391119,0.150849,-42.3084,0.0117325,
2,0,0,1,0,30740.5,0.0020969,0.00174261,-6.88275,16,0.000454366,10,-1.1994e-05,-2.16224,0.737699,0.0799784,-21.3952,0.001742614,
2,0,0,1,0,30740.6,-0.00789103,-0.00826316,-6.63224,16,-0.000218855,10,5.48032e-05,-2.17834,1.11558,0.0528871,-13.7198,-0.00826316,
2,0,0,1,0,30740.7,-0.017879,-0.0182558,-6.57784,16,-0.000876798,10,0.000120084,-2.18192,-18.0329,-0.00327179,0.839194,-0.0182558,
2,0,0,1,0,30740.8,-0.0278669,-0.0282336,-6.62436,16,-0.00153481,10,0.000187029,-2.17886,-1.68075,-0.0351034,9.08246,-0.0282336,
2,0,0,1,0,30740.9,-0.0378548,-0.0381933,-6.77079,16,-0.00220298,10,0.000258599,-2.16936,-0.938667,-0.0628551,16.594,-0.03819333,
2,0,0,1,0,30741,-0.0478428,-0.0482328,-6.98294,16,-0.00288907,10,0.000336806,-2.15596,-0.568184,-0.10384,28.307,-0.0482328,
2,0,0,1,0,30741.1,-0.0578216,-0.0581647,-7.26324,16,-0.00359929,10,0.000422464,-2.13887,-0.563753,-0.104656,29.6658,-0.05816469,
2,0,0,1,0,30741.2,-0.0678187,-0.0681837,-7.61295,16,-0.00434133,10,0.000519079,-2.11845,-0.44338,-0.133069,39.5223,-0.0681837,
2,0,0,1,0,30741.3,-0.0778066,-0.0782185,-8.03185,16,-0.00512182,10,0.00062824,-2.09518,-0.409201,-0.144183,45.2202,-0.0782185,
2,0,0,1,0,30741.4,-0.0877945,-0.0881801,-8.53896,16,-0.00594858,10,0.000752967,-2.06859,-0.370978,-0.159039,52.9639,-0.0881801,
2,0,0,1,0,30741.5,-0.0977825,-0.0981665,-9.0585,16,-0.00682715,10,0.000889241,-2.04294,-0.383351,-0.153906,54.4208,-0.0981665,
2,0,0,1,1,30741.5,-0.0927386,-0.0930915,-2.64088,16,-0.00740602,10,0.000245844,-2.57825,-0.0113905,-5.17975,525.285,-0.0930915,
2,1,0,1,1,30741.6,-0.0827529,-0.0831058,0.944927,16,-0.00746735,10,-7.85289e-05,-3.0246,0.00774751,7.61535,243.9,-0.0831058,
2,1,0,1,1,30741.7,-0.0727627,-0.0731182,2.81161,16,-0.00727032,10,-0.00020558,-2.55104,0.0473708,1.24549,135.008,-0.0731182,
2,1,0,1,1,30741.8,-0.0627748,-0.0631517,3.88602,16,-0.0069304,10,-0.000245409,-2.4105,0.108131,0.545636,82.6056,-0.0631517,
2,1,0,1,1,30741.9,-0.0527868,-0.0531229,4.53392,16,-0.00650612,10,-0.000240855,-2.34353,0.214381,0.275211,48.603,-0.0531229,
2,1,0,1,1,30742,-0.0427989,-0.0431464,4.90777,16,-0.00603192,10,-0.000211753,-2.30912,0.388605,0.151825,29.0778,-0.0431464,
2,1,0,1,1,30742.1,-0.0328109,-0.0331534,5.11567,16,-0.00552999,10,-0.000169602,-2.2911,0.879377,0.0670929,13.3824,-0.0331534,
2,1,0,1,1,30742.2,-0.022823,-0.0231807,5.20896,16,-0.0050133,10,-0.000120748,-2.28325,2.36842,0.0249112,5.05972,-0.0231807,
2,1,0,1,1,30742.3,-0.0128351,-0.0131876,5.22407,16,-0.00449114,10,-6.88928e-05,-2.28199,-47.533,-0.00124124,-0.253277,-0.0131876,
2,1,0,1,1,30742.4,-0.00284713,-0.00322079,5.23484,16,-0.00396792,10,-1.68603e-05,-2.2811,-17.9448,-0.00328787,-0.671074,-0.00322079,
2,1,0,1,1,30742.5,-2.55332e-05,-0.000401673,5.24582,16,-0.00382076,10,-2.1071e-06,-2.28019, , , ,-0.000401673,