File: Figure_codes/Fig_3-5/rawdata_trumpetplot_data/after 10th/20221101_1-115_003_TrumpetPlot_ParaChange_from10_every3_14_CV_C01_3.csv
mode,ox/red,error,control changes,counter inc.,time/s,control/V,Ewe/V,<I>/mA,cycle number,(Q-Qo)/C,I Range,P/W,log(|I|),Tafel slope mV/dec,alpha_eff,dI/d(E-IR),E-IR/V,
2,1,0,1,0,7109.5,2.44065e-05,-0.0002108,46.0008,4,0.0000000E+000,10,-9.69696e-06,-1.33723, , , ,-0.0002108,
2,1,0,1,0,7109.51,0.0133084,0.0129414,49.6764,4,0.000631219,10,0.000642883,-1.30385,0.569629,0.103576,199.984,0.0129414,
2,1,0,1,0,7109.53,0.0273414,0.0269897,51.9388,4,0.00134378,10,0.00140181,-1.28451,0.883517,0.0667786,135.01,0.0269897,
2,1,0,1,0,7109.54,0.0413245,0.0409245,53.5023,4,0.00208256,10,0.00218955,-1.27163,1.20238,0.0490695,102.407,0.0409245,
2,1,0,1,0,7109.55,0.0553076,0.0549494,54.8614,4,0.00284135,10,0.0030146,-1.26073,1.28194,0.0460239,98.571,0.0549494,
2,1,0,1,0,7109.57,0.0693407,0.0689256,56.2327,4,0.00361906,10,0.00387587,-1.25001,1.13494,0.0519849,114.273,0.0689256,
2,1,0,1,0,7109.58,0.0833238,0.0829081,58.0411,4,0.00441903,10,0.00481208,-1.23626,0.957965,0.0615889,139.64,0.0829081,
2,1,0,1,0,7109.6,0.0973069,0.0969405,60.1878,4,0.00524634,10,0.00583463,-1.22049,0.807204,0.0730918,171.921,0.0969405,
2,1,0,1,0,7109.61,0.11134,0.110988,62.7984,4,0.00610701,10,0.00696985,-1.20205,0.72896,0.0809373,198.418,0.110988,
2,1,0,1,0,7109.62,0.125323,0.124957,65.6803,4,0.0070063,10,0.00820724,-1.18257,0.692969,0.0851408,218.415,0.124957,
2,1,0,1,0,7109.64,0.139306,0.138945,68.9169,4,0.00794843,10,0.00957567,-1.16167,0.640783,0.0920748,247.946,0.138945,
2,1,0,1,0,7109.65,0.153339,0.152976,72.627,4,0.00893913,10,0.0111102,-1.1389,0.604981,0.0975237,276.552,0.152976,
2,1,0,1,0,7109.67,0.167322,0.16697,76.6712,4,0.00998433,10,0.0128018,-1.11537,0.597919,0.0986755,295.234,0.1669697,
2,1,0,1,0,7109.68,0.181305,0.18097,80.7773,4,0.0110872,10,0.0146183,-1.09271,0.657182,0.0897773,282.772,0.18097,
2,1,0,1,0,7109.69,0.195338,0.195035,84.4349,4,0.0122451,10,0.0164678,-1.07348,0.901638,0.0654365,215.009,0.195035,
2,1,0,1,0,7109.71,0.209322,0.208981,86.6364,4,0.0134449,10,0.0181054,-1.0623,2.82739,0.0208673,70.1695,0.208981,
2,1,0,1,0,7109.72,0.223305,0.222995,85.9849,4,0.0146575,10,0.0191742,-1.06558,-1.07459,-0.0549049,-182.87,0.222995,
2,1,0,1,0,7109.74,0.237338,0.23702,81.3723,4,0.0158334,10,0.0192869,-1.08952,-0.394001,-0.149746,-471.806,0.23702,
2,1,0,1,0,7109.75,0.251321,0.251027,73.2591,4,0.0169178,10,0.01839,-1.13514,-0.264184,-0.223329,-635.901,0.251027,
2,1,0,1,0,7109.76,0.265304,0.265071,64.0441,4,0.0178778,10,0.0169762,-1.19352,-0.234632,-0.251458,-629.445,0.265071,
2,1,0,1,0,7109.78,0.279337,0.279055,55.9223,4,0.0187151,10,0.0156054,-1.25242,-0.247083,-0.238787,-523.136,0.279055,
2,1,0,1,0,7109.79,0.29332,0.293016,49.5984,4,0.0194509,10,0.0145331,-1.30453,-0.293701,-0.200885,-392.51,0.293016,
2,1,0,1,0,7109.8,0.298714,0.298623,43.3774,4,0.0198323,10,0.0129535,-1.36274,0.0302087,1.95308,2693.28,0.298623,
2,1,0,1,0,7109.81,0.28473,0.28459,16.1174,4,0.0202224,10,0.00458685,-1.7927,0.025442,2.319,1391.64,0.28459,
2,1,0,1,0,7109.83,0.270747,0.270497,1.52411,4,0.0203354,10,0.000412268,-2.81698,0.0467703,1.26148,805.748,0.2704972,
2,0,0,1,0,7109.84,0.256714,0.256436,-7.3073,4,0.0202891,10,-0.00187386,-2.13624,-0.0273125,-2.16019,499.805,0.2564362,
2,0,0,1,0,7109.86,0.242731,0.242456,-12.9649,4,0.0201441,10,-0.00314342,-1.88723,-0.0858958,-0.686879,335.022,0.2424558,
2,0,0,1,0,7109.87,0.228748,0.228467,-16.8928,4,0.0199331,10,-0.00385944,-1.7723,-0.158297,-0.372718,242.802,0.228467,
2,0,0,1,0,7109.88,0.214715,0.214422,-19.8832,4,0.0196741,10,-0.00426338,-1.70151,-0.242673,-0.243125,187.507,0.214422,
2,0,0,1,0,7109.9,0.200732,0.200489,-22.2713,4,0.0193784,10,-0.00446515,-1.65225,-0.315539,-0.186982,162.034,0.200489,
2,0,0,1,0,7109.91,0.186735,0.186441,-24.4416,4,0.0190511,10,-0.00455692,-1.61187,-0.361134,-0.163374,155.82,0.186441,
2,0,0,1,0,7109.93,0.172716,0.172479,-26.6655,4,0.018693,10,-0.00459922,-1.57405,-0.371532,-0.158802,165.467,0.172479,
2,0,0,1,0,7109.94,0.158733,0.158483,-29.2029,4,0.0183023,10,-0.00462817,-1.53457,-0.324159,-0.182009,208.227,0.158483,
2,0,0,1,0,7109.95,0.144719,0.144492,-32.6189,4,0.0178706,10,-0.00471317,-1.48653,-0.261922,-0.225257,288.306,0.144492,
2,0,0,1,0,7109.97,0.130717,0.130455,-37.3818,4,0.0173817,10,-0.00487663,-1.42734,-0.217316,-0.271494,398.081,0.1304546,
2,0,0,1,0,7109.98,0.116733,0.116451,-43.7497,4,0.016815,10,-0.00509469,-1.35903,-0.201064,-0.293439,501.638,0.116451,
2,0,0,1,0,7110,0.102703,0.102468,-51.2873,4,0.0161502,10,-0.00525533,-1.28999,-0.215005,-0.274412,547.36,0.102468,
2,0,0,1,0,7110.01,0.0887173,0.0884933,-58.761,4,0.0153786,10,-0.00519996,-1.23091,-0.265461,-0.222255,507.291,0.0884933,
2,0,0,1,0,7110.02,0.0747341,0.0745606,-65.396,4,0.0145083,10,-0.00487596,-1.18445,-0.337908,-0.174604,443.684,0.0745606,
2,0,0,1,0,7110.04,0.0607011,0.0605378,-70.9691,4,0.0135518,10,-0.00429631,-1.14893,-0.47121,-0.12521,345.383,0.0605378,
2,0,0,1,0,7110.05,0.046718,0.0464492,-75.0029,4,0.0125277,10,-0.00348382,-1.12492,-0.774404,-0.0761876,221.994,0.0464492,
2,0,0,1,0,7110.07,0.0327349,0.0324571,-77.1678,4,0.0114603,10,-0.00250465,-1.11256,-1.83827,-0.0320953,96.3416,0.0324571,
2,0,0,1,0,7110.08,0.0187018,0.0184216,-77.9035,4,0.0103738,10,-0.00143511,-1.10844,-12.819,-0.00460253,13.9578,0.0184216,
2,0,0,1,0,7110.09,0.00471873,0.0044253,-77.6185,4,0.0092844,10,-0.000343485,-1.11003,4.67889,0.0126098,-38.1703,0.004425297,
2,0,0,1,0,7110.11,-0.00926438,-0.00956359,-76.8275,4,0.00820241,10,0.000734747,-1.11448,2.15899,0.0273276,-81.8372,-0.00956359,
2,0,0,1,0,7110.12,-0.0232974,-0.0236426,-75.4455,4,0.00713618,10,0.00178373,-1.12237,1.37724,0.0428392,-125.838,-0.0236426,
2,0,0,1,0,7110.14,-0.0372805,-0.0376654,-73.2151,4,0.006095,10,0.00275768,-1.1354,0.917719,0.0642898,-183.41,-0.0376654,
2,0,0,1,0,7110.15,-0.0512637,-0.0516034,-70.3906,4,0.00508964,10,0.0036324,-1.15249,0.781214,0.0755235,-207.433,-0.0516034,
2,0,0,1,0,7110.16,-0.0652967,-0.0656517,-67.6423,4,0.00412436,10,0.00444083,-1.16978,0.865055,0.0682037,-180.177,-0.0656517,
2,0,0,1,0,7110.18,-0.0792798,-0.079631,-65.4075,4,0.00319417,10,0.00520847,-1.18437,1.1688,0.0504791,-129.135,-0.079631,
2,0,0,1,0,7110.19,-0.0932629,-0.0936221,-63.9994,4,0.0022893,10,0.00599175,-1.19382,2.0552,0.0287077,-71.8511,-0.0936221,
2,0,0,1,0,7110.21,-0.107296,-0.107649,-63.439,4,0.00139831,10,0.00682915,-1.19764,7.59135,0.00777201,-19.2565,-0.107649,
2,0,0,1,0,7110.22,-0.121279,-0.121639,-63.3946,4,0.000511317,10,0.00771126,-1.19795,-9.3975,-0.00627827,15.5489,-0.121639,
2,0,0,1,0,7110.23,-0.135262,-0.135584,-63.8223,4,-0.000378747,10,0.00865332,-1.19503,-3.20031,-0.0184357,45.9757,-0.135584,
2,0,0,1,0,7110.25,-0.149295,-0.149614,-64.7091,4,-0.00127819,10,0.00968137,-1.18903,-2.13385,-0.0276496,69.8306,-0.149614,
2,0,0,1,0,7110.26,-0.163278,-0.163608,-65.7674,4,-0.00219131,10,0.0107601,-1.18199,-1.80583,-0.0326719,83.8898,-0.163608,
2,0,0,1,0,7110.28,-0.177261,-0.177511,-67.0101,4,-0.00312071,10,0.011895,-1.17386,-1.62017,-0.0364159,95.278,-0.177511,
2,0,0,1,0,7110.29,-0.191295,-0.191607,-68.4772,4,-0.00406908,10,0.0131207,-1.16445,-1.4375,-0.0410434,109.672,-0.191607,
2,0,0,0,1,7110.3,-0.199984,-0.200494,-69.1216,4,-0.0047105,10,0.0138585,-1.16039,-0.0360439,-1.63689,3849.24,-0.200494,
2,0,0,1,1,7110.31,-0.186686,-0.187113,-41.8259,4,-0.00541243,10,0.00782616,-1.37855,-0.0606992,-0.972007,1593.6,-0.187113,
2,0,0,1,1,7110.33,-0.172667,-0.173123,-23.208,4,-0.00585884,10,0.00401783,-1.63436,-0.0453274,-1.30164,1151.11,-0.173123,
2,0,0,1,1,7110.34,-0.158684,-0.159133,-9.01013,4,-0.006079,10,0.00143381,-2.04527,-0.0180379,-3.27089,910.552,-0.159133,
2,1,0,1,1,7110.35,-0.14467,-0.145147,2.49123,4,-0.00612112,10,-0.000361596,-2.60359,0.0484853,1.21686,750.735,-0.145147,
2,1,0,1,1,7110.37,-0.130668,-0.131171,12.0083,4,-0.00601654,10,-0.00157514,-1.92052,0.0405029,1.45669,629.339,-0.131171,
2,1,0,1,1,7110.38,-0.116685,-0.117171,20.1592,4,-0.00578901,10,-0.00236206,-1.69553,0.084324,0.699682,536.881,-0.117171,
2,1,0,1,1,7110.4,-0.102654,-0.103067,27.1804,4,-0.00545601,10,-0.0028014,-1.56574,0.134941,0.43723,457.23,-0.103067,
2,1,0,1,1,7110.41,-0.0886685,-0.0890962,33.0711,4,-0.00503271,10,-0.00294651,-1.48055,0.192105,0.307124,393.599,-0.0890962,
2,1,0,1,1,7110.42,-0.0746854,-0.0751307,38.1569,4,-0.00453266,10,-0.00286676,-1.41843,0.259376,0.227469,337.223,-0.0751307,
2,1,0,1,1,7110.44,-0.0606523,-0.0610368,42.6103,4,-0.00396647,10,-0.0026008,-1.37049,0.335757,0.175722,290.783,-0.0610368,
2,1,0,1,1,7110.45,-0.0466692,-0.0470299,46.2972,4,-0.00334324,10,-0.00217735,-1.33445,0.437946,0.13472,242.709,-0.0470299,
2,1,0,1,1,7110.47,-0.0326861,-0.0330877,49.3925,4,-0.00267247,10,-0.00163428,-1.30634,0.564058,0.104599,201.198,-0.0330877,
2,1,0,1,1,7110.48,-0.018653,-0.0190256,51.9945,4,-0.00196209,10,-0.000989228,-1.28404,0.731191,0.0806903,163.307,-0.0190256,
2,1,0,1,1,7110.49,-0.00466992,-0.00500702,53.9651,4,-0.00121964,10,-0.000270204,-1.26789, , , ,-0.00500702,
2,1,0,0,1,7110.5,-0.000175352,-0.000649808,54.476,4,-0.000975611,10,-3.53989e-05,-1.2638, , , ,-0.000649808,