File: Figure_codes/Fig_3-5/rawdata_trumpetplot_data/after 10th/20221101_1-115_003_TrumpetPlot_ParaChange_from10_every3_03_CV_C01_1.csv
mode,ox/red,error,control changes,counter inc.,time/s,control/V,Ewe/V,<I>/mA,cycle number,(Q-Qo)/C,I Range,P/W,log(|I|),Tafel slope mV/dec,alpha_eff,dI/d(E-IR),E-IR/V,
2,0,0,1,0,2910.15,2.44065e-05,-0.000363498,-0.079041,2,0.0000000E+000,10,2.87313e-08,-4.10215, , , ,-0.000363498,
2,1,0,1,0,2911.6,0.0072904,0.00699545,0.209066,2,0.000283942,10,1.46251e-06,-3.67972,0.0924988,0.637846,5.14835,0.00699545,
2,1,0,1,0,2913.1,0.0147815,0.0144472,0.235473,2,0.000647388,10,3.40191e-06,-3.62806,0.157645,0.374258,3.43925,0.0144472,
2,1,0,1,0,2914.6,0.0222725,0.0219559,0.258573,2,0.00104654,10,5.67721e-06,-3.58742,0.176162,0.334919,3.36428,0.0219559,
2,1,0,1,0,2916.09,0.0297635,0.0294699,0.280438,2,0.00147906,10,8.26447e-06,-3.55216,0.169635,0.347805,3.81522,0.02946987,
2,1,0,1,0,2917.59,0.0372545,0.0369364,0.306171,2,0.00194766,10,1.13088e-05,-3.51404,0.198136,0.297775,3.57526,0.0369364,
2,1,0,1,0,2919.09,0.0447456,0.0444526,0.336812,2,0.00245723,10,1.49722e-05,-3.47261,0.216896,0.27202,3.55884,0.0444526,
2,1,0,1,0,2920.59,0.0522367,0.0518906,0.365625,2,0.00301122,10,1.89725e-05,-3.43696,0.1765,0.334277,4.75941,0.0518906,
2,1,0,1,0,2922.09,0.0597277,0.0594044,0.395493,2,0.00361047,10,2.3494e-05,-3.40286,0.229184,0.257435,3.96254,0.0594044,
2,1,0,1,0,2923.58,0.0672187,0.0669114,0.424135,2,0.00425225,10,2.83794e-05,-3.3725,0.258258,0.228454,3.75554,0.0669114,
2,1,0,1,0,2925.08,0.0747092,0.0743856,0.444782,2,0.0049327,10,3.30854e-05,-3.35185,0.323732,0.18225,3.17808,0.0743856,
2,1,0,0,0,2926.58,0.0822001,0.0819103,0.466272,2,0.00564833,10,3.81925e-05,-3.33136,0.354104,0.166618,3.05051,0.0819103,
2,1,0,1,0,2928.08,0.0896911,0.0893437,0.494621,2,0.00639839,10,4.41913e-05,-3.30573,0.258496,0.228244,4.41148,0.0893437,
2,1,0,0,0,2929.58,0.097182,0.0968779,0.528444,2,0.00719213,10,5.11946e-05,-3.277,0.192666,0.306229,6.30513,0.0968779,
2,1,0,1,0,2931.08,0.104673,0.104377,0.579925,2,0.00804834,10,6.05308e-05,-3.23663,0.184917,0.319062,7.19768,0.104377,
2,1,0,0,0,2932.57,0.112164,0.111852,0.633727,2,0.00898516,10,7.08835e-05,-3.1981,0.238549,0.247328,6.09639,0.111852,
2,1,0,1,0,2934.07,0.119655,0.119354,0.682634,2,0.0100018,10,8.14752e-05,-3.16581,0.292412,0.20177,5.38477,0.119354,
2,1,0,0,0,2935.57,0.127146,0.126894,0.72305,2,0.0110869,10,9.17505e-05,-3.14083,0.345927,0.170556,4.83218,0.126894,
2,1,0,1,0,2937.07,0.134637,0.134368,0.754065,2,0.0122308,10,0.000101322,-3.12259,1.07991,0.0546344,1.61073,0.1343675,
2,1,0,1,0,2938.57,0.142127,0.141871,0.727766,2,0.0133838,10,0.000103249,-3.13801,-0.189644,-0.311109,-8.79644,0.141871,
2,1,0,1,0,2940.06,0.149618,0.149313,0.614074,2,0.0144288,10,9.16891e-05,-3.21178,-0.0765724,-0.770512,-18.4478,0.149313,
2,1,0,1,0,2941.56,0.157109,0.156818,0.488314,2,0.0152794,10,7.65764e-05,-3.3113,-0.0744143,-0.792858,-15.1007,0.156818,
2,1,0,1,0,2943.06,0.1646,0.164274,0.409032,2,0.0159741,10,6.71933e-05,-3.38824,-0.114708,-0.514351,-8.20609,0.164274,
2,1,0,1,0,2944.56,0.172091,0.171781,0.362261,2,0.016577,10,6.22295e-05,-3.44098,-0.195866,-0.301226,-4.27406,0.171781,
2,1,0,1,0,2946.06,0.179582,0.179295,0.336833,2,0.0171274,10,6.03924e-05,-3.47259,-0.271396,-0.217395,-2.86884,0.179295,
2,1,0,1,0,2947.56,0.187074,0.186774,0.321055,2,0.0176466,10,5.99647e-05,-3.49342,-0.404068,-0.146015,-1.82165,0.186774,
2,1,0,1,0,2949.05,0.194564,0.194263,0.308214,2,0.018145,10,5.98745e-05,-3.51115,-0.531623,-0.110981,-1.33794,0.1942627,
2,1,0,1,0,2950.55,0.202056,0.201737,0.299883,2,0.0186283,10,6.04977e-05,-3.52305,-0.576787,-0.102291,-1.19573,0.201737,
2,1,0,1,0,2952.05,0.209547,0.20923,0.292441,2,0.0191011,10,6.11875e-05,-3.53396,-0.872356,-0.0676329,-0.775287,0.20923,
2,1,0,1,0,2953.55,0.217038,0.216712,0.288007,2,0.0195646,10,6.24144e-05,-3.5406,-0.87532,-0.0674039,-0.759596,0.216712,
2,1,0,1,0,2955.05,0.224529,0.224233,0.284077,2,0.0200215,10,6.36996e-05,-3.54656,-1.67624,-0.0351979,-0.38936,0.224233,
2,1,0,1,0,2956.54,0.232019,0.231718,0.279575,2,0.0204725,10,6.47827e-05,-3.5535,-0.771063,-0.0765178,-0.838299,0.231718,
2,1,0,0,0,2958.04,0.23951,0.239225,0.276493,2,0.0209183,10,6.61441e-05,-3.55832,-1.37782,-0.0428212,-0.462781,0.239225,
2,1,0,1,0,2959.54,0.247001,0.24669,0.275357,2,0.0213602,10,6.79278e-05,-3.5601,-4.57624,-0.0128927,-0.137895,0.24669,
2,1,0,0,0,2961.04,0.254492,0.254194,0.272224,2,0.0217983,10,6.91978e-05,-3.56507,-1.91134,-0.0308684,-0.3278,0.2541945,
2,1,0,1,0,2962.54,0.261983,0.261686,0.268674,2,0.022233,10,7.03083e-05,-3.57077,-1.55168,-0.0380233,-0.400399,0.261686,
2,1,0,0,0,2964.04,0.269474,0.269157,0.268101,2,0.0226644,10,7.21613e-05,-3.5717,1.20469,0.0489754,0.510867,0.269157,
2,1,0,1,0,2965.53,0.276965,0.276679,0.266682,2,0.0230927,10,7.37854e-05,-3.57401,-2.35131,-0.0250924,-0.261316,0.276679,
2,1,0,0,0,2967.03,0.284456,0.284135,0.264192,2,0.023518,10,7.50663e-05,-3.57808,-1.05994,-0.0556633,-0.573796,0.284135,
2,1,0,1,0,2968.53,0.291947,0.291663,0.261419,2,0.0239406,10,7.62461e-05,-3.58266,-1.64395,-0.0358892,-0.369041,0.2916629,
2,1,0,1,0,2970.03,0.299437,0.299121,0.259485,2,0.0243603,10,7.76174e-05,-3.58589,-0.00211382,-27.9116,-126.135,0.299121,
2,0,0,1,0,2971.4,0.293744,0.293431,-0.0201406,2,0.0243821,10,-5.9099e-06,-4.69593,-0.00675545,-8.73368,5.23797,0.293431,
2,0,0,1,0,2972.9,0.286253,0.285951,-0.0468705,2,0.0243034,10,-1.34027e-05,-4.3291,-0.033085,-1.78328,3.23905,0.285951,
2,0,0,0,0,2974.39,0.278763,0.278505,-0.06631,2,0.0241896,10,-1.84677e-05,-4.17842,-0.0691725,-0.85294,2.20354,0.278505,
2,0,0,1,0,2975.89,0.271272,0.270955,-0.0823066,2,0.0240498,10,-2.23014e-05,-4.08457,-0.110548,-0.533705,1.69838,0.270955,
2,0,0,0,0,2977.39,0.263781,0.263494,-0.0953585,2,0.0238882,10,-2.51264e-05,-4.02064,-0.147525,-0.399932,1.48713,0.263494,
2,0,0,1,0,2978.89,0.25629,0.256002,-0.106471,2,0.0237084,10,-2.72569e-05,-3.97277,-0.159849,-0.369098,1.53535,0.256002,
2,0,0,0,0,2980.39,0.248799,0.248452,-0.117341,2,0.0235123,10,-2.91537e-05,-3.93055,-0.245753,-0.240079,1.11424,0.248452,
2,0,0,1,0,2981.88,0.241308,0.241035,-0.126465,2,0.023301,10,-3.04825e-05,-3.89803,-0.258643,-0.228114,1.13896,0.241035,
2,0,0,0,0,2983.38,0.233817,0.233519,-0.137089,2,0.0230752,10,-3.20129e-05,-3.863,-0.284246,-0.207567,1.10348,0.233519,
2,0,0,1,0,2984.88,0.226326,0.22604,-0.145849,2,0.0228351,10,-3.29677e-05,-3.8361,-0.241634,-0.244171,1.39818,0.22604,
2,0,0,0,0,2986.38,0.218835,0.218502,-0.155743,2,0.0225807,10,-3.40302e-05,-3.80759,-0.293478,-0.201037,1.22757,0.218502,
2,0,0,1,0,2987.88,0.211344,0.211021,-0.164707,2,0.0223113,10,-3.47566e-05,-3.78329,-0.268708,-0.219569,1.41616,0.2110211,
2,0,0,1,0,2989.38,0.203854,0.203539,-0.175611,2,0.0220259,10,-3.57438e-05,-3.75545,-0.274733,-0.214754,1.48363,0.2035394,
2,0,0,1,0,2990.87,0.196363,0.196044,-0.189736,2,0.0217231,10,-3.71968e-05,-3.72185,-0.227942,-0.258838,1.91206,0.196044,
2,0,0,1,0,2992.37,0.188871,0.188559,-0.202028,2,0.0214001,10,-3.80941e-05,-3.69459,-0.185146,-0.318667,2.5273,0.1885587,
2,0,0,1,0,2993.87,0.181381,0.181069,-0.221948,2,0.0210528,10,-4.01879e-05,-3.65375,-0.157119,-0.375511,3.23976,0.181069,
2,0,0,1,0,2995.37,0.173889,0.173566,-0.246923,2,0.0206736,10,-4.28576e-05,-3.60744,-0.147697,-0.399465,3.84217,0.173566,
2,0,0,1,0,2996.87,0.166398,0.166005,-0.280779,2,0.0202505,10,-4.66106e-05,-3.55164,-0.118813,-0.496577,5.48404,0.166005,
2,0,0,1,0,2998.36,0.158907,0.158573,-0.334717,2,0.0197609,10,-5.30771e-05,-3.47532,-0.0778561,-0.757808,10.0024,0.158573,
2,0,0,1,0,2999.86,0.151416,0.151106,-0.427502,2,0.0191636,10,-6.4598e-05,-3.36906,-0.0670501,-0.879939,14.7312,0.151106,
2,0,0,1,0,3001.36,0.143925,0.143615,-0.55689,2,0.0183999,10,-7.99779e-05,-3.25423,-0.0642471,-0.918329,19.8901,0.143615,
2,0,0,1,0,3002.86,0.136434,0.13613,-0.688191,2,0.0174325,10,-9.36832e-05,-3.16229,-0.112993,-0.522155,13.9198,0.1361296,
2,0,0,1,0,3004.36,0.128943,0.128627,-0.754615,2,0.0163128,10,-9.7064e-05,-3.12227,-0.447744,-0.131772,3.86666,0.128627,
2,0,0,0,0,3005.86,0.121453,0.121141,-0.761774,2,0.0151416,10,-9.22821e-05,-3.11817,0.649446,0.0908466,-2.68989,0.121141,
2,0,0,1,0,3007.35,0.113962,0.113657,-0.727171,2,0.0139917,10,-8.26478e-05,-3.13836,0.31405,0.187868,-5.37069,0.113657,
2,0,0,0,0,3008.85,0.106471,0.106197,-0.69082,2,0.0128954,10,-7.33628e-05,-3.16064,0.290719,0.202945,-5.48574,0.106197,
2,0,0,1,0,3010.35,0.0989798,0.0986753,-0.645859,2,0.0118635,10,-6.37303e-05,-3.18986,0.259617,0.227258,-5.72593,0.0986753,
2,0,0,0,0,3011.85,0.0914889,0.0911347,-0.607821,2,0.0108973,10,-5.53936e-05,-3.21622,0.297814,0.19811,-4.67935,0.0911347,
2,0,0,1,0,3013.35,0.083998,0.0836822,-0.572655,2,0.00998506,10,-4.7921e-05,-3.24211,0.278689,0.211706,-4.73404,0.0836822,
2,0,0,0,0,3014.84,0.076507,0.0762085,-0.550809,2,0.00911319,10,-4.19763e-05,-3.259,0.469015,0.125796,-2.70414,0.0762085,
2,0,0,1,0,3016.34,0.069016,0.0687199,-0.527925,2,0.00827465,10,-3.62789e-05,-3.27743,0.533494,0.110592,-2.28966,0.0687199,
2,0,0,0,0,3017.84,0.0615251,0.0611602,-0.509389,2,0.00746709,10,-3.11543e-05,-3.29295,0.365339,0.161494,-3.20752,0.0611602,
2,0,0,1,0,3019.34,0.0540341,0.0537469,-0.485349,2,0.00669336,10,-2.6086e-05,-3.31395,0.395607,0.149138,-2.81799,0.05374692,
2,0,0,1,0,3020.84,0.0465436,0.0462185,-0.461384,2,0.00595487,10,-2.13245e-05,-3.33594,0.367104,0.160717,-2.89103,0.0462185,
2,0,0,1,0,3022.34,0.0390526,0.0387446,-0.438985,2,0.00525194,10,-1.70083e-05,-3.35755,0.347894,0.169592,-2.89506,0.0387446,
2,0,0,1,0,3023.83,0.0315615,0.0312389,-0.419571,2,0.00458135,10,-1.3107e-05,-3.37719,0.477877,0.123463,-2.0214,0.03123891,
2,0,0,1,0,3025.33,0.0240706,0.0237525,-0.406541,2,0.00393476,10,-9.65637e-06,-3.3909,0.696679,0.0846875,-1.34624,0.0237525,
2,0,0,1,0,3026.83,0.0165795,0.0163061,-0.401063,2,0.00330273,10,-6.5398e-06,-3.39679,3.24017,0.0182089,-0.284822,0.0163061,
2,0,0,1,0,3028.33,0.00908845,0.00874759,-0.401287,2,0.00267471,10,-3.51029e-06,-3.39655,-1.95669,-0.030153,0.472705,0.00874759,
2,0,0,1,0,3029.83,0.00159739,0.00122277,-0.411122,2,0.00203974,10,-5.02707e-07,-3.38603, , , ,0.00122277,
2,0,0,0,0,3030.11,0.000199195,-0.000140177,-0.408694,2,0.0019201,10,5.72893e-08,-3.3886, , , ,-0.000140177,