File: Figure_codes/Fig_3-5/rawdata_trumpetplot_data/after 10th/20221101_1-115_003_TrumpetPlot_ParaChange_from10_every3_14_CV_C01_10.csv
mode,ox/red,error,control changes,counter inc.,time/s,control/V,Ewe/V,<I>/mA,cycle number,(Q-Qo)/C,I Range,P/W,log(|I|),Tafel slope mV/dec,alpha_eff,dI/d(E-IR),E-IR/V,
2,1,0,1,0,20900.4,2.44065e-05,-0.000229887,38.5383,11,0.0000000E+000,10,-8.85945e-06,-1.41411, , , ,-0.000229887,
2,1,0,1,0,20900.4,0.0133084,0.0129372,42.265,11,0.000533612,10,0.000546789,-1.37402,0.452085,0.130506,214.487,0.0129372,
2,1,0,1,0,20900.4,0.0273414,0.0269918,44.8441,11,0.00114453,10,0.00121042,-1.3483,0.63458,0.0929749,162.315,0.0269918,
2,1,0,1,0,20900.5,0.0413245,0.0409595,46.8704,11,0.00178715,10,0.00191979,-1.3291,0.81409,0.0724736,132.388,0.0409595,
2,1,0,1,0,20900.5,0.0553076,0.0549484,48.5886,11,0.00245567,10,0.00266986,-1.31347,0.925164,0.0637725,120.926,0.0549484,
2,1,0,1,0,20900.5,0.0693407,0.0689574,50.2262,11,0.0031476,10,0.00346347,-1.29907,0.982255,0.0600659,117.73,0.0689574,
2,1,0,1,0,20900.5,0.0833238,0.0829441,51.8844,11,0.00386254,10,0.00430351,-1.28496,1.00544,0.0586805,118.818,0.0829441,
2,1,0,1,0,20900.5,0.0973069,0.0968705,53.6567,11,0.00460098,10,0.00519775,-1.27038,0.869422,0.0678611,142.302,0.0968705,
2,1,0,1,0,20900.5,0.11134,0.110998,55.7526,11,0.00536707,10,0.00618844,-1.25373,0.842422,0.0700361,152.426,0.110998,
2,1,0,1,0,20900.5,0.125323,0.124979,57.9572,11,0.00616305,10,0.00724341,-1.23689,0.814734,0.0724163,163.848,0.124979,
2,1,0,1,0,20900.6,0.139306,0.138962,60.3702,11,0.00699123,10,0.00838918,-1.21918,0.75206,0.0784512,185.003,0.138962,
2,1,0,1,0,20900.6,0.153339,0.152935,63.0949,11,0.00785559,10,0.00964944,-1.20001,0.716294,0.0823684,202.966,0.152935,
2,1,0,1,0,20900.6,0.167322,0.166981,66.036,11,0.0087598,10,0.0110268,-1.18022,0.721053,0.0818248,210.847,0.166981,
2,1,0,1,0,20900.6,0.181305,0.180978,68.9384,11,0.00970514,10,0.0124763,-1.16154,0.798979,0.0738443,198.5,0.180978,
2,1,0,1,0,20900.6,0.195338,0.194971,71.4794,11,0.010689,10,0.0139364,-1.14582,1.07866,0.0546973,152.282,0.194971,
2,1,0,1,0,20900.6,0.209322,0.208979,73.1286,11,0.0117027,10,0.0152823,-1.13591,2.45714,0.0240117,68.2871,0.208979,
2,1,0,1,0,20900.6,0.223305,0.222974,73.2498,11,0.0127294,10,0.0163328,-1.13519,-2.96834,-0.0198764,-56.5879,0.222974,
2,1,0,1,0,20900.6,0.237338,0.237052,71.473,11,0.0137448,10,0.0169428,-1.14586,-0.809076,-0.0729227,-202.477,0.237052,
2,1,0,1,0,20900.7,0.251321,0.251051,67.7283,11,0.0147208,10,0.0170033,-1.16923,-0.485794,-0.121451,-319.837,0.251051,
2,1,0,1,0,20900.7,0.265304,0.265002,62.6477,11,0.015634,10,0.0166018,-1.20309,-0.378836,-0.15574,-380.24,0.265002,
2,1,0,1,0,20900.7,0.279337,0.279026,57.2022,11,0.0164725,10,0.0159609,-1.24259,-0.34118,-0.172929,-386.064,0.279026,
2,1,0,1,0,20900.7,0.29332,0.293031,52.0729,11,0.0172361,10,0.015259,-1.28339,-0.349953,-0.168594,-344.777,0.293031,
2,1,0,1,0,20900.7,0.298714,0.298614,46.6624,11,0.0176391,10,0.0139341,-1.33103,0.0427615,1.37975,2182.96,0.298614,
2,1,0,1,0,20900.7,0.28473,0.284503,24.3666,11,0.0181167,10,0.00693238,-1.6132,0.0467902,1.26095,1200.66,0.284503,
2,1,0,1,0,20900.7,0.270747,0.270507,10.9401,11,0.0183564,10,0.00295936,-1.96098,0.0302251,1.95202,788.444,0.270507,
2,1,0,1,0,20900.8,0.256714,0.256456,1.72294,11,0.0184402,10,0.00044186,-2.76373,0.0348675,1.69212,554.853,0.256456,
2,0,0,1,0,20900.8,0.242731,0.242483,-4.86642,11,0.0184152,10,-0.00118003,-2.31279,-0.021019,-2.80698,404.534,0.242483,
2,0,0,1,0,20900.8,0.228748,0.228517,-9.78482,11,0.0183107,10,-0.00223599,-2.00945,-0.0698423,-0.84476,309.798,0.228517,
2,0,0,1,0,20900.8,0.214715,0.214431,-13.6166,11,0.0181452,10,-0.00291982,-1.86593,-0.1272,-0.463838,242.69,0.214431,
2,0,0,1,0,20900.8,0.200732,0.200407,-16.6752,11,0.0179322,10,-0.00334183,-1.77793,-0.190406,-0.309864,200.176,0.200407,
2,0,0,1,0,20900.8,0.186735,0.186402,-19.3005,11,0.0176798,10,-0.00359765,-1.71443,-0.249109,-0.236844,177.676,0.186402,
2,0,0,1,0,20900.8,0.172716,0.17238,-21.689,11,0.0173924,10,-0.00373875,-1.66376,-0.300181,-0.196548,166.114,0.1723799,
2,0,0,1,0,20900.9,0.158733,0.158419,-24.0512,11,0.0170722,10,-0.00381016,-1.61886,-0.308353,-0.191339,179.907,0.158419,
2,0,0,1,0,20900.9,0.144719,0.144404,-26.8382,11,0.0167164,10,-0.00387555,-1.57125,-0.275634,-0.214052,224.975,0.144404,
2,0,0,1,0,20900.9,0.130717,0.130456,-30.4337,11,0.0163162,10,-0.00397024,-1.51665,-0.237395,-0.248531,296.503,0.130456,
2,0,0,1,0,20900.9,0.116733,0.116436,-35.1904,11,0.0158578,10,-0.00409743,-1.45358,-0.213494,-0.276355,380.295,0.116436,
2,0,0,1,0,20900.9,0.102703,0.102462,-40.9065,11,0.0153254,10,-0.00419136,-1.38821,-0.224207,-0.26315,419.236,0.102462,
2,0,0,1,0,20900.9,0.0887173,0.0884148,-46.7288,11,0.0147112,10,-0.00413152,-1.33042,-0.266924,-0.221037,401.638,0.0884148,
2,0,0,1,0,20900.9,0.0747341,0.0745012,-52.0028,11,0.0140186,10,-0.00387427,-1.28397,-0.338352,-0.174375,352.771,0.0745012,
2,0,0,1,0,20901,0.0607011,0.0604826,-56.5893,11,0.0132576,10,-0.00342267,-1.24727,-0.443893,-0.132915,292.257,0.0604826,
2,0,0,1,0,20901,0.046718,0.0465054,-60.06,11,0.0124393,10,-0.00279311,-1.22141,-0.655493,-0.0900085,210.389,0.0465054,
2,0,0,1,0,20901,0.0327349,0.0325017,-62.5547,11,0.0115798,10,-0.00203313,-1.20374,-0.999877,-0.0590073,143.637,0.0325017,
2,0,0,1,0,20901,0.0187018,0.0183622,-64.1473,11,0.010692,10,-0.00117789,-1.19282,-1.73069,-0.0340904,85.1594,0.01836222,
2,0,0,1,0,20901,0.00471873,0.00440833,-64.9696,11,0.00978732,10,-0.000286407,-1.18729,-3.67206,-0.0160673,40.7038,0.00440833,
2,0,0,1,0,20901,-0.00926438,-0.009606,-65.3035,11,0.00887454,10,0.000627305,-1.18506,-69.2821,-0.000851591,2.16747,-0.009606,
2,0,0,1,0,20901,-0.0232974,-0.023684,-65.1278,11,0.00796117,10,0.00154249,-1.18623,4.79291,0.0123099,-31.2306,-0.023684,
2,0,0,1,0,20901,-0.0372805,-0.037657,-64.3479,11,0.00705428,10,0.00242315,-1.19147,2.01835,0.0292319,-73.3221,-0.037657,
2,0,0,1,0,20901.1,-0.0512636,-0.0516437,-63.1193,11,0.00616181,10,0.00325971,-1.19984,1.45837,0.0404561,-99.5603,-0.0516437,
2,0,0,1,0,20901.1,-0.0652967,-0.065657,-61.6955,11,0.00528846,10,0.00405074,-1.20975,1.39698,0.0422341,-101.652,-0.065657,
2,0,0,1,0,20901.1,-0.0792798,-0.0796448,-60.2811,11,0.00443495,10,0.00480108,-1.21982,1.51891,0.0388438,-91.4762,-0.0796448,
2,0,0,1,0,20901.1,-0.0932629,-0.0935924,-59.2001,11,0.00359908,10,0.00554068,-1.22768,2.10729,0.027998,-64.7484,-0.0935924,
2,0,0,1,0,20901.1,-0.107296,-0.107666,-58.5403,11,0.00277567,10,0.0063028,-1.23255,4.01363,0.0146999,-33.5966,-0.107666,
2,0,0,1,0,20901.1,-0.121279,-0.121617,-58.1902,11,0.00195905,10,0.0070769,-1.23515,11.7988,0.0050005,-11.3686,-0.121617,
2,0,0,1,0,20901.1,-0.135262,-0.13561,-58.2051,11,0.00114456,10,0.00789319,-1.23504,-12.1274,-0.00486504,11.0619,-0.13561,
2,0,0,1,0,20901.2,-0.149295,-0.149651,-58.556,11,0.000327558,10,0.00876294,-1.23243,-4.36458,-0.0135179,30.889,-0.149651,
2,0,0,1,0,20901.2,-0.163278,-0.163598,-59.0269,11,-0.000495332,10,0.00965669,-1.22895,-3.33348,-0.0176992,40.7915,-0.163598,
2,0,0,1,0,20901.2,-0.177261,-0.177625,-59.6404,11,-0.00132604,10,0.0105936,-1.22446,-2.89393,-0.0203875,47.4727,-0.177625,
2,0,0,1,0,20901.2,-0.191295,-0.191648,-60.4002,11,-0.0021662,10,0.0115756,-1.21896,-2.57215,-0.0229381,54.0325,-0.1916482,
2,0,0,0,1,20901.2,-0.199984,-0.200437,-60.5072,11,-0.00272988,10,0.0121279,-1.21819,-0.0397867,-1.48291,3091.87,-0.2004368,
2,0,0,1,1,20901.2,-0.186686,-0.187102,-38.7812,11,-0.00335776,10,0.00725605,-1.41138,-0.0739342,-0.798007,1220.32,-0.187102,
2,0,0,1,1,20901.2,-0.172667,-0.173107,-24.6428,11,-0.0037949,10,0.00426585,-1.60831,-0.0647779,-0.910804,870.403,-0.173107,
2,0,0,1,1,20901.3,-0.158684,-0.159121,-13.7952,11,-0.00406014,10,0.00219511,-1.86027,-0.0438296,-1.34612,700.476,-0.159121,
2,0,0,1,1,20901.3,-0.14467,-0.145109,-4.83515,11,-0.00418815,10,0.000701624,-2.31559,-0.0110366,-5.34587,590.017,-0.145109,
2,1,0,1,1,20901.3,-0.130668,-0.13116,2.76314,11,-0.0042005,10,-0.000362414,-2.5586,0.0238972,2.46891,506.226,-0.13116,
2,1,0,1,1,20901.3,-0.116685,-0.117185,9.39458,11,-0.00411379,10,-0.00110091,-2.02712,0.0452691,1.30332,447.898,-0.117185,
2,1,0,1,1,20901.3,-0.102654,-0.103153,15.3976,11,-0.00393927,10,-0.00158831,-1.81255,0.0860785,0.685421,402.008,-0.103153,
2,1,0,1,1,20901.3,-0.0886685,-0.0891143,20.7117,11,-0.00368533,10,-0.00184571,-1.68378,0.130652,0.451583,361.141,-0.0891143,
2,1,0,1,1,20901.3,-0.0746854,-0.0750755,25.4959,11,-0.00336072,10,-0.00191412,-1.59353,0.179519,0.328656,324.951,-0.07507553,
2,1,0,1,1,20901.4,-0.0606523,-0.061058,29.8871,11,-0.00297249,10,-0.00182485,-1.52452,0.232896,0.253332,293.595,-0.061058,
2,1,0,1,1,20901.4,-0.0466692,-0.0471211,33.7331,11,-0.00252651,10,-0.00158954,-1.47194,0.295155,0.199895,262.231,-0.0471211,
2,1,0,1,1,20901.4,-0.0326861,-0.0331078,37.177,11,-0.00202934,10,-0.00123085,-1.42973,0.368802,0.159978,231.515,-0.0331078,
2,1,0,1,1,20901.4,-0.018653,-0.019085,40.2709,11,-0.00148668,10,-0.000768569,-1.39501,0.453765,0.130023,203.702,-0.019085,
2,1,0,1,1,20901.4,-0.00466992,-0.00508231,42.8745,11,-0.000904054,10,-0.000217901,-1.3678, , , ,-0.00508231,
2,1,0,0,1,20901.4,-0.000175352,-0.000611633,43.6272,11,-0.00070938,10,-2.66838e-05,-1.36024, , , ,-0.000611633,