File: Figure_codes/Fig_3-5/rawdata_trumpetplot_data/after 10th/20221101_1-115_003_TrumpetPlot_ParaChange_from10_every3_10_CV_C01_13.csv
mode,ox/red,error,control changes,counter inc.,time/s,control/V,Ewe/V,<I>/mA,cycle number,(Q-Qo)/C,I Range,P/W,log(|I|),Tafel slope mV/dec,alpha_eff,dI/d(E-IR),E-IR/V,
2,1,0,0,0,26802.2,-2.44065e-05,-0.000287149,5.2897,14,0.0000000E+000,10,-1.51893e-06,-2.27657, , , ,-0.0002871489,
2,1,0,1,0,26802.3,0.00977853,0.00945085,8.09851,14,0.000341654,10,7.65378e-05,-2.09159,0.116175,0.507854,159.801,0.00945085,
2,1,0,1,0,26802.3,0.0197755,0.019424,9.27881,14,0.000779214,10,0.000180231,-2.03251,0.242866,0.242933,87.968,0.019424,
2,1,0,1,0,26802.4,0.0297726,0.0294787,10.06,14,0.00126355,10,0.000296554,-1.9974,0.342817,0.172103,67.4653,0.0294787,
2,1,0,1,0,26802.4,0.0397514,0.0394041,10.718,14,0.00178214,10,0.000422332,-1.96989,0.349025,0.169042,70.7896,0.0394041,
2,1,0,1,0,26802.5,0.0497393,0.0494171,11.4162,14,0.00233426,10,0.000564155,-1.94248,0.379231,0.155578,69.2134,0.0494171,
2,1,0,1,0,26802.5,0.0597364,0.0594171,12.1181,14,0.0029223,10,0.000720022,-1.91657,0.371817,0.15868,75.0793,0.05941711,
2,1,0,1,0,26802.6,0.0697152,0.0693458,12.8504,14,0.00354559,10,0.00089112,-1.89108,0.421569,0.139953,70.174,0.0693458,
2,1,0,1,0,26802.6,0.0796941,0.0793365,13.5716,14,0.00420479,10,0.00107672,-1.86737,0.435078,0.135608,71.8452,0.0793365,
2,1,0,1,0,26802.7,0.0896911,0.0893365,14.2421,14,0.00490065,10,0.00127234,-1.84643,0.510099,0.115664,64.2764,0.0893365,
2,1,0,1,0,26802.7,0.099679,0.0993908,14.8757,14,0.00562703,10,0.0014785,-1.82752,0.53824,0.109617,63.6086,0.09939079,
2,1,0,1,0,26802.8,0.109658,0.109365,15.5865,14,0.00638604,10,0.00170461,-1.80725,0.439498,0.134244,81.6604,0.109365,
2,1,0,1,0,26802.8,0.119655,0.119323,16.5381,14,0.00718825,10,0.00197337,-1.78151,0.364199,0.162,104.64,0.119323,
2,1,0,1,0,26802.9,0.129652,0.129317,17.6793,14,0.00804371,10,0.00228625,-1.75253,0.351454,0.167874,115.738,0.129317,
2,1,0,1,0,26802.9,0.139631,0.139362,18.7109,14,0.00895287,10,0.00260759,-1.7279,0.460115,0.128229,93.704,0.139362,
2,1,0,1,0,26803,0.149619,0.14929,19.5112,14,0.00990788,10,0.00291283,-1.70972,0.766646,0.0769586,58.5061,0.14929,
2,1,0,1,0,26803,0.159616,0.159301,19.7046,14,0.0108918,10,0.00313896,-1.70543,-1.34567,-0.0438445,-33.7023,0.159301,
2,1,0,1,0,26803.1,0.169595,0.169249,18.6586,14,0.0118554,10,0.00315795,-1.72912,-0.227028,-0.25988,-188.724,0.169249,
2,1,0,1,0,26803.1,0.179573,0.179261,16.1179,14,0.012727,10,0.00288931,-1.79269,-0.129387,-0.455996,-286.892,0.179261,
2,1,0,1,0,26803.2,0.18957,0.189251,13.3657,14,0.0134618,10,0.00252947,-1.87401,-0.127242,-0.463683,-241.913,0.1892508,
2,1,0,1,0,26803.2,0.199558,0.19924,11.3686,14,0.0140749,10,0.00226508,-1.94429,-0.170731,-0.345573,-153.491,0.19924,
2,1,0,1,0,26803.3,0.209537,0.209189,10.1303,14,0.0146085,10,0.00211914,-1.99438,-0.229562,-0.257011,-101.645,0.209189,
2,1,0,1,0,26803.3,0.219534,0.219258,9.32638,14,0.0150933,10,0.00204488,-2.03029,-0.349681,-0.168725,-61.5029,0.219258,
2,1,0,1,0,26803.4,0.229531,0.229237,8.80119,14,0.015546,10,0.00201756,-2.05546,-0.463885,-0.127187,-43.7093,0.229237,
2,1,0,1,0,26803.4,0.23951,0.239189,8.43496,14,0.0159757,10,0.00201755,-2.07392,-0.647494,-0.0911205,-30.031,0.239189,
2,1,0,1,0,26803.5,0.249498,0.249197,8.17424,14,0.0163897,10,0.002037,-2.08755,-0.755996,-0.0780427,-24.869,0.249197,
2,1,0,1,0,26803.5,0.259495,0.259184,7.9564,14,0.0167925,10,0.00206217,-2.09928,-0.895172,-0.0659091,-20.4728,0.259184,
2,1,0,1,0,26803.6,0.269474,0.269161,7.78826,14,0.0171851,10,0.0020963,-2.10856,-1.10768,-0.0532646,-16.1853,0.269161,
2,1,0,1,0,26803.6,0.279453,0.279123,7.63594,14,0.0175699,10,0.00213137,-2.11714,-1.26221,-0.0467434,-13.9437,0.2791234,
2,1,0,1,0,26803.7,0.28945,0.289164,7.50827,14,0.0179485,10,0.00217112,-2.12446,-1.81196,-0.0325614,-9.53413,0.289164,
2,1,0,1,0,26803.7,0.299438,0.29917,7.38186,14,0.01832,10,0.00220843,-2.13183,-0.0575865,-1.02455,-283.007,0.29917,
2,1,0,1,0,26803.8,0.291747,0.291427,0.053615,14,0.0184523,10,1.56249e-05,-4.27071,0.02337,2.5246,406.854,0.291427,
2,0,0,1,0,26803.8,0.28175,0.28141,-2.30992,14,0.0183854,10,-0.000650034,-2.6364,-0.03698,-1.59546,141.384,0.28141,
2,0,0,1,0,26803.9,0.27178,0.271464,-3.30481,14,0.0182428,10,-0.000897137,-2.48085,-0.100263,-0.58845,75.6217,0.2714642,
2,0,0,1,0,26803.9,0.261783,0.261444,-3.89363,14,0.0180618,10,-0.00101797,-2.40965,-0.192867,-0.30591,46.4579,0.261444,
2,0,0,1,0,26804,0.251786,0.25144,-4.3225,14,0.0178558,10,-0.00108685,-2.36426,-0.270374,-0.218216,36.7447,0.25144,
2,0,0,1,0,26804,0.241807,0.241493,-4.65496,14,0.0176315,10,-0.00112414,-2.33208,-0.335338,-0.175942,32.0559,0.241493,
2,0,0,1,0,26804.1,0.231824,0.231484,-4.96177,14,0.0173914,10,-0.00114857,-2.30436,-0.386015,-0.152844,29.5316,0.231484,
2,0,0,1,0,26804.1,0.221822,0.221488,-5.21433,14,0.0171368,10,-0.00115491,-2.2828,-0.454189,-0.129902,26.4915,0.221488,
2,0,0,1,0,26804.2,0.211844,0.211524,-5.4846,14,0.0168698,10,-0.00116012,-2.26086,-0.554996,-0.106307,22.702,0.211524,
2,0,0,1,0,26804.2,0.201865,0.201563,-5.72899,14,0.0165901,10,-0.00115475,-2.24192,-0.530349,-0.111248,24.913,0.201563,
2,0,0,1,0,26804.3,0.191868,0.191549,-5.99913,14,0.016297,10,-0.00114913,-2.22191,-0.466955,-0.12635,29.5611,0.191549,
2,0,0,1,0,26804.3,0.18188,0.18159,-6.2997,14,0.0159906,10,-0.00114396,-2.20068,-0.417442,-0.141337,34.7199,0.18159,
2,0,0,1,0,26804.4,0.171901,0.171615,-6.65464,14,0.0156679,10,-0.00114204,-2.17688,-0.37535,-0.157186,40.7586,0.171615,
2,0,0,1,0,26804.4,0.161904,0.16158,-7.11913,14,0.0153241,10,-0.00115031,-2.14757,-0.292044,-0.202024,56.25,0.16158,
2,0,0,1,0,26804.5,0.151907,0.151618,-7.83585,14,0.014951,10,-0.00118805,-2.10591,-0.205344,-0.287323,88.0272,0.151618,
2,0,0,1,0,26804.5,0.141928,0.141594,-9.01885,14,0.0145328,10,-0.00127701,-2.04485,-0.139433,-0.423142,149.137,0.141594,
2,0,0,1,0,26804.6,0.13194,0.131624,-10.8632,14,0.0140395,10,-0.00142985,-1.96404,-0.11614,-0.508007,215.233,0.131624,
2,0,0,1,0,26804.6,0.121943,0.121637,-13.0991,14,0.0134404,10,-0.00159333,-1.88276,-0.134209,-0.439613,225.065,0.121637,
2,0,0,1,0,26804.7,0.111964,0.111628,-15.2792,14,0.0127302,10,-0.00170559,-1.8159,-0.178,-0.331461,197.452,0.111628,
2,0,0,1,0,26804.7,0.101985,0.101681,-16.9832,14,0.011923,10,-0.00172686,-1.76998,-0.272812,-0.216266,143.212,0.101681,
2,0,0,1,0,26804.8,0.0919883,0.0916868,-18.1143,14,0.0110427,10,-0.00166084,-1.74198,-0.505421,-0.116734,82.4729,0.0916868,
2,0,0,1,0,26804.8,0.0820004,0.0816587,-18.5367,14,0.0101248,10,-0.00151368,-1.73197,-7.37447,-0.00800058,5.78432,0.0816587,
2,0,0,1,0,26804.9,0.0720215,0.0717215,-18.2828,14,0.00920406,10,-0.00131127,-1.73796,0.845338,0.0697946,-49.7607,0.0717215,
2,0,0,1,0,26804.9,0.0620245,0.0616538,-17.6991,14,0.00830431,10,-0.00109121,-1.75205,0.660545,0.0893202,-61.7374,0.0616538,
2,0,0,1,0,26805,0.0520275,0.0517275,-17.1665,14,0.00743287,10,-0.000887979,-1.76532,0.744528,0.0792448,-53.0628,0.0517275,
2,0,0,1,0,26805,0.0420486,0.0417113,-16.6751,14,0.0065884,10,-0.000695541,-1.77793,0.844684,0.0698486,-45.5029,0.0417113,
2,0,0,1,0,26805.1,0.0320607,0.0317622,-16.2033,14,0.00576765,10,-0.000514651,-1.7904,0.735297,0.0802396,-50.6992,0.0317622,
2,0,0,1,0,26805.1,0.0220637,0.0217483,-15.6119,14,0.00497174,10,-0.000339532,-1.80654,0.561397,0.105095,-64.0795,0.0217483,
2,0,0,1,0,26805.2,0.0120848,0.0117355,-14.9182,14,0.00420937,10,-0.000175072,-1.82628,0.427649,0.137964,-80.2476,0.0117355,
2,0,0,1,0,26805.2,0.00210598,0.0016962,-14.1642,14,0.00348522,10,-2.40253e-05,-1.84881,0.465896,0.126638,-69.889,0.0016962,
2,0,0,1,0,26805.3,-0.00789103,-0.00821099,-13.4245,14,0.00279636,10,0.000110228,-1.8721,0.510897,0.115483,-60.5186,-0.00821099,
2,0,0,1,0,26805.3,-0.017879,-0.0182762,-12.9463,14,0.00213935,10,0.000236609,-1.88785,0.867388,0.0680203,-34.3788,-0.0182762,
2,0,0,1,0,26805.4,-0.0278578,-0.0282275,-12.7011,14,0.00150053,10,0.000358521,-1.89616,1.98773,0.0296821,-14.7128,-0.0282275,
2,0,0,1,0,26805.4,-0.0378549,-0.0382362,-12.6538,14,0.0008674,10,0.000483832,-1.89778,-16.9767,-0.00347535,1.71714,-0.0382362,
2,0,0,1,0,26805.5,-0.0478519,-0.0482067,-12.7654,14,0.000232284,10,0.000615378,-1.89397,-1.39768,-0.0422129,21.039,-0.0482067,
2,0,0,1,0,26805.5,-0.0578126,-0.0581981,-12.9939,14,-0.00040902,10,0.000756223,-1.88626,-1.10096,-0.0535895,27.2076,-0.0581981,
2,0,0,1,0,26805.6,-0.0678187,-0.0682068,-13.3375,14,-0.00106694,10,0.000909707,-1.87493,-0.793006,-0.0744004,38.6866,-0.0682068,
2,0,0,1,0,26805.6,-0.0778157,-0.0781704,-13.7433,14,-0.00174374,10,0.00107432,-1.86191,-0.699368,-0.0843618,45.3082,-0.0781704,
2,0,0,1,0,26805.7,-0.0877945,-0.0881573,-14.291,14,-0.0024429,10,0.00125986,-1.84494,-0.562935,-0.104808,58.417,-0.0881573,
2,0,0,1,0,26805.7,-0.0977734,-0.0981314,-14.885,14,-0.00317065,10,0.00146069,-1.82725,-0.501677,-0.117606,68.4309,-0.0981314,
2,0,0,1,1,26805.7,-0.0936874,-0.0940942,-6.54335,14,-0.00365436,10,0.000615691,-2.1842,-0.0167266,-3.52732,898.263,-0.0940942,
2,0,0,1,1,26805.8,-0.0837086,-0.0841022,-0.0672889,14,-0.00380182,10,5.65914e-06,-4.17206,-0.041681,-1.41551,482.487,-0.0841022,
2,1,0,1,1,26805.8,-0.0737025,-0.0740501,3.75912,14,-0.00370152,10,-0.000278364,-2.42491,0.0278782,2.11635,305.461,-0.0740501,
2,1,0,1,1,26805.9,-0.0637236,-0.064104,6.22732,14,-0.00344787,10,-0.000399196,-2.2057,0.0725039,0.813749,197.004,-0.064104,
2,1,0,1,1,26805.9,-0.0537448,-0.0540839,7.8517,14,-0.00309351,10,-0.000424651,-2.10504,0.143096,0.41231,126.096,-0.05408391,
2,1,0,1,1,26806,-0.0437477,-0.0441238,8.90494,14,-0.00267242,10,-0.00039292,-2.05037,0.245403,0.240421,83.5152,-0.0441238,
2,1,0,1,1,26806,-0.0337507,-0.034096,9.57906,14,-0.00220859,10,-0.000326608,-2.01868,0.434437,0.135808,50.7761,-0.03409601,
2,1,0,1,1,26806.1,-0.0237809,-0.024148,9.97403,14,-0.00172069,10,-0.000240853,-2.00113,0.729261,0.0809038,31.4706,-0.024148,
2,1,0,1,1,26806.1,-0.0137839,-0.014155,10.1821,14,-0.00121609,10,-0.000144127,-1.99216,2.13738,0.0276039,10.9665,-0.014155,
2,1,0,1,1,26806.2,-0.0037869,-0.00414886,10.2732,14,-0.00070441,10,-4.2622e-05,-1.9883,5.10436,0.0115587,4.63318,-0.00414886,
2,1,0,1,1,26806.2,-2.55332e-05,-0.00042076,10.2667,14,-0.00051215,10,-4.3198e-06,-1.98857, , , ,-0.00042076,