File: Figure_codes/Fig_3-5/rawdata_trumpetplot_data/after 10th/20221101_1-115_003_TrumpetPlot_ParaChange_from10_every3_05_CV_C01_3.csv
mode,ox/red,error,control changes,counter inc.,time/s,control/V,Ewe/V,<I>/mA,cycle number,(Q-Qo)/C,I Range,P/W,log(|I|),Tafel slope mV/dec,alpha_eff,dI/d(E-IR),E-IR/V,
2,0,0,1,0,7030.41,2.44065e-05,-0.000306236,-0.727794,4,0.0000000E+000,10,2.22877e-07,-3.13799, , , ,-0.000306236,
2,1,0,1,0,7030.77,0.00729063,0.0069999,0.76523,4,0.00019523,10,5.35654e-06,-3.11621,0.0719134,0.820431,24.2811,0.0069999,
2,1,0,1,0,7031.15,0.0147802,0.0144486,0.89532,4,0.000514952,10,1.29361e-05,-3.04802,0.127634,0.46226,16.1374,0.0144486,
2,1,0,1,0,7031.52,0.0222725,0.0219496,0.996369,4,0.000876423,10,2.18699e-05,-3.00158,0.18038,0.327087,12.6698,0.0219496,
2,1,0,1,0,7031.9,0.0297644,0.02948,1.08909,4,0.00127375,10,3.21063e-05,-2.96294,0.199967,0.295049,12.5515,0.02948,
2,1,0,1,0,7032.27,0.0372544,0.0369573,1.19073,4,0.00170754,10,4.40063e-05,-2.92419,0.209244,0.281968,13.0848,0.0369573,
2,1,0,1,0,7032.64,0.0447449,0.0443852,1.29149,4,0.0021795,10,5.73229e-05,-2.88891,0.223567,0.263902,13.3002,0.0443852,
2,1,0,1,0,7033.02,0.0522363,0.0519329,1.39005,4,0.00268904,10,7.21893e-05,-2.85697,0.225372,0.261789,14.1869,0.0519329,
2,1,0,1,0,7033.39,0.0597291,0.0594325,1.48527,4,0.00323455,10,8.82734e-05,-2.82819,0.264216,0.223302,12.9277,0.0594325,
2,1,0,1,0,7033.77,0.0672182,0.0668968,1.57225,4,0.0038135,10,0.000105179,-2.80348,0.329398,0.179115,10.9595,0.0668968,
2,1,0,1,0,7034.14,0.0747092,0.0744069,1.64873,4,0.00442352,10,0.000122677,-2.78285,0.454941,0.129687,8.33672,0.0744069,
2,1,0,1,0,7034.52,0.0822001,0.0819407,1.71666,4,0.00506173,10,0.000140664,-2.76532,0.413906,0.142544,9.57711,0.0819407,
2,1,0,1,0,7034.89,0.0896911,0.0893523,1.80217,4,0.00572754,10,0.000161028,-2.7442,0.321498,0.183516,12.9379,0.0893523,
2,1,0,1,0,7035.27,0.097182,0.0968948,1.91933,4,0.00643061,10,0.000185973,-2.71685,0.215131,0.274252,20.5688,0.0968948,
2,1,0,1,0,7035.64,0.104673,0.104371,2.09225,4,0.00718779,10,0.00021837,-2.67939,0.188951,0.312251,25.4563,0.104371,
2,1,0,1,0,7036.02,0.112164,0.111842,2.27468,4,0.00801325,10,0.000254406,-2.64308,0.240615,0.245205,21.7094,0.111842,
2,1,0,1,0,7036.39,0.119655,0.119354,2.41929,4,0.00890028,10,0.000288754,-2.61631,0.377973,0.156096,14.7246,0.119354,
2,1,0,1,0,7036.76,0.127146,0.126861,2.52621,4,0.00983411,10,0.000320479,-2.59753,0.390222,0.151196,14.9239,0.126861,
2,1,0,1,0,7037.14,0.134637,0.13432,2.62459,4,0.010809,10,0.000352535,-2.58094,0.948603,0.0621967,6.36668,0.13432,
2,1,0,1,0,7037.51,0.142128,0.141815,2.56748,4,0.0117969,10,0.000364107,-2.59049,-0.23676,-0.249198,-24.8336,0.141815,
2,1,0,1,0,7037.89,0.149619,0.149348,2.21322,4,0.0127068,10,0.000330541,-2.65497,-0.0845654,-0.697684,-60.0458,0.149348,
2,1,0,1,0,7038.26,0.157108,0.156796,1.76027,4,0.0134553,10,0.000276005,-2.75442,-0.0752304,-0.784258,-53.9267,0.156796,
2,1,0,1,0,7038.64,0.164601,0.164299,1.45192,4,0.0140592,10,0.000238548,-2.83806,-0.10022,-0.588704,-33.3971,0.164299,
2,1,0,1,0,7039.01,0.172092,0.171789,1.2657,4,0.0145726,10,0.000217433,-2.89767,-0.156951,-0.375913,-18.6321,0.171789,
2,1,0,1,0,7039.39,0.179582,0.179203,1.15643,4,0.0150317,10,0.000207235,-2.93688,-0.228388,-0.258333,-11.7085,0.179203,
2,1,0,1,0,7039.76,0.187073,0.186784,1.08975,4,0.0154585,10,0.000203549,-2.96267,-0.455408,-0.129554,-5.50036,0.186784,
2,1,0,1,0,7040.14,0.194564,0.194237,1.0488,4,0.0158653,10,0.000203716,-2.97931,-0.508201,-0.116096,-4.74791,0.194237,
2,1,0,1,0,7040.51,0.202057,0.201744,1.02245,4,0.0162589,10,0.000206273,-2.99036,-0.738213,-0.0799227,-3.17216,0.201744,
2,1,0,1,0,7040.88,0.209546,0.209226,0.995845,4,0.0166433,10,0.000208356,-3.00181,-0.684883,-0.0861461,-3.356,0.2092257,
2,1,0,1,0,7041.26,0.217037,0.216727,0.97671,4,0.01702,10,0.000211679,-3.01023,-1.00021,-0.0589878,-2.25594,0.216727,
2,1,0,1,0,7041.63,0.224528,0.224214,0.964238,4,0.0173912,10,0.000216196,-3.01582,-1.02576,-0.0575183,-2.16232,0.224214,
2,1,0,1,0,7042.01,0.232019,0.231751,0.954557,4,0.0177571,10,0.00022122,-3.0202,-1.65503,-0.035649,-1.32541,0.231751,
2,1,0,1,0,7042.38,0.23951,0.23923,0.942327,4,0.0181188,10,0.000225433,-3.0258,-1.91602,-0.030793,-1.1304,0.23923,
2,1,0,1,0,7042.76,0.247001,0.246706,0.933208,4,0.0184765,10,0.000230228,-3.03002,-1.10042,-0.0536158,-1.94631,0.246706,
2,1,0,1,0,7043.13,0.254492,0.254162,0.921794,4,0.0188306,10,0.000234284,-3.03537,-2.11331,-0.0279183,-1.0059,0.254162,
2,1,0,1,0,7043.51,0.261983,0.26168,0.913497,4,0.0191811,10,0.000239044,-3.03929,-3.22822,-0.0182763,-0.650523,0.26168,
2,1,0,1,0,7043.88,0.269474,0.269189,0.902302,4,0.0195284,10,0.00024289,-3.04465,-3.83551,-0.0153826,-0.541872,0.269189,
2,1,0,1,0,7044.26,0.276965,0.276684,0.894181,4,0.0198723,10,0.000247406,-3.04857,-1.57582,-0.0374409,-1.30665,0.276684,
2,1,0,1,0,7044.63,0.284456,0.28415,0.885541,4,0.0202128,10,0.000251626,-3.05279,-1.55602,-0.0379173,-1.31085,0.28415,
2,1,0,1,0,7045,0.291947,0.291648,0.875402,4,0.0205496,10,0.000255309,-3.05779,-0.882417,-0.0668618,-2.28642,0.291648,
2,1,0,1,0,7045.38,0.299436,0.29913,0.86306,4,0.0208829,10,0.000258167,-3.06396,-0.00187439,-31.4769,-429.179,0.29913,
2,0,0,1,0,7045.72,0.293745,0.293374,-0.225615,4,0.0208765,10,-6.61895e-05,-3.64663,-0.0260113,-2.26825,19.1657,0.293374,
2,0,0,1,0,7046.1,0.286254,0.285944,-0.319848,4,0.020765,10,-9.14586e-05,-3.49506,-0.0707141,-0.834345,10.4691,0.285944,
2,0,0,1,0,7046.47,0.278763,0.278455,-0.384178,4,0.0206251,10,-0.000106976,-3.41547,-0.111669,-0.528346,7.87278,0.278455,
2,0,0,1,0,7046.85,0.271272,0.270963,-0.430395,4,0.0204657,10,-0.000116621,-3.36613,-0.157187,-0.375348,6.25435,0.270963,
2,0,0,1,0,7047.22,0.263781,0.2635,-0.469019,4,0.0202902,10,-0.000123586,-3.32881,-0.213561,-0.276268,5.0668,0.2635,
2,0,0,1,0,7047.59,0.25629,0.25597,-0.505563,4,0.0201013,10,-0.000129409,-3.29622,-0.335206,-0.176011,3.44182,0.25597,
2,0,0,1,0,7047.97,0.248799,0.248483,-0.532682,4,0.0199003,10,-0.000132362,-3.27353,-0.32999,-0.178794,3.70902,0.2484832,
2,0,0,1,0,7048.34,0.241308,0.241,-0.559329,4,0.0196883,10,-0.000134798,-3.25233,-0.312291,-0.188926,4.14519,0.241,
2,0,0,1,0,7048.72,0.233817,0.23344,-0.589899,4,0.0194657,10,-0.000137706,-3.22922,-0.313034,-0.188478,4.33156,0.23344,
2,0,0,1,0,7049.09,0.226326,0.226059,-0.614801,4,0.0192328,10,-0.000138981,-3.21127,-0.500995,-0.117766,2.83651,0.226059,
2,0,0,1,0,7049.47,0.218835,0.218542,-0.643007,4,0.0189899,10,-0.000140524,-3.19178,-0.357072,-0.165233,4.14835,0.218542,
2,0,0,1,0,7049.84,0.211344,0.211036,-0.668115,4,0.0187369,10,-0.000140996,-3.17515,-0.668938,-0.0881995,2.30514,0.211036,
2,0,0,1,0,7050.22,0.203855,0.203564,-0.697219,4,0.0184728,10,-0.000141929,-3.15663,-0.362266,-0.162864,4.46669,0.203564,
2,0,0,1,0,7050.59,0.196362,0.196056,-0.733704,4,0.0181975,10,-0.000143847,-3.13448,-0.293027,-0.201346,5.75515,0.196056,
2,0,0,1,0,7050.97,0.188871,0.188541,-0.770295,4,0.0179086,10,-0.000145232,-3.11334,-0.268185,-0.219997,6.61677,0.1885408,
2,0,0,1,0,7051.34,0.18138,0.181068,-0.820578,4,0.0176041,10,-0.00014858,-3.08588,-0.259439,-0.227414,7.27213,0.181068,
2,0,0,1,0,7051.71,0.173891,0.173554,-0.884138,4,0.0172795,10,-0.000153446,-3.05348,-0.191224,-0.308538,10.5978,0.173554,
2,0,0,1,0,7052.09,0.166398,0.166031,-0.967523,4,0.0169276,10,-0.000160639,-3.01434,-0.163088,-0.361768,13.6688,0.166031,
2,0,0,1,0,7052.46,0.158906,0.158577,-1.09472,4,0.0165354,10,-0.000173598,-2.9607,-0.108443,-0.544062,23.3654,0.158577,
2,0,0,1,0,7052.84,0.151417,0.151121,-1.31466,4,0.0160793,10,-0.000198673,-2.88119,-0.0848737,-0.695151,35.772,0.151121,
2,0,0,1,0,7053.21,0.143926,0.143621,-1.69261,4,0.0155144,10,-0.000243093,-2.77144,-0.0768287,-0.767942,51.0256,0.143621,
2,0,0,1,0,7053.59,0.136435,0.136115,-2.12196,4,0.0147939,10,-0.000288831,-2.67326,-0.0844663,-0.698503,57.6584,0.136115,
2,0,0,1,0,7053.96,0.128942,0.128602,-2.49739,4,0.0139171,10,-0.000321169,-2.60251,-0.149364,-0.395008,38.2808,0.128602,
2,0,0,1,0,7054.34,0.121453,0.121111,-2.6901,4,0.0129331,10,-0.000325802,-2.57023,-0.498782,-0.118288,12.3794,0.121111,
2,0,0,1,0,7054.71,0.113962,0.113657,-2.70451,4,0.0119109,10,-0.000307387,-2.56791,0.892597,0.0660993,-6.97162,0.1136575,
2,0,0,1,0,7055.09,0.106471,0.106186,-2.60855,4,0.0109049,10,-0.000276992,-2.5836,0.379422,0.1555,-15.868,0.106186,
2,0,0,1,0,7055.46,0.0989799,0.0986816,-2.46407,4,0.00994564,10,-0.000243158,-2.60835,0.28969,0.203666,-19.5604,0.0986816,
2,0,0,1,0,7055.83,0.0914889,0.0912112,-2.31573,4,0.00904487,10,-0.00021122,-2.63531,0.286579,0.205877,-18.591,0.0912112,
2,0,0,1,0,7056.21,0.083998,0.0836794,-2.18893,4,0.00819605,10,-0.000183169,-2.65977,0.324036,0.182079,-15.5506,0.0836794,
2,0,0,1,0,7056.58,0.076507,0.0761809,-2.09993,4,0.00738645,10,-0.000159974,-2.6778,0.454006,0.129954,-10.6405,0.0761809,
2,0,0,1,0,7056.96,0.0690161,0.068725,-2.02071,4,0.00660715,10,-0.000138873,-2.6945,0.473707,0.12455,-9.84198,0.06872499,
2,0,0,1,0,7057.33,0.0615251,0.0612163,-1.95514,4,0.00585402,10,-0.000119686,-2.70882,0.433952,0.13596,-10.3927,0.0612163,
2,0,0,1,0,7057.71,0.0540342,0.0536833,-1.88245,4,0.00512785,10,-0.000101056,-2.72528,0.447427,0.131865,-9.69883,0.0536833,
2,0,0,1,0,7058.08,0.0465432,0.0462795,-1.8023,4,0.0044294,10,-8.34095e-05,-2.74417,0.404278,0.145939,-10.275,0.0462795,
2,0,0,1,0,7058.46,0.0390523,0.0387171,-1.71969,4,0.00376214,10,-6.65816e-05,-2.76455,0.304469,0.19378,-12.9677,0.03871711,
2,0,0,1,0,7058.83,0.0315626,0.0312581,-1.63648,4,0.00312694,10,-5.11533e-05,-2.78609,0.334697,0.176279,-11.2536,0.03125805,
2,0,0,1,0,7059.21,0.0240704,0.0237811,-1.55503,4,0.00252178,10,-3.69804e-05,-2.80826,0.386892,0.152497,-9.30632,0.0237811,
2,0,0,1,0,7059.58,0.0165785,0.0162751,-1.50234,4,0.00194101,10,-2.44508e-05,-2.82323,0.631837,0.0933785,-5.4908,0.0162751,
2,0,0,1,0,7059.95,0.00908846,0.00880669,-1.47096,4,0.00137696,10,-1.29543e-05,-2.8324,0.58841,0.10027,-5.74316,0.00880669,
2,0,0,1,0,7060.33,0.0015984,0.00125134,-1.48327,4,0.000820744,10,-1.85607e-06,-2.82878, , , ,0.00125134,
2,0,0,1,0,7060.4,0.000199195,-0.000133373,-1.46643,4,0.000716341,10,1.95582e-07,-2.83374, , , ,-0.000133373,