File: Figure_codes/Fig_3-5/rawdata_trumpetplot_data/after 10th/20221101_1-115_003_TrumpetPlot_ParaChange_from10_every3_08_CV_C01_21.csv
mode,ox/red,error,control changes,counter inc.,time/s,control/V,Ewe/V,<I>/mA,cycle number,(Q-Qo)/C,I Range,P/W,log(|I|),Tafel slope mV/dec,alpha_eff,dI/d(E-IR),E-IR/V,
2,0,0,0,0,42547.8,2.44065e-05,-0.000229887,-4.00081,22,0.0000000E+000,10,9.19735e-07,-2.39785, , , ,-0.000229887,
2,1,0,1,0,42547.8,0.00729419,0.00699875,0.722393,22,-8.74771e-05,10,5.05585e-06,-3.14123,0.00262762,22.4538,298.036,0.00699875,
2,1,0,1,0,42547.9,0.0147816,0.0144564,2.12527,22,5.70254e-05,10,3.07238e-05,-2.67259,0.0398619,1.48011,121.197,0.01445644,
2,1,0,1,0,42548,0.0222707,0.0219468,2.80664,22,0.000292155,10,6.15969e-05,-2.55181,0.0934275,0.631506,68.8876,0.0219468,
2,1,0,1,0,42548.1,0.0297581,0.0294492,3.24801,22,0.000577381,10,9.56512e-05,-2.48838,0.141359,0.417377,52.778,0.0294492,
2,1,0,1,0,42548.2,0.0372544,0.0369193,3.60658,22,0.000899934,10,0.000133152,-2.4429,0.179132,0.329366,46.3554,0.0369193,
2,1,0,1,0,42548.3,0.0447507,0.044443,3.94499,22,0.00125507,10,0.000175327,-2.40395,0.217402,0.271386,41.7222,0.044443,
2,1,0,1,0,42548.4,0.0522381,0.0519204,4.25901,22,0.00164014,10,0.000221129,-2.37069,0.225794,0.2613,43.4027,0.05192041,
2,1,0,1,0,42548.5,0.0597273,0.0594282,4.55516,22,0.00205427,10,0.000270705,-2.3415,0.270531,0.21809,38.7879,0.0594282,
2,1,0,1,0,42548.6,0.0672147,0.066893,4.84927,22,0.00249565,10,0.000324383,-2.31432,0.32012,0.184306,34.8423,0.066893,
2,1,0,1,0,42548.7,0.0747038,0.0743964,5.10521,22,0.00296238,10,0.000379809,-2.29199,0.350861,0.168158,33.4586,0.0743964,
2,1,0,1,0,42548.8,0.0822055,0.0819148,5.3249,22,0.00345275,10,0.000436188,-2.27369,0.409392,0.144116,29.9417,0.0819148,
2,1,0,1,0,42548.9,0.0896946,0.089384,5.52594,22,0.0039619,10,0.000493931,-2.25759,0.48867,0.120736,26.0501,0.089384,
2,1,0,1,0,42549,0.097182,0.0968414,5.74777,22,0.00449023,10,0.000556622,-2.2405,0.365282,0.161519,36.227,0.0968414,
2,1,0,1,0,42549.1,0.104671,0.104347,6.05147,22,0.00504253,10,0.000631456,-2.21814,0.265958,0.221839,52.4247,0.104347,
2,1,0,1,0,42549.2,0.112159,0.111817,6.47375,22,0.00562918,10,0.000723875,-2.18884,0.258061,0.228628,57.7149,0.1118171,
2,1,0,1,0,42549.3,0.119655,0.119328,6.94165,22,0.00625827,10,0.000828334,-2.15854,0.268997,0.219333,59.3552,0.119328,
2,1,0,1,0,42549.3,0.127149,0.126793,7.31943,22,0.00692853,10,0.000928052,-2.13552,0.372409,0.158428,45.2783,0.1267928,
2,1,0,1,0,42549.4,0.134639,0.134324,7.59379,22,0.00762924,10,0.00102003,-2.11954,0.642051,0.091893,27.2587,0.134324,
2,1,0,1,0,42549.5,0.142126,0.141826,7.76418,22,0.0083506,10,0.00110116,-2.1099,1.56732,0.037644,11.3919,0.141826,
2,1,0,1,0,42549.6,0.149615,0.149307,7.66856,22,0.00907707,10,0.00114497,-2.11529,-0.42423,-0.139076,-41.5102,0.149307,
2,1,0,1,0,42549.7,0.157103,0.1568,7.04145,22,0.00977117,10,0.0011041,-2.15234,-0.133115,-0.443225,-121.497,0.1568,
2,1,0,1,0,42549.8,0.164606,0.164297,6.00246,22,0.0103852,10,0.000986184,-2.22167,-0.0952436,-0.619464,-144.943,0.164297,
2,1,0,1,0,42549.9,0.172095,0.171749,5.04289,22,0.0109009,10,0.000866112,-2.29732,-0.110199,-0.535393,-105.681,0.1717492,
2,1,0,1,0,42550,0.179582,0.179271,4.39316,22,0.0113416,10,0.000787568,-2.35722,-0.146068,-0.403922,-69.4698,0.179271,
2,1,0,1,0,42550.1,0.18707,0.186768,3.98901,22,0.0117337,10,0.00074502,-2.39914,-0.21021,-0.280672,-43.6865,0.1867682,
2,1,0,1,0,42550.2,0.194559,0.194253,3.72183,22,0.0120943,10,0.000722977,-2.42924,-0.328326,-0.1797,-26.095,0.194253,
2,1,0,1,0,42550.3,0.202062,0.201756,3.53411,22,0.012435,10,0.000713027,-2.45172,-0.393603,-0.149897,-20.6684,0.201756,
2,1,0,1,0,42550.4,0.20955,0.209219,3.41936,22,0.0127608,10,0.000715396,-2.46606,-0.443807,-0.132941,-17.7213,0.209219,
2,1,0,1,0,42550.5,0.217039,0.216676,3.31496,22,0.0130766,10,0.00071827,-2.47952,-0.821559,-0.0718147,-9.30784,0.216676,
2,1,0,1,0,42550.6,0.224526,0.224249,3.24991,22,0.0133851,10,0.000728788,-2.48813,-1.1489,-0.0513534,-6.51857,0.224249,
2,1,0,1,0,42550.7,0.232016,0.231704,3.20048,22,0.0136879,10,0.000741561,-2.49479,-1.14048,-0.0517326,-6.45493,0.231704,
2,1,0,1,0,42550.8,0.23951,0.239204,3.16223,22,0.0139866,10,0.000756418,-2.50001,-1.86632,-0.031613,-3.89292,0.239204,
2,1,0,1,0,42550.8,0.247006,0.246712,3.12063,22,0.0142817,10,0.000769898,-2.50576,-2.05328,-0.0287345,-3.49857,0.246712,
2,1,0,1,0,42550.9,0.254494,0.254203,3.08746,22,0.0145736,10,0.00078484,-2.5104,-1.12717,-0.0523435,-6.32048,0.254203,
2,1,0,1,0,42551,0.261983,0.261679,3.06795,22,0.0148628,10,0.000802819,-2.51315,-2.09727,-0.0281318,-3.36509,0.261679,
2,1,0,1,0,42551.1,0.26947,0.269198,3.03635,22,0.0151494,10,0.00081738,-2.51765,-4.24153,-0.0139101,-1.6503,0.269198,
2,1,0,1,0,42551.2,0.276959,0.276624,3.01243,22,0.0154338,10,0.000833309,-2.52108,-1.45043,-0.0406777,-4.78423,0.276624,
2,1,0,1,0,42551.3,0.284461,0.284172,2.99604,22,0.0157163,10,0.00085139,-2.52345,-4.54761,-0.0129738,-1.51298,0.284172,
2,1,0,1,0,42551.4,0.29195,0.291636,2.95864,22,0.0159959,10,0.000862847,-2.52891,-2.10952,-0.0279684,-3.23314,0.291636,
2,1,0,1,0,42551.5,0.299438,0.299162,2.93508,22,0.0162732,10,0.000878064,-2.53238,-0.0317073,-1.86077,-197.148,0.299162,
2,0,0,1,0,42551.6,0.29424,0.293885,-0.238191,22,0.0163515,10,-7.00007e-05,-3.62307,-0.0128291,-4.59892,211.885,0.2938849,
2,0,0,1,0,42551.7,0.286753,0.286413,-1.04219,22,0.0162827,10,-0.000298498,-2.98205,-0.0384194,-1.53568,61.7862,0.286413,
2,0,0,1,0,42551.8,0.279264,0.278947,-1.37567,22,0.0161668,10,-0.000383739,-2.86149,-0.103707,-0.56891,30.3719,0.278947,
2,0,0,1,0,42551.9,0.271776,0.27146,-1.5715,22,0.0160273,10,-0.0004266,-2.80369,-0.140805,-0.41902,25.7144,0.27146,
2,0,0,1,0,42552,0.26428,0.263958,-1.72315,22,0.0158714,10,-0.000454839,-2.76368,-0.216805,-0.272133,18.3312,0.263958,
2,0,0,1,0,42552,0.256786,0.256476,-1.85101,22,0.0157028,10,-0.000474742,-2.73259,-0.323639,-0.182302,13.1283,0.256476,
2,0,0,1,0,42552.1,0.249296,0.248963,-1.95345,22,0.015524,10,-0.000486337,-2.7092,-0.342844,-0.17209,13.0982,0.248963,
2,0,0,1,0,42552.2,0.241809,0.241467,-2.03675,22,0.0153358,10,-0.000491809,-2.69106,-0.380473,-0.15507,12.3829,0.241467,
2,0,0,1,0,42552.3,0.23432,0.233973,-2.13215,22,0.0151393,10,-0.000498864,-2.67118,-0.598518,-0.0985769,8.20611,0.233973,
2,0,0,1,0,42552.4,0.226833,0.226527,-2.21528,22,0.014935,10,-0.00050182,-2.65457,-0.426933,-0.138195,11.929,0.226527,
2,0,0,1,0,42552.5,0.219329,0.219034,-2.29602,22,0.0147229,10,-0.000502906,-2.63903,-0.381662,-0.154587,13.821,0.2190343,
2,0,0,1,0,42552.6,0.21184,0.211491,-2.36849,22,0.0145038,10,-0.000500916,-2.62553,-0.702674,-0.083965,7.75369,0.211491,
2,0,0,1,0,42552.7,0.204353,0.20403,-2.45401,22,0.0142775,10,-0.000500691,-2.61012,-0.603023,-0.0978404,9.34297,0.20403,
2,0,0,1,0,42552.8,0.196863,0.196589,-2.51847,22,0.014044,10,-0.000495104,-2.59886,-0.476928,-0.123708,12.1919,0.196589,
2,0,0,1,0,42552.9,0.189376,0.189033,-2.60587,22,0.0138026,10,-0.000492596,-2.58405,-0.562081,-0.104967,10.694,0.189033,
2,0,0,1,0,42553,0.18188,0.181539,-2.71302,22,0.0135527,10,-0.00049252,-2.56655,-0.450889,-0.130853,13.8335,0.181539,
2,0,0,1,0,42553.1,0.174385,0.174034,-2.81222,22,0.0132931,10,-0.000489423,-2.55095,-0.381864,-0.154505,16.9913,0.174034,
2,0,0,1,0,42553.2,0.166896,0.16656,-2.95419,22,0.0130224,10,-0.000492049,-2.52956,-0.387357,-0.152314,17.5484,0.16656,
2,0,0,1,0,42553.3,0.159409,0.159064,-3.14506,22,0.0127367,10,-0.000500264,-2.50237,-0.254466,-0.231858,28.427,0.159064,
2,0,0,1,0,42553.4,0.151919,0.151574,-3.39997,22,0.0124305,10,-0.000515346,-2.46852,-0.173149,-0.340748,45.3317,0.1515736,
2,0,0,1,0,42553.5,0.144425,0.144135,-3.82144,22,0.0120924,10,-0.000550804,-2.41777,-0.129573,-0.45534,68.0909,0.144135,
2,0,0,1,0,42553.5,0.136929,0.136624,-4.4825,22,0.0117043,10,-0.000612419,-2.34848,-0.0996951,-0.591804,103.583,0.136624,
2,0,0,1,0,42553.6,0.129441,0.129138,-5.32328,22,0.0112453,10,-0.000687436,-2.27382,-0.102798,-0.573941,119.112,0.1291378,
2,0,0,1,0,42553.7,0.121952,0.121618,-6.16768,22,0.0107058,10,-0.000750101,-2.20988,-0.134234,-0.439531,105.695,0.121618,
2,0,0,1,0,42553.8,0.114465,0.114167,-6.89642,22,0.0100921,10,-0.000787341,-2.16138,-0.191574,-0.307976,82.8026,0.114167,
2,0,0,1,0,42553.9,0.106976,0.1067,-7.42882,22,0.0094191,10,-0.000792653,-2.12908,-0.291924,-0.202107,58.553,0.1067,
2,0,0,1,0,42554,0.0994721,0.0991571,-7.72598,22,0.00870505,10,-0.000766086,-2.11205,-0.766089,-0.0770145,23.204,0.0991571,
2,0,0,1,0,42554.1,0.0919847,0.0916537,-7.7653,22,0.00797696,10,-0.000711719,-2.10984,1.62605,0.0362843,-10.9872,0.0916537,
2,0,0,1,0,42554.2,0.0844974,0.084177,-7.59715,22,0.0072561,10,-0.000639505,-2.11935,0.615382,0.0958754,-28.4051,0.084177,
2,0,0,1,0,42554.3,0.0770082,0.0766852,-7.35676,22,0.00655548,10,-0.000564155,-2.13331,0.560507,0.105262,-30.2329,0.0766852,
2,0,0,1,0,42554.4,0.0695208,0.06919,-7.16685,22,0.00587517,10,-0.000495874,-2.14467,0.651169,0.0906062,-25.3492,0.06919,
2,0,0,1,0,42554.5,0.0620245,0.0616644,-7.01214,22,0.00521024,10,-0.000432399,-2.15415,0.815638,0.072336,-19.79,0.0616644,
2,0,0,1,0,42554.6,0.0545282,0.0542204,-6.85028,22,0.00455966,10,-0.000371425,-2.16429,0.89702,0.0657734,-17.5981,0.0542204,
2,0,0,1,0,42554.7,0.0470408,0.0467161,-6.69181,22,0.0039245,10,-0.000312615,-2.17446,0.606468,0.0972846,-25.3954,0.0467161,
2,0,0,1,0,42554.8,0.0395516,0.0391759,-6.51696,22,0.00330579,10,-0.000255308,-2.18595,0.604953,0.0975283,-24.7595,0.0391759,
2,0,0,1,0,42554.9,0.0320643,0.0317179,-6.29255,22,0.00270538,10,-0.000199586,-2.20117,0.494485,0.119316,-29.3099,0.0317179,
2,0,0,1,0,42554.9,0.0245751,0.0242247,-6.0586,22,0.00212601,10,-0.000146768,-2.21763,0.382632,0.154195,-36.4581,0.0242247,
2,0,0,1,0,42555,0.0170735,0.0167299,-5.81187,22,0.00156833,10,-9.72319e-05,-2.23568,0.447445,0.13186,-29.9511,0.0167299,
2,0,0,1,0,42555.1,0.00958429,0.00924492,-5.59594,22,0.00103333,10,-5.1734e-05,-2.25213,0.541851,0.108886,-23.8105,0.00924492,
2,0,0,1,0,42555.2,0.0020969,0.00172009,-5.47304,22,0.000516247,10,-9.41411e-06,-2.26177,0.879108,0.0671135,-14.2706,0.001720087,
2,0,0,1,0,42555.3,0.000199195,-0.000155446,-5.42069,22,0.000386919,10,8.42627e-07,-2.26595, , , ,-0.0001554464,