File: Figure_codes/Fig_3-5/rawdata_trumpetplot_data/after 10th/20221101_1-115_003_TrumpetPlot_ParaChange_from10_every3_12_CV_C01_6.csv
mode,ox/red,error,control changes,counter inc.,time/s,control/V,Ewe/V,<I>/mA,cycle number,(Q-Qo)/C,I Range,P/W,log(|I|),Tafel slope mV/dec,alpha_eff,dI/d(E-IR),E-IR/V,
2,1,0,1,0,13017.3,2.44065e-05,-0.000363498,17.9092,7,0.0000000E+000,10,-6.50997e-06,-1.74692, , , ,-0.000363498,
2,1,0,1,0,13017.3,0.0104008,0.0100571,21.443,7,0.000341584,10,0.000215655,-1.66871,0.198169,0.297725,247.673,0.0100571,
2,1,0,1,0,13017.3,0.0212099,0.0208404,23.664,7,0.000748787,10,0.000493167,-1.62591,0.311521,0.189393,174.388,0.0208404,
2,1,0,1,0,13017.4,0.0320052,0.031664,25.3577,7,0.00119055,10,0.000802924,-1.59589,0.406637,0.145092,143.371,0.031664,
2,1,0,1,0,13017.4,0.0428033,0.0424812,26.8361,7,0.00166047,10,0.00114003,-1.57128,0.462742,0.127501,133.439,0.0424812,
2,1,0,1,0,13017.4,0.0535986,0.0532528,28.2759,7,0.00215649,10,0.00150577,-1.54858,0.479448,0.123058,135.802,0.0532528,
2,1,0,1,0,13017.4,0.0644077,0.0640997,29.7818,7,0.0026791,10,0.001909,-1.52605,0.473731,0.124543,144.781,0.0640997,
2,1,0,1,0,13017.4,0.075203,0.0748702,31.3762,7,0.00322967,10,0.00234915,-1.5034,0.475551,0.124067,151.98,0.0748702,
2,1,0,1,0,13017.4,0.0860011,0.0856323,33.066,7,0.00380965,10,0.00283152,-1.48062,0.477445,0.123575,159.475,0.0856323,
2,1,0,1,0,13017.5,0.0968075,0.0964537,34.8088,7,0.00442079,10,0.00335744,-1.45831,0.504698,0.116902,158.721,0.0964537,
2,1,0,1,0,13017.5,0.107606,0.107251,36.5767,7,0.0050631,10,0.00392289,-1.43679,0.489534,0.120523,172.008,0.1072508,
2,1,0,1,0,13017.5,0.118401,0.118058,38.3953,7,0.00573808,10,0.00453289,-1.41572,0.520949,0.113255,169.767,0.118058,
2,1,0,1,0,13017.5,0.129207,0.128878,40.341,7,0.00644656,10,0.00519905,-1.39425,0.491722,0.119987,188.954,0.128878,
2,1,0,1,0,13017.5,0.140005,0.139652,42.5469,7,0.00719229,10,0.00594174,-1.37113,0.452946,0.130258,216.331,0.139652,
2,1,0,1,0,13017.6,0.150803,0.150419,44.9491,7,0.00797974,10,0.00676119,-1.34728,0.463558,0.127277,223.165,0.150419,
2,1,0,1,0,13017.6,0.161604,0.161301,47.3078,7,0.00881046,10,0.00763078,-1.32507,0.528467,0.111644,205.931,0.161301,
2,1,0,1,0,13017.6,0.172405,0.172087,49.354,7,0.00968127,10,0.00849319,-1.30668,0.67912,0.0868771,167.111,0.172087,
2,1,0,1,0,13017.6,0.183203,0.182874,50.7719,7,0.0105839,10,0.00928485,-1.29438,1.41077,0.041821,82.6633,0.182874,
2,1,0,1,0,13017.6,0.194001,0.193675,50.8845,7,0.0115014,10,0.00985506,-1.29341,-1.50448,-0.0392163,-77.5737,0.193675,
2,1,0,1,0,13017.6,0.204808,0.204509,48.9486,7,0.0124033,10,0.0100104,-1.31026,-0.397046,-0.148597,-282.549,0.204509,
2,1,0,1,0,13017.7,0.215603,0.215348,44.8812,7,0.0132501,10,0.00966506,-1.34794,-0.232591,-0.253664,-443.002,0.215348,
2,1,0,1,0,13017.7,0.226401,0.226112,39.7745,7,0.0140119,10,0.00899349,-1.40039,-0.193734,-0.304542,-472.814,0.226112,
2,1,0,1,0,13017.7,0.237207,0.236918,35.0355,7,0.0146835,10,0.00830056,-1.45549,-0.204248,-0.288865,-395.733,0.236918,
2,1,0,1,0,13017.7,0.248005,0.247715,31.3019,7,0.0152785,10,0.00775397,-1.50443,-0.243552,-0.242248,-296.56,0.247715,
2,1,0,1,0,13017.7,0.258801,0.258457,28.539,7,0.0158154,10,0.00737611,-1.54456,-0.303185,-0.194601,-217.235,0.258457,
2,1,0,1,0,13017.8,0.26961,0.269284,26.5422,7,0.0163099,10,0.00714739,-1.57606,-0.384685,-0.153372,-159.08,0.2692841,
2,1,0,1,0,13017.8,0.280405,0.280074,25.0522,7,0.0167735,10,0.00701647,-1.60115,-0.4848,-0.1217,-119.106,0.2800737,
2,1,0,1,0,13017.8,0.291203,0.290855,23.9201,7,0.0172137,10,0.00695729,-1.62124,-0.587217,-0.100474,-93.8863,0.290855,
2,1,0,0,0,13017.8,0.300012,0.299785,23.1546,7,0.0175596,10,0.00694138,-1.63536,0.00202329,29.1605,22570.8,0.299785,
2,1,0,1,0,13017.8,0.290843,0.290613,8.71968,7,0.017786,10,0.00253405,-2.0595,0.018261,3.23093,1076.09,0.290613,
2,1,0,1,0,13017.8,0.280047,0.279779,0.41035,7,0.0178595,10,0.000114807,-3.38685,0.040152,1.46942,569.158,0.279779,
2,0,0,1,0,13017.9,0.269244,0.268964,-4.32279,7,0.0178202,10,-0.00116267,-2.36424,-0.0264961,-2.22674,341.848,0.268964,
2,0,0,1,0,13017.9,0.258443,0.258167,-7.3009,7,0.0177135,10,-0.00188485,-2.13662,-0.0731145,-0.806953,225.519,0.258167,
2,0,0,1,0,13017.9,0.247645,0.247346,-9.35217,7,0.0175623,10,-0.00231323,-2.02909,-0.131933,-0.447197,162.13,0.247346,
2,0,0,1,0,13017.9,0.236849,0.236519,-10.8816,7,0.0173794,10,-0.0025737,-1.96331,-0.198618,-0.297053,125.715,0.236519,
2,0,0,1,0,13017.9,0.22604,0.225723,-12.1058,7,0.0171721,10,-0.00273255,-1.91701,-0.273997,-0.21533,101.443,0.225723,
2,0,0,1,0,13017.9,0.215245,0.214952,-13.1271,7,0.0169447,10,-0.00282169,-1.88183,-0.327691,-0.180048,92.1444,0.214952,
2,0,0,1,0,13018,0.204447,0.204159,-14.0656,7,0.0166999,10,-0.00287161,-1.85184,-0.389181,-0.151601,83.073,0.204159,
2,0,0,1,0,13018,0.19364,0.193316,-14.9448,7,0.0164389,10,-0.00288906,-1.82551,-0.423578,-0.13929,81.1296,0.193316,
2,0,0,1,0,13018,0.182842,0.182524,-15.8171,7,0.0161621,10,-0.00288699,-1.80087,-0.420951,-0.140159,86.5418,0.182524,
2,0,0,1,0,13018,0.172047,0.17171,-16.7729,7,0.0158688,10,-0.00288008,-1.77539,-0.397468,-0.14844,97.3586,0.17171,
2,0,0,1,0,13018,0.161241,0.160957,-17.9553,7,0.0155565,10,-0.00289004,-1.74581,-0.344013,-0.171505,120.36,0.160957,
2,0,0,1,0,13018.1,0.150443,0.150158,-19.4779,7,0.0152202,10,-0.00292476,-1.71046,-0.270748,-0.217915,166.064,0.150158,
2,0,0,1,0,13018.1,0.139645,0.139354,-21.6245,7,0.0148511,10,-0.00301345,-1.66505,-0.212638,-0.277467,234.921,0.139354,
2,0,0,1,0,13018.1,0.128849,0.128536,-24.6071,7,0.0144361,10,-0.0031629,-1.60894,-0.177599,-0.332209,319.873,0.128536,
2,0,0,1,0,13018.1,0.118043,0.11775,-28.4861,7,0.013959,10,-0.00335423,-1.54537,-0.171072,-0.344884,383.209,0.11775,
2,0,0,1,0,13018.1,0.107245,0.106989,-32.7395,7,0.0134078,10,-0.00350276,-1.48493,-0.188818,-0.312471,398.571,0.106989,
2,0,0,1,0,13018.1,0.0964468,0.0962194,-36.8327,7,0.0127808,10,-0.00354402,-1.43377,-0.23148,-0.254881,365.721,0.0962194,
2,0,0,1,0,13018.2,0.0856404,0.0853831,-40.5431,7,0.0120832,10,-0.00346169,-1.39208,-0.29931,-0.19712,311.03,0.0853831,
2,0,0,1,0,13018.2,0.0748451,0.0746656,-43.513,7,0.0113254,10,-0.00324892,-1.36138,-0.408755,-0.144341,244.64,0.0746656,
2,0,0,1,0,13018.2,0.0640471,0.0637975,-45.7301,7,0.0105206,10,-0.00291746,-1.3398,-0.658161,-0.0896437,159.624,0.0637975,
2,0,0,1,0,13018.2,0.0532407,0.0528838,-46.9481,7,0.00968498,10,-0.00248279,-1.32838,-1.63014,-0.0361932,66.1769,0.0528838,
2,0,0,1,0,13018.2,0.0424426,0.0421111,-47.2432,7,0.0088361,10,-0.00198946,-1.32566,46.6838,0.00126382,-2.3278,0.04211108,
2,0,0,1,0,13018.3,0.0316473,0.0312737,-46.9862,7,0.00798739,10,-0.00146943,-1.32803,2.75679,0.0214017,-39.2295,0.0312737,
2,0,0,1,0,13018.3,0.0208437,0.0205488,-46.4672,7,0.00714615,10,-0.000954844,-1.33285,1.87255,0.0315078,-57.1199,0.0205488,
2,0,0,1,0,13018.3,0.0100429,0.00974536,-45.8026,7,0.00631559,10,-0.000446363,-1.33911,1.48167,0.03982,-71.1387,0.00974536,
2,0,0,1,0,13018.3,-0.000755207,-0.00113335,-44.9961,7,0.00549837,10,5.09965e-05,-1.34683,1.19748,0.04927,-86.3999,-0.00113335,
2,0,0,1,0,13018.3,-0.0115505,-0.0119028,-43.8274,7,0.00469868,10,0.000521671,-1.35825,0.813326,0.0725416,-123.959,-0.0119028,
2,0,0,1,0,13018.3,-0.0223597,-0.022736,-42.321,7,0.00392304,10,0.000962208,-1.37344,0.637598,0.0925348,-152.709,-0.022736,
2,0,0,1,0,13018.4,-0.033155,-0.0335468,-40.6225,7,0.00317672,10,0.00136276,-1.39123,0.625995,0.09425,-149.482,-0.0335468,
2,0,0,1,0,13018.4,-0.043953,-0.0443375,-39.0866,7,0.00245986,10,0.001733,-1.40797,0.705647,0.0836113,-127.676,-0.0443375,
2,0,0,1,0,13018.4,-0.0547594,-0.0550985,-37.9297,7,0.00176745,10,0.00208987,-1.42102,0.986058,0.0598342,-88.6753,-0.0550985,
2,0,0,1,0,13018.4,-0.0655575,-0.0659157,-37.2049,7,0.00109188,10,0.00245239,-1.4294,1.87254,0.0315081,-45.8069,-0.0659157,
2,0,0,1,0,13018.4,-0.0763528,-0.0767404,-36.8868,7,0.000425518,10,0.00283071,-1.43313,6.49136,0.00908901,-13.1005,-0.0767404,
2,0,0,1,0,13018.4,-0.0871592,-0.087512,-36.9203,7,-0.00023825,10,0.00323097,-1.43273,-6.09,-0.00968801,13.9669,-0.087512,
2,0,0,1,0,13018.5,-0.0979573,-0.0983122,-37.2186,7,-0.000905091,10,0.00365905,-1.42924,-2.78321,-0.0211985,30.7341,-0.0983122,
2,0,0,1,1,13018.5,-0.0955546,-0.095991,-27.8793,7,-0.00127627,10,0.00267616,-1.55472,-0.0357349,-1.65105,1805.6,-0.095991,
2,0,0,1,1,13018.5,-0.0847538,-0.0851653,-13.2201,7,-0.00163493,10,0.00112589,-1.87877,-0.0270414,-2.18184,1102.73,-0.0851653,
2,0,0,1,1,13018.5,-0.0739557,-0.0743778,-3.20263,7,-0.00177705,10,0.000238204,-2.49449,-0.00725894,-8.12791,796.653,-0.0743778,
2,1,0,1,1,13018.5,-0.0631604,-0.0635765,4.21354,7,-0.00176411,10,-0.000267882,-2.37535,0.012453,4.73782,597.806,-0.0635765,
2,1,0,1,1,13018.6,-0.0523512,-0.0527996,9.91305,7,-0.00163441,10,-0.000523405,-2.00379,0.0475029,1.24203,465.625,-0.0527996,
2,1,0,1,1,13018.6,-0.0415559,-0.0420004,14.3422,7,-0.00141407,10,-0.000602376,-1.84339,0.0906931,0.650545,359.973,-0.0420004,
2,1,0,1,1,13018.6,-0.0307579,-0.0311312,17.7566,7,-0.00112332,10,-0.000552784,-1.75064,0.148365,0.397667,274.123,-0.0311312,
2,1,0,1,1,13018.6,-0.0199515,-0.0203034,20.3839,7,-0.000778682,10,-0.000413862,-1.69071,0.222119,0.265624,210.429,-0.0203034,
2,1,0,1,1,13018.6,-0.0091534,-0.00949572,22.3706,7,-0.000392933,10,-0.000212425,-1.65032,0.321654,0.183427,159.683,-0.00949572,
2,1,0,0,1,13018.6,-7.54729e-05,-0.000287149,23.5839,7,-4.50518e-05,10,-6.77209e-06,-1.62738, , , ,-0.0002871489,