File: Figure_codes/Fig_3-5/rawdata_trumpetplot_data/after 10th/20221101_1-115_003_TrumpetPlot_ParaChange_from10_every3_03_CV_C01_7.csv
mode,ox/red,error,control changes,counter inc.,time/s,control/V,Ewe/V,<I>/mA,cycle number,(Q-Qo)/C,I Range,P/W,log(|I|),Tafel slope mV/dec,alpha_eff,dI/d(E-IR),E-IR/V,
2,0,0,1,0,14730.9,2.44065e-05,-0.000287149,-0.108298,8,0.0000000E+000,10,3.10978e-08,-3.96538, , , ,-0.0002871489,
2,1,0,1,0,14732.4,0.00729041,0.0069225,0.208817,8,0.000274943,10,1.44554e-06,-3.68023,0.0840738,0.701764,5.65229,0.0069225,
2,1,0,1,0,14733.9,0.0147815,0.0144768,0.240495,8,0.00063979,10,3.4816e-06,-3.61889,0.139008,0.424436,3.99752,0.0144768,
2,1,0,1,0,14735.4,0.0222725,0.0219358,0.269041,8,0.00104925,10,5.90163e-06,-3.57018,0.153903,0.383358,4.01342,0.0219358,
2,1,0,1,0,14736.9,0.0297635,0.0294489,0.296746,8,0.00150021,10,8.73884e-06,-3.52761,0.1975,0.298734,3.45671,0.0294489,
2,1,0,1,0,14738.4,0.0372545,0.0369236,0.323948,8,0.00199225,10,1.19613e-05,-3.48952,0.209721,0.281326,3.56353,0.0369236,
2,1,0,1,0,14739.9,0.0447456,0.0444282,0.351899,8,0.00252507,10,1.56343e-05,-3.45358,0.250313,0.235705,3.2296,0.0444282,
2,1,0,1,0,14741.4,0.0522367,0.0518945,0.375076,8,0.00309679,10,1.94644e-05,-3.42588,0.219583,0.268692,3.93171,0.0518945,
2,1,0,1,0,14742.9,0.0597277,0.0594204,0.399308,8,0.00370465,10,2.3727e-05,-3.39869,0.338089,0.17451,2.71242,0.0594204,
2,1,0,1,0,14744.4,0.0672187,0.0668933,0.42033,8,0.0043454,10,2.81173e-05,-3.37641,0.342641,0.172192,2.80995,0.0668933,
2,1,0,1,0,14745.9,0.0747092,0.0743644,0.437537,8,0.00501517,10,3.25372e-05,-3.35899,0.647958,0.0910553,1.5587,0.0743644,
2,1,0,0,0,14747.4,0.0822001,0.0818806,0.453427,8,0.00571067,10,3.71268e-05,-3.34349,0.459318,0.128451,2.27827,0.0818806,
2,1,0,1,0,14748.9,0.0896911,0.0893458,0.478456,8,0.00643493,10,4.2748e-05,-3.32016,0.278777,0.211639,3.95303,0.0893458,
2,1,0,0,0,14750.4,0.097182,0.0968312,0.513225,8,0.00720301,10,4.96962e-05,-3.28969,0.167039,0.353211,7.05916,0.0968312,
2,1,0,1,0,14751.9,0.104673,0.104338,0.561911,8,0.00803324,10,5.86286e-05,-3.25033,0.206654,0.285501,6.2243,0.104338,
2,1,0,0,0,14753.4,0.112164,0.111814,0.599489,8,0.00893097,10,6.70311e-05,-3.22222,0.363787,0.162183,3.78643,0.111814,
2,1,0,1,0,14754.9,0.119655,0.119325,0.630079,8,0.00988181,10,7.51839e-05,-3.20061,0.500224,0.117947,2.90635,0.119325,
2,1,0,0,0,14756.4,0.127146,0.126806,0.656751,8,0.0108772,10,8.32798e-05,-3.1826,0.497801,0.118521,3.04737,0.126806,
2,1,0,1,0,14757.9,0.134637,0.134363,0.666181,8,0.0119062,10,8.95102e-05,-3.17641,-0.4984,-0.118379,-3.07898,0.134363,
2,1,0,1,0,14759.3,0.142127,0.141844,0.601883,8,0.0128963,10,8.53735e-05,-3.22049,-0.103882,-0.567951,-13.2745,0.141844,
2,1,0,1,0,14760.8,0.149618,0.149304,0.484491,8,0.0137382,10,7.23364e-05,-3.31471,-0.0711224,-0.829556,-15.702,0.149304,
2,1,0,1,0,14762.3,0.157109,0.156764,0.394811,8,0.0144179,10,6.1892e-05,-3.40361,-0.100156,-0.58908,-9.10934,0.156764,
2,1,0,1,0,14763.8,0.1646,0.164243,0.351657,8,0.015001,10,5.77573e-05,-3.45388,-0.214483,-0.27508,-3.78104,0.164243,
2,1,0,1,0,14765.3,0.172091,0.1718,0.327848,8,0.0155352,10,5.63243e-05,-3.48433,-0.362356,-0.162823,-2.09238,0.1718,
2,1,0,1,0,14766.8,0.179582,0.179267,0.315205,8,0.0160423,10,5.65059e-05,-3.50141,-0.759982,-0.0776334,-0.954423,0.179267,
2,1,0,1,0,14768.3,0.187074,0.186786,0.306547,8,0.0165331,10,5.72586e-05,-3.5135,-0.891749,-0.0661621,-0.789965,0.1867857,
2,1,0,1,0,14769.8,0.194564,0.194243,0.299081,8,0.0170129,10,5.80942e-05,-3.52421,-1.31871,-0.0447408,-0.523502,0.194243,
2,1,0,1,0,14771.3,0.202056,0.201756,0.295129,8,0.0174843,10,5.95439e-05,-3.52999,-1.64232,-0.0359248,-0.412499,0.201756,
2,1,0,1,0,14772.8,0.209547,0.209279,0.290406,8,0.0179486,10,6.07759e-05,-3.53699,-1.19477,-0.049382,-0.559275,0.209279,
2,1,0,1,0,14774.3,0.217038,0.216756,0.285241,8,0.0184067,10,6.18277e-05,-3.54479,-1.476,-0.0399729,-0.446376,0.216756,
2,1,0,1,0,14775.8,0.224529,0.224206,0.282507,8,0.0188599,10,6.33397e-05,-3.54897,-2.08724,-0.028267,-0.312359,0.224206,
2,1,0,1,0,14777.3,0.232019,0.231699,0.281127,8,0.0193083,10,6.51368e-05,-3.5511,-1.26688,-0.0465711,-0.511452,0.231699,
2,1,0,0,0,14778.8,0.23951,0.239232,0.278472,8,0.0197529,10,6.66195e-05,-3.55522,-1.18406,-0.0498284,-0.541269,0.239232,
2,1,0,1,0,14780.3,0.247001,0.246689,0.276305,8,0.0201939,10,6.81614e-05,-3.55861,-1.24114,-0.0475371,-0.511406,0.246689,
2,1,0,0,0,14781.8,0.254492,0.254193,0.273597,8,0.0206317,10,6.95467e-05,-3.56289,-1.19236,-0.0494819,-0.528303,0.254193,
2,1,0,1,0,14783.3,0.261983,0.261702,0.27354,8,0.0210663,10,7.1586e-05,-3.56298,-3.81015,-0.015485,-0.164458,0.261702,
2,1,0,0,0,14784.8,0.269474,0.269149,0.269652,8,0.0214977,10,7.25766e-05,-3.5692,-2.43653,-0.0242148,-0.254513,0.269149,
2,1,0,1,0,14786.3,0.276965,0.276637,0.266912,8,0.0219258,10,7.38376e-05,-3.57363,-6.17553,-0.00955383,-0.0996567,0.276637,
2,1,0,0,0,14787.8,0.284456,0.284188,0.265454,8,0.022351,10,7.54389e-05,-3.57601,-60.2215,-0.000979717,-0.0101486,0.284188,
2,1,0,1,0,14789.3,0.291947,0.291606,0.264222,8,0.0227733,10,7.70486e-05,-3.57803,-2.86101,-0.0206221,-0.212777,0.291606,
2,1,0,1,0,14790.8,0.299437,0.299148,0.261132,8,0.0231923,10,7.81171e-05,-3.58314,-0.0022877,-25.7901,-122.942,0.299148,
2,0,0,1,0,14792.2,0.293744,0.293404,-0.0168492,8,0.0232211,10,-4.94363e-06,-4.77342,-0.00516973,-11.4126,5.5321,0.293404,
2,0,0,1,0,14793.7,0.286253,0.285935,-0.0453298,8,0.0231472,10,-1.29614e-05,-4.34362,-0.0337965,-1.74575,3.12332,0.285935,
2,0,0,0,0,14795.2,0.278763,0.278483,-0.0656092,8,0.0230371,10,-1.82711e-05,-4.18304,-0.0664475,-0.887919,2.23628,0.278483,
2,0,0,1,0,14796.7,0.271272,0.270981,-0.081089,8,0.0229005,10,-2.19736e-05,-4.09104,-0.0963834,-0.612139,1.93284,0.270981,
2,0,0,0,0,14798.2,0.263781,0.263494,-0.0948005,8,0.0227419,10,-2.49794e-05,-4.02319,-0.138602,-0.425681,1.59692,0.263494,
2,0,0,1,0,14799.7,0.25629,0.256008,-0.106373,8,0.0225642,10,-2.72323e-05,-3.97317,-0.204216,-0.28891,1.19817,0.256008,
2,0,0,0,0,14801.2,0.248799,0.248495,-0.117511,8,0.0223701,10,-2.92008e-05,-3.92992,-0.20339,-0.290083,1.33125,0.2484948,
2,0,0,1,0,14802.7,0.241308,0.241007,-0.128488,8,0.022161,10,-3.09666e-05,-3.89114,-0.248099,-0.237809,1.18742,0.241007,
2,0,0,0,0,14804.2,0.233817,0.233489,-0.136288,8,0.0219373,10,-3.18218e-05,-3.86554,-0.233909,-0.252234,1.34402,0.233489,
2,0,0,1,0,14805.7,0.226326,0.226024,-0.145031,8,0.0217,10,-3.27804e-05,-3.83854,-0.237333,-0.248596,1.41316,0.226024,
2,0,0,0,0,14807.2,0.218835,0.21853,-0.153688,8,0.0214491,10,-3.35854e-05,-3.81336,-0.37998,-0.155271,0.940079,0.21853,
2,0,0,1,0,14808.7,0.211344,0.211029,-0.162469,8,0.0211846,10,-3.42855e-05,-3.78923,-0.29531,-0.19979,1.27791,0.211029,
2,0,0,1,0,14810.2,0.203854,0.203523,-0.172372,8,0.0209056,10,-3.50817e-05,-3.76353,-0.2938,-0.200817,1.35814,0.203523,
2,0,0,1,0,14811.7,0.196363,0.196072,-0.182526,8,0.0206127,10,-3.57882e-05,-3.73868,-0.296597,-0.198923,1.41852,0.196072,
2,0,0,1,0,14813.2,0.188871,0.18855,-0.193987,8,0.0203028,10,-3.65763e-05,-3.71223,-0.183704,-0.32117,2.43472,0.18855,
2,0,0,1,0,14814.7,0.181381,0.181102,-0.209502,8,0.0199736,10,-3.79412e-05,-3.67881,-0.214747,-0.274742,2.23595,0.181102,
2,0,0,1,0,14816.2,0.173889,0.173504,-0.22518,8,0.0196218,10,-3.90697e-05,-3.64747,-0.194177,-0.303847,2.66628,0.173504,
2,0,0,1,0,14817.6,0.166398,0.166049,-0.246846,8,0.0192411,10,-4.09885e-05,-3.60757,-0.171533,-0.343957,3.34352,0.166049,
2,0,0,1,0,14819.1,0.158907,0.158595,-0.27663,8,0.0188209,10,-4.38721e-05,-3.5581,-0.124539,-0.473749,5.17862,0.158595,
2,0,0,1,0,14820.6,0.151416,0.151092,-0.330152,8,0.0183399,10,-4.98834e-05,-3.48129,-0.0842022,-0.700694,9.03685,0.1510921,
2,0,0,1,0,14822.1,0.143925,0.143586,-0.412511,8,0.0177593,10,-5.92309e-05,-3.38456,-0.0674849,-0.87427,14.1122,0.143586,
2,0,0,1,0,14823.6,0.136434,0.136123,-0.530462,8,0.0170267,10,-7.22082e-05,-3.27535,-0.0756366,-0.780046,16.0556,0.136123,
2,0,0,1,0,14825.1,0.128943,0.128609,-0.631741,8,0.0161238,10,-8.12476e-05,-3.19946,-0.156046,-0.378093,9.25917,0.128609,
2,0,0,0,0,14826.6,0.121453,0.121137,-0.677198,8,0.0151096,10,-8.20336e-05,-3.16928,-0.639897,-0.0922023,2.42583,0.121137,
2,0,0,1,0,14828.1,0.113962,0.113641,-0.66985,8,0.0140655,10,-7.61223e-05,-3.17402,0.932369,0.0632796,-1.66364,0.1136408,
2,0,0,0,0,14829.6,0.106471,0.106141,-0.653016,8,0.0130415,10,-6.93114e-05,-3.18508,0.580195,0.10169,-2.60076,0.106141,
2,0,0,1,0,14831.1,0.0989799,0.0986541,-0.62863,8,0.012053,10,-6.20169e-05,-3.2016,0.454827,0.12972,-3.17063,0.0986541,
2,0,0,0,0,14832.6,0.0914889,0.0911665,-0.600883,8,0.0111055,10,-5.47804e-05,-3.22121,0.407711,0.14471,-3.38613,0.0911665,
2,0,0,1,0,14834.1,0.083998,0.083644,-0.571879,8,0.0102004,10,-4.78343e-05,-3.2427,0.300976,0.196029,-4.36636,0.08364404,
2,0,0,0,0,14835.6,0.076507,0.0762169,-0.551455,8,0.00933239,10,-4.20302e-05,-3.25849,0.408371,0.144476,-3.09305,0.0762169,
2,0,0,1,0,14837.1,0.0690161,0.0686912,-0.529331,8,0.00849559,10,-3.63604e-05,-3.27627,0.602422,0.0979379,-2.03414,0.0686912,
2,0,0,0,0,14838.6,0.0615251,0.0612175,-0.51389,8,0.00768439,10,-3.1459e-05,-3.28913,0.537748,0.109717,-2.20882,0.0612175,
2,0,0,1,0,14840.1,0.0540342,0.0537194,-0.498182,8,0.00689878,10,-2.6762e-05,-3.30261,0.598499,0.0985799,-1.91404,0.0537194,
2,0,0,1,0,14841.6,0.0465436,0.0461887,-0.48122,8,0.00613816,10,-2.22269e-05,-3.31766,0.501747,0.117589,-2.20612,0.04618866,
2,0,0,1,0,14843.1,0.0390526,0.038698,-0.463655,8,0.00540416,10,-1.79425e-05,-3.33381,0.397963,0.148255,-2.67475,0.038698,
2,0,0,1,0,14844.6,0.0315615,0.0311784,-0.444979,8,0.00469685,10,-1.38737e-05,-3.35166,0.514167,0.114749,-1.99706,0.0311784,
2,0,0,1,0,14846.1,0.0240706,0.0238033,-0.429083,8,0.00401431,10,-1.02136e-05,-3.36746,0.502503,0.117412,-1.97536,0.0238033,
2,0,0,1,0,14847.6,0.0165795,0.016267,-0.418969,8,0.00335217,10,-6.81535e-06,-3.37782,0.959023,0.0615209,-1.0067,0.016267,
2,0,0,1,0,14849.1,0.00908846,0.00876234,-0.413986,8,0.00270293,10,-3.62749e-06,-3.38301,-237.3,-0.00024863,0.00401422,0.00876234,
2,0,0,1,0,14850.6,0.00159739,0.0012195,-0.416763,8,0.00205587,10,-5.0824e-07,-3.38011, , , ,0.0012195,
2,0,0,0,0,14850.9,0.000199195,-0.000174534,-0.414858,8,0.00193465,10,7.24067e-08,-3.3821, , , ,-0.000174534,