File: Figure_codes/Fig_3-5/rawdata_trumpetplot_data/after 10th/20221101_1-115_003_TrumpetPlot_ParaChange_from10_every3_09_CV_C01_3.csv
mode,ox/red,error,control changes,counter inc.,time/s,control/V,Ewe/V,<I>/mA,cycle number,(Q-Qo)/C,I Range,P/W,log(|I|),Tafel slope mV/dec,alpha_eff,dI/d(E-IR),E-IR/V,
2,0,0,0,0,7092.91,2.44065e-05,-0.000325324,-5.2856,4,0.0000000E+000,10,1.71953e-06,-2.27691, , , ,-0.000325324,
2,1,0,1,0,7093.01,0.00978761,0.00943784,2.61077,4,1.3682e-05,10,2.464e-05,-2.58323,0.0232974,2.53247,246.386,0.00943784,
2,1,0,1,0,7093.11,0.0197755,0.0194442,3.92784,4,0.000353585,10,7.63734e-05,-2.40585,0.118485,0.497954,76.2146,0.0194442,
2,1,0,1,0,7093.21,0.0297635,0.0294804,4.58855,4,0.000781494,10,0.000135272,-2.33832,0.179152,0.32933,58.8736,0.02948039,
2,1,0,1,0,7093.31,0.0397514,0.0394456,5.16454,4,0.00127,10,0.000203718,-2.28697,0.188835,0.312443,63.0935,0.0394456,
2,1,0,1,0,7093.41,0.0497484,0.049454,5.76158,4,0.00181673,10,0.000284933,-2.23946,0.227108,0.259788,58.2814,0.049454,
2,1,0,1,0,7093.51,0.0597273,0.0594167,6.31493,4,0.00241994,10,0.000375212,-2.19963,0.25795,0.228726,56.2891,0.0594167,
2,1,0,1,0,7093.61,0.0697152,0.0694368,6.83689,4,0.00307818,10,0.000474732,-2.16514,0.338892,0.174097,46.48,0.0694368,
2,1,0,1,0,7093.71,0.0797031,0.0794232,7.32587,4,0.00378678,10,0.000581845,-2.13514,0.371046,0.15901,45.4246,0.0794232,
2,1,0,1,0,7093.81,0.0896911,0.0893859,7.7643,4,0.00454136,10,0.000694019,-2.1099,0.384574,0.153417,46.5403,0.0893859,
2,1,0,1,0,7093.91,0.099679,0.0993677,8.31314,4,0.00534246,10,0.000826058,-2.08023,0.30051,0.196333,63.6105,0.09936773,
2,1,0,1,0,7094.01,0.109667,0.109349,9.0987,4,0.00620974,10,0.000994931,-2.04102,0.226354,0.260654,92.5656,0.109349,
2,1,0,1,0,7094.11,0.119655,0.119387,10.0516,4,0.00716706,10,0.00120003,-1.99776,0.2637,0.223739,87.7088,0.119387,
2,1,0,1,0,7094.21,0.129643,0.12933,10.8394,4,0.00821339,10,0.00140186,-1.96499,0.354837,0.166273,70.2957,0.12933,
2,1,0,1,0,7094.31,0.139631,0.139329,11.4329,4,0.0093287,10,0.00159294,-1.94184,0.532836,0.110728,49.424,0.139329,
2,1,0,1,0,7094.41,0.149619,0.149325,11.6004,4,0.0104865,10,0.00173222,-1.93553,-0.633907,-0.0930735,-41.9925,0.149325,
2,1,0,1,0,7094.51,0.159607,0.159308,10.185,4,0.0115923,10,0.00162255,-1.99204,-0.0988435,-0.596903,-236.682,0.159308,
2,1,0,1,0,7094.61,0.169595,0.169299,7.64597,4,0.0124819,10,0.00129445,-2.11657,-0.0781611,-0.754851,-225.708,0.169299,
2,1,0,1,0,7094.71,0.179582,0.179276,6.051,4,0.0131568,10,0.0010848,-2.21817,-0.129062,-0.457145,-108.291,0.1792755,
2,1,0,1,0,7094.81,0.18957,0.189261,5.26822,4,0.013719,10,0.000997072,-2.27834,-0.210972,-0.279658,-57.547,0.1892615,
2,1,0,1,0,7094.91,0.199558,0.199283,4.81802,4,0.0142211,10,0.000960148,-2.31713,-0.318973,-0.184969,-34.7385,0.199283,
2,1,0,1,0,7095.01,0.209546,0.209261,4.52553,4,0.0146871,10,0.000947017,-2.34433,-0.364208,-0.161995,-28.6311,0.209261,
2,1,0,1,0,7095.11,0.219534,0.219262,4.32022,4,0.0151285,10,0.000947262,-2.36449,-0.615804,-0.0958097,-16.1518,0.2192622,
2,1,0,1,0,7095.21,0.229522,0.22923,4.16637,4,0.0155533,10,0.000955055,-2.38024,-0.836308,-0.0705482,-11.4911,0.2292296,
2,1,0,1,0,7095.31,0.23951,0.239206,4.06909,4,0.0159656,10,0.000973349,-2.3905,-1.62715,-0.0362597,-5.76334,0.239206,
2,1,0,1,0,7095.41,0.249498,0.249196,3.99512,4,0.0163685,10,0.000995567,-2.39847,-1.35755,-0.0434606,-6.76947,0.2491961,
2,1,0,1,0,7095.51,0.259486,0.259243,3.92918,4,0.0167645,10,0.00101861,-2.4057,-0.949915,-0.0621108,-9.51348,0.259243,
2,1,0,1,0,7095.6,0.269474,0.269175,3.86134,4,0.0171542,10,0.00103937,-2.41326,-2.14099,-0.0275574,-4.15968,0.269175,
2,1,0,1,0,7095.7,0.279462,0.279168,3.81106,4,0.0175383,10,0.00106393,-2.41895,-1.73291,-0.0340468,-5.06188,0.279168,
2,1,0,1,0,7095.8,0.28945,0.289191,3.75439,4,0.0179167,10,0.00108574,-2.42546,-2.45859,-0.0239975,-3.51663,0.289191,
2,1,0,1,0,7095.9,0.299438,0.299142,3.70809,4,0.0182895,10,0.00110925,-2.43085,-0.0244385,-2.41422,-314.978,0.299142,
2,0,0,1,0,7095.99,0.291747,0.291455,-1.31702,4,0.0183044,10,-0.000383853,-2.88041,-0.0266356,-2.21508,109.073,0.291455,
2,0,0,1,0,7096.09,0.281759,0.281477,-1.87613,4,0.0181407,10,-0.000528087,-2.72674,-0.124687,-0.473186,34.386,0.281477,
2,0,0,1,0,7096.19,0.271771,0.271438,-2.15927,4,0.0179391,10,-0.000586107,-2.66569,-0.182469,-0.323343,27.2099,0.271438,
2,0,0,1,0,7096.29,0.261783,0.261498,-2.37294,4,0.0177125,10,-0.000620519,-2.62471,-0.340371,-0.17334,16.0469,0.261498,
2,0,0,1,0,7096.39,0.251795,0.251479,-2.54566,4,0.017467,10,-0.000640181,-2.5942,-0.374679,-0.157468,15.6546,0.251479,
2,0,0,1,0,7096.49,0.241807,0.241514,-2.69146,4,0.0172052,10,-0.000650026,-2.57001,-0.417675,-0.141258,14.9113,0.241514,
2,0,0,1,0,7096.59,0.231815,0.231501,-2.84446,4,0.0169289,10,-0.000658496,-2.546,-0.427269,-0.138086,15.3076,0.231501,
2,0,0,1,0,7096.69,0.221831,0.221566,-2.97616,4,0.0166391,10,-0.000659415,-2.52634,-0.532627,-0.110772,12.8582,0.2215656,
2,0,0,1,0,7096.79,0.211843,0.211516,-3.11556,4,0.0163353,10,-0.000658991,-2.50646,-0.581521,-0.101458,12.3284,0.2115161,
2,0,0,1,0,7096.89,0.201856,0.201557,-3.26245,4,0.0160172,10,-0.00065757,-2.48646,-0.475791,-0.124004,15.8002,0.201557,
2,0,0,1,0,7096.99,0.191868,0.19151,-3.43188,4,0.0156834,10,-0.00065724,-2.46447,-0.409634,-0.144031,19.323,0.1915101,
2,0,0,1,0,7097.09,0.18188,0.181568,-3.65575,4,0.0153312,10,-0.000663765,-2.43702,-0.302776,-0.194863,27.7117,0.181568,
2,0,0,1,0,7097.19,0.171892,0.171546,-3.94573,4,0.0149534,10,-0.000676873,-2.40387,-0.264603,-0.222976,34.3149,0.171546,
2,0,0,1,0,7097.29,0.161904,0.161562,-4.40339,4,0.0145389,10,-0.000711419,-2.35621,-0.176756,-0.333794,57.3819,0.161562,
2,0,0,1,0,7097.39,0.151916,0.151552,-5.16915,4,0.0140644,10,-0.000783398,-2.28658,-0.122177,-0.482905,97.7998,0.151552,
2,0,0,1,0,7097.49,0.141928,0.141556,-6.53122,4,0.0134856,10,-0.000924536,-2.18501,-0.0883088,-0.66811,170.396,0.141556,
2,0,0,1,0,7097.59,0.13194,0.131607,-8.44353,4,0.0127419,10,-0.00111123,-2.07348,-0.0950381,-0.620804,204.242,0.131607,
2,0,0,1,0,7097.69,0.121952,0.121667,-10.2895,4,0.0118029,10,-0.0012519,-1.9876,-0.153431,-0.384538,154.051,0.121667,
2,0,0,1,0,7097.79,0.111964,0.111639,-11.4834,4,0.0107095,10,-0.00128199,-1.93993,-0.322997,-0.182664,81.7559,0.111639,
2,0,0,1,0,7097.89,0.101976,0.10163,-11.914,4,0.00953464,10,-0.00121082,-1.92394,-22.9688,-0.00256871,1.19232,0.10163,
2,0,0,1,0,7097.99,0.0919883,0.0916664,-11.5643,4,0.00835624,10,-0.00106005,-1.93688,0.418361,0.141027,-63.6579,0.0916664,
2,0,0,1,0,7098.09,0.0820004,0.0816958,-10.7072,4,0.00724287,10,-0.000874734,-1.97032,0.27432,0.215078,-89.867,0.0816958,
2,0,0,1,0,7098.19,0.0720124,0.0717102,-9.91776,4,0.00621577,10,-0.000711205,-2.00359,0.35205,0.16759,-64.9494,0.0717102,
2,0,0,1,0,7098.29,0.0620245,0.0616865,-9.42216,4,0.00525162,10,-0.00058122,-2.02585,0.493709,0.119504,-43.9733,0.0616865,
2,0,0,1,0,7098.39,0.0520366,0.0516776,-9.03734,4,0.00433009,10,-0.000467028,-2.04396,0.513681,0.114857,-40.4864,0.0516776,
2,0,0,1,0,7098.49,0.0420486,0.0417249,-8.63469,4,0.00344702,10,-0.000360281,-2.06375,0.528403,0.111657,-37.6868,0.0417249,
2,0,0,1,0,7098.59,0.0320607,0.0317302,-8.1872,4,0.00260674,10,-0.000259781,-2.08686,0.369624,0.159621,-50.9518,0.0317302,
2,0,0,1,0,7098.69,0.0220728,0.0217843,-7.62532,4,0.00181701,10,-0.000166112,-2.11774,0.308371,0.191328,-56.9614,0.0217843,
2,0,0,1,0,7098.79,0.0120848,0.0117333,-7.10947,4,0.0010821,10,-8.34176e-05,-2.14816,0.344199,0.171413,-47.6029,0.0117333,
2,0,0,1,0,7098.89,0.0020969,0.00174435,-6.82157,4,0.000390917,10,-1.18992e-05,-2.16612,0.927698,0.0635983,-16.8405,0.001744349,
2,0,0,1,0,7098.99,-0.00789103,-0.00826026,-6.62292,4,-0.000277843,10,5.4707e-05,-2.17895,3.05239,0.0193291,-5.00513,-0.00826026,
2,0,0,1,0,7099.09,-0.017879,-0.0182541,-6.65267,4,-0.000938929,10,0.000121439,-2.177,-1.35324,-0.0435992,11.3133,-0.0182541,
2,0,0,1,0,7099.19,-0.0278669,-0.028195,-6.77921,4,-0.00160888,10,0.00019114,-2.16882,-0.948909,-0.0621767,16.4714,-0.02819499,
2,0,0,1,0,7099.29,-0.0378548,-0.0382278,-7.00738,4,-0.00229686,10,0.000267877,-2.15444,-0.690572,-0.0854364,23.3495,-0.03822777,
2,0,0,1,0,7099.39,-0.0478428,-0.048156,-7.28228,4,-0.00301005,10,0.000350686,-2.13773,-0.465831,-0.126655,36.0301,-0.048156,
2,0,0,1,0,7099.49,-0.0578216,-0.0582154,-7.63998,4,-0.00375439,10,0.000444765,-2.11691,-0.460188,-0.128209,38.2159,-0.0582154,
2,0,0,1,0,7099.59,-0.0678187,-0.0681828,-8.0807,4,-0.00453867,10,0.000550965,-2.09255,-0.355767,-0.165839,52.2602,-0.0681828,
2,0,0,1,0,7099.69,-0.0778066,-0.0781435,-8.60036,4,-0.00537133,10,0.000672062,-2.06548,-0.352982,-0.167147,56.1651,-0.0781435,
2,0,0,1,0,7099.79,-0.0877945,-0.0881386,-9.23027,4,-0.00626178,10,0.000813543,-2.03479,-0.327613,-0.180091,64.8585,-0.0881386,
2,0,0,1,0,7099.89,-0.0977825,-0.0981041,-9.8506,4,-0.00721571,10,0.000966384,-2.00654,-0.370807,-0.159112,61.2143,-0.0981041,
2,0,0,1,1,7099.98,-0.0927386,-0.0930693,-1.09775,4,-0.00776013,10,0.000102167,-2.9595,-0.00172654,-34.1724,628.771,-0.0930693,
2,1,0,1,1,7100.08,-0.0827529,-0.0831287,2.62287,4,-0.00765134,10,-0.000218036,-2.58122,0.0265245,2.22436,222.144,-0.0831287,
2,1,0,1,1,7100.18,-0.0727627,-0.0731281,4.12486,4,-0.00730484,10,-0.000301643,-2.38459,0.0923761,0.638694,102.12,-0.0731281,
2,1,0,1,1,7100.28,-0.0627748,-0.0631265,4.84778,4,-0.00685306,10,-0.000306024,-2.31446,0.210182,0.280709,53.022,-0.0631265,
2,1,0,1,1,7100.38,-0.0527868,-0.0531163,5.23277,4,-0.00634751,10,-0.000277945,-2.28127,0.4669,0.126365,25.7573,-0.0531163,
2,1,0,1,1,7100.48,-0.0427989,-0.0431577,5.41635,4,-0.00581418,10,-0.000233757,-2.26629,0.788172,0.0748567,15.8299,-0.0431577,
2,1,0,1,1,7100.58,-0.0328109,-0.0331655,5.50318,4,-0.00526841,10,-0.000182516,-2.25939,3.40497,0.0173276,3.71764,-0.0331655,
2,1,0,1,1,7100.68,-0.022823,-0.0231343,5.51317,4,-0.00471838,10,-0.000127543,-2.2586,-13.5621,-0.00435034,-0.935036,-0.02313426,
2,1,0,1,1,7100.78,-0.0128351,-0.013152,5.48493,4,-0.00416914,10,-7.21378e-05,-2.26083,-5.21025,-0.0113238,-2.42371,-0.013152,
2,1,0,1,1,7100.88,-0.00284713,-0.00319548,5.46709,4,-0.00362187,10,-1.74699e-05,-2.26224,-9.57641,-0.00616097,-1.31412,-0.00319548,
2,1,0,1,1,7100.91,-2.55332e-05,-0.000363498,5.47606,4,-0.00346816,10,-1.99054e-06,-2.26153, , , ,-0.000363498,