File: Figure_codes/Fig_3-5/rawdata_trumpetplot_data/after 10th/20221101_1-115_003_TrumpetPlot_ParaChange_from10_every3_08_CV_C01_11.csv
mode,ox/red,error,control changes,counter inc.,time/s,control/V,Ewe/V,<I>/mA,cycle number,(Q-Qo)/C,I Range,P/W,log(|I|),Tafel slope mV/dec,alpha_eff,dI/d(E-IR),E-IR/V,
2,0,0,0,0,22846.5,2.44065e-05,-0.000344411,-4.05742,12,0.0000000E+000,10,1.39742e-06,-2.39175, , , ,-0.000344411,
2,1,0,1,0,22846.5,0.0072942,0.00699023,1.41554,12,-3.75516e-05,10,9.89493e-06,-2.84908,0.00981007,6.01423,285.567,0.00699023,
2,1,0,1,0,22846.6,0.0147816,0.0144374,2.65322,12,0.000164189,10,3.83054e-05,-2.57623,0.0585118,1.00834,103.697,0.0144374,
2,1,0,1,0,22846.7,0.0222707,0.0219475,3.23039,12,0.000443213,10,7.08991e-05,-2.49074,0.127944,0.461137,57.9334,0.0219475,
2,1,0,1,0,22846.8,0.0297581,0.0294339,3.62907,12,0.000765584,10,0.000106818,-2.4402,0.166739,0.353846,50.0178,0.02943385,
2,1,0,1,0,22846.9,0.0372544,0.0369792,3.98327,12,0.0011235,10,0.000147298,-2.39976,0.200596,0.294123,45.693,0.0369792,
2,1,0,1,0,22847,0.0447507,0.0444569,4.32748,12,0.00151439,10,0.000192386,-2.36377,0.228107,0.258651,43.6923,0.0444569,
2,1,0,1,0,22847.1,0.0522381,0.0519477,4.66411,12,0.0019364,10,0.00024229,-2.33123,0.23816,0.247732,45.0095,0.0519477,
2,1,0,1,0,22847.2,0.0597273,0.0594275,4.97356,12,0.00238887,10,0.000295566,-2.30333,0.274362,0.215044,41.757,0.0594275,
2,1,0,1,0,22847.3,0.0672147,0.0668913,5.26798,12,0.00286964,10,0.000352382,-2.27836,0.328654,0.17952,36.8962,0.0668913,
2,1,0,1,0,22847.4,0.0747038,0.0744394,5.54116,12,0.0033767,10,0.00041248,-2.2564,0.394861,0.14942,32.2762,0.0744394,
2,1,0,1,0,22847.5,0.0822055,0.0819264,5.76305,12,0.00390822,10,0.000472145,-2.23935,0.439575,0.134221,30.1947,0.0819264,
2,1,0,1,0,22847.6,0.0896946,0.089414,5.97293,12,0.00445924,10,0.000534064,-2.22381,0.498634,0.118323,27.6413,0.089414,
2,1,0,1,0,22847.7,0.097182,0.0968591,6.24575,12,0.00503211,10,0.000604958,-2.20442,0.334329,0.176473,43.0396,0.09685912,
2,1,0,1,0,22847.8,0.104671,0.104374,6.62785,12,0.00563439,10,0.000691778,-2.17863,0.227576,0.259254,67.098,0.104374,
2,1,0,1,0,22847.9,0.112159,0.111851,7.13424,12,0.00627938,10,0.000797973,-2.14665,0.241289,0.24452,68.1001,0.111851,
2,1,0,1,0,22847.9,0.119655,0.11932,7.6724,12,0.00697445,10,0.00091547,-2.11507,0.286313,0.206068,61.5933,0.11932,
2,1,0,1,0,22848,0.127149,0.12686,8.06668,12,0.00771367,10,0.00102334,-2.09331,0.399423,0.147713,46.4896,0.12686,
2,1,0,1,0,22848.1,0.134639,0.134333,8.3511,12,0.00848445,10,0.00112183,-2.07826,0.653579,0.0902722,29.4497,0.134333,
2,1,0,1,0,22848.2,0.142126,0.14181,8.53849,12,0.00927751,10,0.00121084,-2.06862,3.17537,0.0185805,6.17775,0.14181,
2,1,0,1,0,22848.3,0.149615,0.149288,8.33698,12,0.0100726,10,0.00124461,-2.07899,-0.281047,-0.209929,-67.9796,0.149288,
2,1,0,1,0,22848.4,0.157103,0.156763,7.39655,12,0.0108156,10,0.00115951,-2.13097,-0.10134,-0.582199,-167.541,0.156763,
2,1,0,1,0,22848.5,0.164606,0.1643,6.04734,12,0.0114472,10,0.00099358,-2.21844,-0.0800756,-0.736804,-174.015,0.1643004,
2,1,0,1,0,22848.6,0.172095,0.171768,4.98674,12,0.0119608,10,0.000856564,-2.30218,-0.103552,-0.569763,-111.237,0.171768,
2,1,0,1,0,22848.7,0.179582,0.179299,4.3446,12,0.0123962,10,0.000778984,-2.36205,-0.160182,-0.368332,-62.7024,0.179299,
2,1,0,1,0,22848.8,0.18707,0.186764,3.96543,12,0.012785,10,0.000740602,-2.40171,-0.22422,-0.263134,-40.7686,0.186764,
2,1,0,1,0,22848.9,0.194559,0.194301,3.73065,12,0.0131451,10,0.000724868,-2.42822,-0.336125,-0.17553,-25.5354,0.194301,
2,1,0,1,0,22849,0.202062,0.201766,3.55974,12,0.0134873,10,0.000718233,-2.44858,-0.506413,-0.116506,-16.1882,0.201766,
2,1,0,1,0,22849.1,0.20955,0.209265,3.45328,12,0.0138163,10,0.000722649,-2.46177,-0.508236,-0.116088,-15.6299,0.209265,
2,1,0,1,0,22849.2,0.217039,0.216753,3.37034,12,0.0141362,10,0.000730529,-2.47233,-0.919459,-0.0641682,-8.43507,0.216753,
2,1,0,1,0,22849.3,0.224526,0.224237,3.30363,12,0.0144496,10,0.000740796,-2.48101,-1.642,-0.0359318,-4.63585,0.224237,
2,1,0,1,0,22849.4,0.232016,0.231708,3.25623,12,0.0147578,10,0.000754496,-2.48728,-1.27034,-0.0464442,-5.90235,0.2317083,
2,1,0,1,0,22849.4,0.23951,0.239255,3.22348,12,0.0150622,10,0.000771236,-2.49167,-1.65892,-0.0355653,-4.46486,0.239255,
2,1,0,1,0,22849.5,0.247006,0.246748,3.18168,12,0.0153633,10,0.000785074,-2.49734,-2.09002,-0.0282294,-3.50528,0.246748,
2,1,0,1,0,22849.6,0.254494,0.254232,3.15284,12,0.0156609,10,0.000801552,-2.5013,-1.2112,-0.0487122,-5.99375,0.254232,
2,1,0,1,0,22849.7,0.261983,0.26166,3.12555,12,0.0159559,10,0.00081783,-2.50507,-1.76756,-0.0333793,-4.07117,0.26166,
2,1,0,1,0,22849.8,0.26947,0.269182,3.10084,12,0.0162483,10,0.000834692,-2.50852,-4.32426,-0.013644,-1.6495,0.269182,
2,1,0,1,0,22849.9,0.276959,0.276646,3.06895,12,0.0165382,10,0.000849012,-2.51301,-1.64478,-0.0358712,-4.30105,0.276646,
2,1,0,1,0,22850,0.284461,0.284161,3.0456,12,0.016826,10,0.00086544,-2.51633,-1.97203,-0.0299185,-3.55201,0.284161,
2,1,0,1,0,22850.1,0.29195,0.291618,3.01724,12,0.0171106,10,0.000879883,-2.52039,-3.97888,-0.0148283,-1.74463,0.291618,
2,1,0,1,0,22850.2,0.299438,0.29921,2.9799,12,0.0173926,10,0.000891617,-2.5258,-0.0247874,-2.38024,-250.724,0.29921,
2,0,0,1,0,22850.3,0.29424,0.293862,-0.606948,12,0.0174452,10,-0.000178359,-3.21685,-0.00541616,-10.8933,176.233,0.2938624,
2,0,0,1,0,22850.4,0.286753,0.286445,-1.23079,12,0.0173519,10,-0.000352553,-2.90982,-0.0592795,-0.995285,47.2995,0.2864449,
2,0,0,1,0,22850.5,0.279264,0.278945,-1.49288,12,0.0172224,10,-0.000416431,-2.82598,-0.140011,-0.421397,24.4858,0.278945,
2,0,0,1,0,22850.6,0.271776,0.271447,-1.67095,12,0.0170733,10,-0.000453574,-2.77704,-0.162436,-0.363219,23.656,0.271447,
2,0,0,1,0,22850.6,0.26428,0.263988,-1.80622,12,0.0169093,10,-0.00047682,-2.74323,-0.210624,-0.280119,19.741,0.263988,
2,0,0,1,0,22850.7,0.256786,0.256456,-1.91841,12,0.0167335,10,-0.000491986,-2.71706,-0.338274,-0.174415,13.0801,0.256456,
2,0,0,1,0,22850.8,0.249296,0.248941,-2.02536,12,0.0165477,10,-0.000504195,-2.6935,-0.443859,-0.132925,10.4908,0.248941,
2,0,0,1,0,22850.9,0.241809,0.241479,-2.11219,12,0.0163528,10,-0.000510049,-2.67527,-0.331305,-0.178084,14.7182,0.241479,
2,0,0,1,0,22851,0.23432,0.234008,-2.19915,12,0.0161496,10,-0.00051462,-2.65774,-0.544086,-0.108439,9.33197,0.2340083,
2,0,0,1,0,22851.1,0.226832,0.226552,-2.29118,12,0.0159385,10,-0.000519071,-2.63994,-0.443828,-0.132934,11.8585,0.226552,
2,0,0,1,0,22851.2,0.219329,0.218985,-2.37217,12,0.0157193,10,-0.000519471,-2.62485,-0.382715,-0.154162,14.2191,0.218985,
2,0,0,1,0,22851.3,0.21184,0.211529,-2.44622,12,0.015493,10,-0.000517446,-2.61151,-0.626153,-0.0942261,8.99476,0.211529,
2,0,0,1,0,22851.4,0.204353,0.204069,-2.53762,12,0.0152591,10,-0.00051785,-2.59557,-0.879614,-0.0670749,6.62668,0.2040695,
2,0,0,1,0,22851.5,0.196863,0.196585,-2.6135,12,0.0150173,10,-0.000513774,-2.58278,-0.409934,-0.143926,14.6969,0.196585,
2,0,0,1,0,22851.6,0.189376,0.189028,-2.70798,12,0.0147671,10,-0.000511884,-2.56736,-0.516934,-0.114135,12.0938,0.189028,
2,0,0,1,0,22851.7,0.18188,0.181587,-2.8248,12,0.0145071,10,-0.000512947,-2.54901,-0.414671,-0.142281,15.6533,0.181587,
2,0,0,1,0,22851.8,0.174385,0.174057,-2.95646,12,0.0142357,10,-0.000514592,-2.52923,-0.307109,-0.192114,22.1649,0.174057,
2,0,0,1,0,22851.9,0.166896,0.166553,-3.13186,12,0.0139505,10,-0.000521621,-2.5042,-0.248893,-0.23705,28.9336,0.166553,
2,0,0,1,0,22852,0.159409,0.159076,-3.37256,12,0.013646,10,-0.000536492,-2.47204,-0.218691,-0.269787,35.503,0.1590756,
2,0,0,1,0,22852.1,0.151919,0.151591,-3.74019,12,0.0133136,10,-0.000566981,-2.42711,-0.1411,-0.418142,61.2002,0.151591,
2,0,0,1,0,22852.1,0.144425,0.144112,-4.32241,12,0.0129367,10,-0.000622913,-2.36427,-0.0979521,-0.602335,101.956,0.144112,
2,0,0,1,0,22852.2,0.136929,0.136635,-5.21043,12,0.012491,10,-0.000711929,-2.28313,-0.0884825,-0.666798,135.654,0.136635,
2,0,0,1,0,22852.3,0.129441,0.129104,-6.27784,12,0.011953,10,-0.000810493,-2.20219,-0.0977416,-0.603632,147.604,0.129104,
2,0,0,1,0,22852.4,0.121952,0.121664,-7.27525,12,0.0113162,10,-0.000885137,-2.13815,-0.140054,-0.421266,119.317,0.121664,
2,0,0,1,0,22852.5,0.114465,0.114172,-8.02574,12,0.010597,10,-0.000916318,-2.09551,-0.235388,-0.25065,78.4195,0.114172,
2,0,0,1,0,22852.6,0.106976,0.106674,-8.49796,12,0.00982072,10,-0.000906512,-2.07069,-0.461623,-0.12781,42.3173,0.106674,
2,0,0,1,0,22852.7,0.0994721,0.0991745,-8.64199,12,0.00901346,10,-0.000857065,-2.06339,-13.855,-0.00425838,1.43488,0.0991745,
2,0,0,1,0,22852.8,0.0919847,0.0916381,-8.47258,12,0.00820921,10,-0.000776411,-2.07198,0.494225,0.119379,-39.458,0.0916381,
2,0,0,1,0,22852.9,0.0844973,0.0841732,-8.11551,12,0.00743113,10,-0.000683108,-2.09068,0.35504,0.166179,-52.61,0.08417321,
2,0,0,1,0,22853,0.0770082,0.0766907,-7.74567,12,0.0066891,10,-0.00059402,-2.11094,0.433475,0.136109,-41.1406,0.0766907,
2,0,0,1,0,22853.1,0.0695208,0.069188,-7.46818,12,0.0059768,10,-0.000516708,-2.12679,0.565445,0.104343,-30.4546,0.069188,
2,0,0,1,0,22853.2,0.0620245,0.0617262,-7.27366,12,0.00528509,10,-0.000448976,-2.13825,0.610025,0.0967174,-27.4663,0.0617262,
2,0,0,1,0,22853.3,0.0545282,0.0542368,-7.09067,12,0.00461122,10,-0.000384575,-2.14931,0.874421,0.0674732,-18.6743,0.0542368,
2,0,0,1,0,22853.4,0.0470408,0.0467307,-6.89335,12,0.0039555,10,-0.000322131,-2.16157,0.56713,0.104033,-28.006,0.0467307,
2,0,0,1,0,22853.5,0.0395517,0.0392158,-6.69745,12,0.00331875,10,-0.000262645,-2.17409,0.493431,0.119571,-31.1869,0.0392158,
2,0,0,1,0,22853.6,0.0320643,0.0317189,-6.4494,12,0.00270284,10,-0.000204568,-2.19048,0.425983,0.138503,-34.8571,0.0317189,
2,0,0,1,0,22853.6,0.0245751,0.0242326,-6.16904,12,0.00211091,10,-0.000149491,-2.20978,0.388748,0.151769,-36.6061,0.0242326,
2,0,0,1,0,22853.7,0.0170735,0.0167142,-5.89723,12,0.00154374,10,-9.85675e-05,-2.22935,0.365478,0.161433,-37.2049,0.0167142,
2,0,0,1,0,22853.8,0.00958429,0.00923708,-5.66656,12,0.00100181,10,-5.23425e-05,-2.24668,0.545624,0.108133,-23.9028,0.00923708,
2,0,0,1,0,22853.9,0.0020969,0.00174326,-5.53934,12,0.000479131,10,-9.65654e-06,-2.25654,1.31573,0.0448419,-9.63952,0.00174326,
2,0,0,1,0,22854,0.000199195,-0.000145903,-5.48919,12,0.0003483,10,8.00888e-07,-2.26049, , , ,-0.000145903,