File: Figure_codes/Fig_3-5/rawdata_trumpetplot_data/after 10th/20221101_1-115_003_TrumpetPlot_ParaChange_from10_every3_09_CV_C01_16.csv
mode,ox/red,error,control changes,counter inc.,time/s,control/V,Ewe/V,<I>/mA,cycle number,(Q-Qo)/C,I Range,P/W,log(|I|),Tafel slope mV/dec,alpha_eff,dI/d(E-IR),E-IR/V,
2,0,0,0,0,32704.6,2.44065e-05,-0.000497109,-5.29259,17,0.0000000E+000,10,2.631e-06,-2.27633, , , ,-0.000497109,
2,1,0,1,0,32704.7,0.00978761,0.00947428,1.69806,17,-6.41172e-05,10,1.60879e-05,-2.77005,0.0127587,4.62431,280.464,0.00947428,
2,1,0,1,0,32704.8,0.0197755,0.0194583,3.36289,17,0.00020326,10,6.54361e-05,-2.47329,0.0759139,0.777196,101.593,0.0194583,
2,1,0,1,0,32704.9,0.0297635,0.0294669,4.16308,17,0.000583186,10,0.000122673,-2.38059,0.150412,0.392256,63.5309,0.0294669,
2,1,0,1,0,32705,0.0397514,0.0394062,4.74765,17,0.00102989,10,0.000187087,-2.32352,0.179304,0.329051,61.0574,0.0394062,
2,1,0,1,0,32705.1,0.0497484,0.0494613,5.30137,17,0.00153292,10,0.000262213,-2.27561,0.240742,0.245075,50.6212,0.0494613,
2,1,0,1,0,32705.2,0.0597273,0.0593802,5.8006,17,0.00208763,10,0.000344441,-2.23653,0.263935,0.22354,50.564,0.0593802,
2,1,0,1,0,32705.3,0.0697152,0.0694002,6.25747,17,0.00269145,10,0.00043427,-2.2036,0.345169,0.170931,41.7822,0.0694002,
2,1,0,1,0,32705.4,0.0797031,0.0793551,6.67228,17,0.00333891,10,0.000529479,-2.17573,0.41484,0.142224,37.0201,0.0793551,
2,1,0,1,0,32705.5,0.0896911,0.0893095,7.01567,17,0.00402414,10,0.000626566,-2.15393,0.442339,0.133382,36.5867,0.0893095,
2,1,0,1,0,32705.6,0.099679,0.0993677,7.42816,17,0.00474453,10,0.000738119,-2.12912,0.365313,0.161505,46.7443,0.09936773,
2,1,0,1,0,32705.7,0.109667,0.10935,8.02958,17,0.00551504,10,0.000878031,-2.09531,0.261088,0.225977,70.8679,0.10935,
2,1,0,1,0,32705.8,0.119655,0.119309,8.81697,17,0.00635696,10,0.00105194,-2.05468,0.284517,0.207369,71.3268,0.119309,
2,1,0,1,0,32705.9,0.129643,0.129303,9.47316,17,0.00727329,10,0.00122491,-2.02351,0.405231,0.145596,53.7682,0.129303,
2,1,0,1,0,32706,0.139631,0.13934,9.88455,17,0.00824309,10,0.00137732,-2.00504,0.79727,0.0740026,28.5222,0.1393403,
2,1,0,1,0,32706.1,0.149619,0.149299,9.89315,17,0.00923646,10,0.00147704,-2.00467,-0.55709,-0.105908,-40.7667,0.149299,
2,1,0,1,0,32706.2,0.159607,0.159257,8.78451,17,0.010181,10,0.00139899,-2.05628,-0.111837,-0.527555,-180.419,0.1592568,
2,1,0,1,0,32706.3,0.169595,0.169306,6.90181,17,0.0109647,10,0.00116852,-2.16104,-0.0908747,-0.649246,-174.896,0.169306,
2,1,0,1,0,32706.4,0.179582,0.179266,5.55059,17,0.0115809,10,0.000995031,-2.25566,-0.130744,-0.451263,-98.106,0.179266,
2,1,0,1,0,32706.5,0.18957,0.189253,4.84342,17,0.0120974,10,0.000916634,-2.31485,-0.215422,-0.273882,-51.8326,0.189253,
2,1,0,1,0,32706.6,0.199558,0.199232,4.45446,17,0.0125601,10,0.000887472,-2.3512,-0.366462,-0.160999,-27.9497,0.199232,
2,1,0,1,0,32706.7,0.209546,0.209247,4.22389,17,0.0129929,10,0.000883836,-2.37429,-0.447649,-0.1318,-21.7089,0.209247,
2,1,0,1,0,32706.8,0.219534,0.219207,4.06238,17,0.0134066,10,0.000890503,-2.39122,-0.796403,-0.0740831,-11.7521,0.219207,
2,1,0,1,0,32706.9,0.229522,0.229191,3.95364,17,0.0138077,10,0.00090614,-2.403,-0.903918,-0.0652714,-10.078,0.229191,
2,1,0,1,0,32707,0.23951,0.239196,3.88239,17,0.0141998,10,0.000928651,-2.4109,-2.08028,-0.0283616,-4.29951,0.239196,
2,1,0,1,0,32707.1,0.249498,0.249203,3.82482,17,0.0145851,10,0.000953157,-2.41739,-1.8205,-0.0324087,-4.837,0.249203,
2,1,0,1,0,32707.2,0.259486,0.259196,3.77746,17,0.0149655,10,0.000979102,-2.4228,-1.14581,-0.0514918,-7.58661,0.259196,
2,1,0,1,0,32707.3,0.269474,0.269161,3.72717,17,0.0153411,10,0.00100321,-2.42862,-2.64276,-0.0223251,-3.25148,0.2691614,
2,1,0,1,0,32707.4,0.279462,0.279161,3.68669,17,0.0157126,10,0.00102918,-2.43336,-1.44398,-0.0408594,-5.88052,0.279161,
2,1,0,1,0,32707.5,0.28945,0.289136,3.64331,17,0.0160795,10,0.00105341,-2.4385,-4.99134,-0.0118205,-1.68164,0.289136,
2,1,0,1,0,32707.6,0.299438,0.299171,3.60391,17,0.0164421,10,0.00107819,-2.44323,-0.0298454,-1.97685,-255.239,0.299171,
2,0,0,1,0,32707.7,0.291747,0.291438,-0.910853,17,0.0164962,10,-0.000265457,-3.04055,-0.0121834,-4.84264,155.484,0.291438,
2,0,0,1,0,32707.8,0.281759,0.281445,-1.70631,17,0.0163573,10,-0.000480232,-2.76794,-0.0871636,-0.676888,44.7213,0.281445,
2,0,0,1,0,32707.9,0.271771,0.271433,-2.04294,17,0.0161688,10,-0.000554522,-2.68974,-0.154978,-0.3807,30.2371,0.271433,
2,0,0,1,0,32708,0.261783,0.261408,-2.26895,17,0.0159529,10,-0.000593122,-2.64417,-0.289983,-0.20346,17.9695,0.261408,
2,0,0,1,0,32708.1,0.251795,0.251464,-2.442,17,0.0157173,10,-0.000614076,-2.61225,-0.343482,-0.17177,16.3833,0.251464,
2,0,0,1,0,32708.2,0.241807,0.2415,-2.58875,17,0.0154653,10,-0.000625183,-2.58691,-0.397738,-0.148339,15.0288,0.2415,
2,0,0,1,0,32708.3,0.231815,0.231495,-2.7332,17,0.0151992,10,-0.000632722,-2.56333,-0.448315,-0.131604,14.0287,0.231495,
2,0,0,1,0,32708.4,0.221831,0.221482,-2.85811,17,0.0149202,10,-0.000633021,-2.54392,-0.471852,-0.125039,13.9408,0.221482,
2,0,0,1,0,32708.5,0.211843,0.211525,-2.98381,17,0.0146283,10,-0.000631149,-2.52523,-0.615855,-0.0958017,11.1554,0.211525,
2,0,0,1,0,32708.6,0.201856,0.201522,-3.1114,17,0.0143239,10,-0.000627015,-2.50704,-0.590034,-0.0999943,12.139,0.201522,
2,0,0,1,0,32708.7,0.191868,0.191519,-3.24631,17,0.0140063,10,-0.00062173,-2.48861,-0.506127,-0.116572,14.804,0.191519,
2,0,0,1,0,32708.8,0.18188,0.181582,-3.41447,17,0.0136745,10,-0.000620005,-2.46668,-0.404964,-0.145692,19.3547,0.181582,
2,0,0,1,0,32708.9,0.171892,0.171598,-3.60379,17,0.0133247,10,-0.000618404,-2.44324,-0.375816,-0.156992,22.0983,0.171598,
2,0,0,1,0,32709,0.161904,0.161546,-3.8905,17,0.0129513,10,-0.000628495,-2.40999,-0.264718,-0.222879,33.8383,0.161546,
2,0,0,1,0,32709.1,0.151916,0.151583,-4.34478,17,0.0125419,10,-0.000658595,-2.36203,-0.170429,-0.346186,58.8819,0.151583,
2,0,0,1,0,32709.2,0.141928,0.141596,-5.19062,17,0.0120699,10,-0.000734971,-2.28478,-0.104313,-0.565604,114.665,0.141596,
2,0,0,1,0,32709.3,0.13194,0.131639,-6.54926,17,0.0114884,10,-0.000862135,-2.18381,-0.0957985,-0.615876,157.255,0.131639,
2,0,0,1,0,32709.4,0.121952,0.121621,-8.03779,17,0.010759,10,-0.00097756,-2.09486,-0.138844,-0.424939,133.068,0.121621,
2,0,0,1,0,32709.5,0.111964,0.111673,-9.20373,17,0.0098947,10,-0.00102781,-2.03604,-0.226064,-0.260988,93.6341,0.111673,
2,0,0,1,0,32709.6,0.101976,0.101595,-9.89624,17,0.0089362,10,-0.00100541,-2.00453,-0.593728,-0.0993722,38.3228,0.1015953,
2,0,0,1,0,32709.7,0.0919883,0.0916722,-9.99882,17,0.00793761,10,-0.000916614,-2.00005,1.4458,0.0408079,-15.9192,0.0916722,
2,0,0,1,0,32709.8,0.0820004,0.0816875,-9.61729,17,0.00695635,10,-0.000785612,-2.01695,0.429468,0.137379,-51.5283,0.0816875,
2,0,0,1,0,32709.9,0.0720124,0.0716972,-9.14697,17,0.00602048,10,-0.000655812,-2.03872,0.54074,0.10911,-38.9771,0.0716972,
2,0,0,1,0,32710,0.0620245,0.0617055,-8.81783,17,0.00512426,10,-0.000544109,-2.05464,0.699437,0.0843536,-29.0366,0.0617055,
2,0,0,1,0,32710.1,0.0520366,0.0517267,-8.55033,17,0.0042573,10,-0.00044228,-2.06802,0.64861,0.0909638,-30.3199,0.0517267,
2,0,0,1,0,32710.2,0.0420486,0.0416896,-8.24837,17,0.00341861,10,-0.000343871,-2.08363,0.666622,0.088506,-28.5073,0.0416896,
2,0,0,1,0,32710.3,0.0320607,0.0317206,-7.91112,17,0.00261207,10,-0.000250946,-2.10176,0.476202,0.123897,-38.2122,0.0317206,
2,0,0,1,0,32710.4,0.0220728,0.0217179,-7.49933,17,0.00184256,10,-0.00016287,-2.12498,0.408572,0.144405,-42.261,0.0217179,
2,0,0,1,0,32710.5,0.0120848,0.0117574,-7.08796,17,0.00111483,10,-8.33357e-05,-2.14948,0.402974,0.146411,-40.527,0.0117574,
2,0,0,1,0,32710.6,0.0020969,0.00173611,-6.82179,17,0.000424063,10,-1.18434e-05,-2.1661,0.883404,0.0667871,-17.6766,0.00173611,
2,0,0,1,0,32710.7,-0.00789103,-0.00826731,-6.59172,17,-0.000243504,10,5.44958e-05,-2.181,1.30296,0.0452816,-11.6788,-0.00826731,
2,0,0,1,0,32710.8,-0.017879,-0.0182558,-6.57183,17,-0.000899219,10,0.000119974,-2.18231,-3.20285,-0.0184211,4.72227,-0.0182558,
2,0,0,1,0,32710.9,-0.0278669,-0.0282592,-6.65365,17,-0.00155834,10,0.000188027,-2.17694,-1.37139,-0.0430221,11.1781,-0.02825919,
2,0,0,1,0,32711,-0.0378548,-0.0382132,-6.82372,17,-0.00223045,10,0.000260757,-2.16598,-0.786697,-0.0749971,19.96,-0.0382132,
2,0,0,1,0,32711.1,-0.0478428,-0.0482302,-7.05794,17,-0.00292317,10,0.000340406,-2.15132,-0.50128,-0.117699,32.4691,-0.0482302,
2,0,0,1,0,32711.2,-0.0578216,-0.058189,-7.36769,17,-0.00364248,10,0.000428719,-2.13267,-0.475694,-0.124029,35.6559,-0.058189,
2,0,0,1,0,32711.3,-0.0678187,-0.0681957,-7.74735,17,-0.0043965,10,0.000528336,-2.11085,-0.417039,-0.141474,42.7743,-0.0681957,
2,0,0,1,0,32711.4,-0.0778066,-0.0781639,-8.20517,17,-0.00519238,10,0.000641347,-2.08591,-0.38685,-0.152514,48.8749,-0.07816387,
2,0,0,1,0,32711.5,-0.0877945,-0.0881552,-8.74947,17,-0.00603841,10,0.000771311,-2.05802,-0.36347,-0.162324,55.4205,-0.0881552,
2,0,0,1,0,32711.6,-0.0977825,-0.0981409,-9.30604,17,-0.00694015,10,0.000913303,-2.03124,-0.363773,-0.162189,58.9414,-0.0981409,
2,0,0,1,1,32711.7,-0.0927386,-0.0930962,-2.33665,17,-0.00751328,10,0.000217533,-2.63141,-0.00929307,-6.34882,560.013,-0.0930962,
2,1,0,1,1,32711.8,-0.0827529,-0.0831331,1.33599,17,-0.00753807,10,-0.000111065,-2.8742,0.0115706,5.09914,246.49,-0.0831331,
2,1,0,1,1,32711.9,-0.0727627,-0.0731186,3.18023,17,-0.00730263,10,-0.000232534,-2.49754,0.0534954,1.1029,135.649,-0.0731186,
2,1,0,1,1,32712,-0.0627748,-0.0630701,4.21766,17,-0.0069278,10,-0.000266009,-2.37493,0.122791,0.480493,78.8958,-0.0630701,
2,1,0,1,1,32712.1,-0.0527868,-0.0531536,4.8118,17,-0.00647331,10,-0.000255765,-2.31769,0.255981,0.230486,43.2048,-0.0531536,
2,1,0,1,1,32712.2,-0.0427989,-0.0431195,5.14498,17,-0.00597354,10,-0.000221849,-2.28862,0.446148,0.132243,26.551,-0.0431195,
2,1,0,1,1,32712.3,-0.0328109,-0.0331772,5.31584,17,-0.00545,10,-0.000176365,-2.27443,1.19363,0.0494291,10.2371,-0.0331772,
2,1,0,1,1,32712.4,-0.022823,-0.0231666,5.36651,17,-0.00491553,10,-0.000124324,-2.27031,9.62866,0.00612754,1.28318,-0.0231666,
2,1,0,1,1,32712.5,-0.0128351,-0.0131919,5.36066,17,-0.0043787,10,-7.07173e-05,-2.27078,-5.13039,-0.0115001,-2.40815,-0.0131919,
2,1,0,1,1,32712.6,-0.00284713,-0.00320336,5.34803,17,-0.00384308,10,-1.71317e-05,-2.27181,-3.79847,-0.0155326,-3.23858,-0.00320336,
2,1,0,1,1,32712.6,-2.55332e-05,-0.000363498,5.35331,17,-0.00369289,10,-1.94592e-06,-2.27138, , , ,-0.000363498,