File: Figure_codes/Fig_3-5/rawdata_trumpetplot_data/after 10th/20221101_1-115_003_TrumpetPlot_ParaChange_from10_every3_13_CV_C01_15.csv
mode,ox/red,error,control changes,counter inc.,time/s,control/V,Ewe/V,<I>/mA,cycle number,(Q-Qo)/C,I Range,P/W,log(|I|),Tafel slope mV/dec,alpha_eff,dI/d(E-IR),E-IR/V,
2,1,0,1,0,30749.8,2.44065e-05,-0.000306236,18.8912,16,0.0000000E+000,10,-5.78518e-06,-1.72374, , , ,-0.000306236,
2,1,0,1,0,30749.8,0.0122624,0.0119192,23.0049,16,0.000321395,10,0.0002742,-1.63818,0.205362,0.287298,256.033,0.01191919,
2,1,0,1,0,30749.8,0.0250636,0.0247162,25.8531,16,0.000713445,10,0.000638989,-1.58749,0.29617,0.19921,200.333,0.0247162,
2,1,0,1,0,30749.9,0.0378703,0.037492,28.2054,16,0.00114661,10,0.00105748,-1.54967,0.376297,0.156791,172.314,0.037492,
2,1,0,1,0,30749.9,0.0506632,0.0503398,30.3065,16,0.00161518,10,0.00152562,-1.51846,0.436501,0.135166,159.782,0.05033984,
2,1,0,1,0,30749.9,0.0634672,0.0631241,32.3268,16,0.00211654,10,0.0020406,-1.49044,0.475198,0.124159,156.59,0.0631241,
2,1,0,1,0,30749.9,0.0762629,0.0758925,34.362,16,0.00265019,10,0.00260782,-1.46392,0.493688,0.119509,160.192,0.0758925,
2,1,0,1,0,30749.9,0.0890668,0.0887541,36.4434,16,0.00321666,10,0.0032345,-1.43838,0.502816,0.117339,166.853,0.0887541,
2,1,0,1,0,30749.9,0.10186,0.101496,38.5724,16,0.00381703,10,0.00391494,-1.41372,0.523169,0.112774,169.815,0.101496,
2,1,0,1,0,30750,0.114666,0.114283,40.7812,16,0.00445213,10,0.00466061,-1.38954,0.533581,0.110574,176.068,0.114283,
2,1,0,1,0,30750,0.127462,0.127116,43.0579,16,0.00512324,10,0.00547337,-1.36595,0.560795,0.105208,176.797,0.127116,
2,1,0,1,0,30750,0.140263,0.139854,45.5112,16,0.00583145,10,0.00636492,-1.34188,0.511558,0.115334,204.813,0.139854,
2,1,0,1,0,30750,0.153064,0.152674,48.1521,16,0.00658107,10,0.0073516,-1.31738,0.541211,0.109015,204.782,0.152674,
2,1,0,1,0,30750,0.165866,0.16548,50.7249,16,0.00737263,10,0.00839395,-1.29478,0.600076,0.0983209,194.495,0.16548,
2,1,0,1,0,30750,0.178667,0.178312,53.0336,16,0.00820353,10,0.00945651,-1.27545,0.753028,0.0783503,161.968,0.178312,
2,1,0,1,0,30750.1,0.191463,0.191097,54.794,16,0.00906751,10,0.010471,-1.26127,1.22771,0.048057,102.53,0.191097,
2,1,0,1,0,30750.1,0.204269,0.203921,55.5586,16,0.00995206,10,0.0113295,-1.25525,20.5168,0.00287569,6.21388,0.203921,
2,1,0,1,0,30750.1,0.217062,0.216744,54.9324,16,0.0108377,10,0.0119063,-1.26017,-1.21962,-0.0483759,-103.355,0.216744,
2,1,0,1,0,30750.1,0.229866,0.229575,52.9192,16,0.0117022,10,0.0121489,-1.27639,-0.595854,-0.0990176,-203.908,0.229575,
2,1,0,1,0,30750.1,0.242662,0.242358,49.7725,16,0.0125247,10,0.0120628,-1.30301,-0.41736,-0.141365,-274.156,0.242358,
2,1,0,1,0,30750.1,0.255466,0.25513,46.0619,16,0.0132915,10,0.0117518,-1.33666,-0.358118,-0.16475,-296.004,0.25513,
2,1,0,1,0,30750.1,0.268259,0.267912,42.3503,16,0.0139981,10,0.0113461,-1.37314,-0.352932,-0.167171,-276.45,0.267912,
2,1,0,1,0,30750.2,0.281065,0.280765,39.0433,16,0.0146483,10,0.010962,-1.40845,-0.378095,-0.156045,-238.02,0.280765,
2,1,0,1,0,30750.2,0.293861,0.293563,36.2281,16,0.0152496,10,0.0106352,-1.44095,-0.420663,-0.140255,-198.999,0.293563,
2,1,0,1,0,30750.2,0.298983,0.298849,32.8021,16,0.0155672,10,0.0098029,-1.4841,0.0382752,1.54147,1724.9,0.298849,
2,1,0,1,0,30750.2,0.286187,0.285953,16.283,16,0.0159419,10,0.00465617,-1.78827,0.0396869,1.48664,943.437,0.285953,
2,1,0,1,0,30750.2,0.273386,0.273108,6.64922,16,0.016119,10,0.00181595,-2.17723,0.0232122,2.54177,615.309,0.273108,
2,1,0,1,0,30750.2,0.260585,0.260297,0.0496848,16,0.016169,10,1.29328e-05,-4.30378,0.14384,0.410179,434.987,0.260297,
2,0,0,1,0,30750.3,0.247783,0.247455,-4.71755,16,0.0161293,10,-0.00116738,-2.32628,-0.0302165,-1.95258,322.823,0.247455,
2,0,0,1,0,30750.3,0.234982,0.234669,-8.30611,16,0.0160235,10,-0.00194919,-2.0806,-0.07557,-0.780733,247.102,0.234669,
2,0,0,1,0,30750.3,0.222187,0.221924,-11.1103,16,0.0158669,10,-0.00246565,-1.95427,-0.128744,-0.458272,196.894,0.2219242,
2,0,0,1,0,30750.3,0.20938,0.209084,-13.4041,16,0.0156699,10,-0.00280257,-1.87276,-0.189513,-0.311324,161.949,0.209084,
2,0,0,1,0,30750.3,0.196587,0.196277,-15.3321,16,0.0154395,10,-0.00300934,-1.8144,-0.24923,-0.23673,141.135,0.196277,
2,0,0,1,0,30750.3,0.183783,0.183488,-17.0335,16,0.0151801,10,-0.00312543,-1.7687,-0.304354,-0.193853,128.669,0.183488,
2,0,0,1,0,30750.3,0.170987,0.170707,-18.6259,16,0.0148946,10,-0.00317957,-1.72988,-0.341967,-0.172531,125.505,0.170707,
2,0,0,1,0,30750.4,0.158183,0.157883,-20.3104,16,0.014583,10,-0.00320667,-1.69228,-0.333546,-0.176887,140.404,0.157883,
2,0,0,1,0,30750.4,0.145385,0.145044,-22.2817,16,0.0142426,10,-0.00323182,-1.65205,-0.297111,-0.198579,173.113,0.145044,
2,0,0,1,0,30750.4,0.132584,0.132298,-24.8738,16,0.0138661,10,-0.00329074,-1.60426,-0.240538,-0.245283,238.913,0.132298,
2,0,0,1,0,30750.4,0.119783,0.119511,-28.3797,16,0.0134409,10,-0.00339169,-1.54699,-0.211697,-0.2787,309.338,0.119511,
2,0,0,1,0,30750.4,0.106987,0.106731,-32.6761,16,0.0129526,10,-0.00348756,-1.48577,-0.216158,-0.272948,347.761,0.106731,
2,0,0,1,0,30750.4,0.0941801,0.0938875,-37.1488,16,0.0123933,10,-0.00348781,-1.43006,-0.252247,-0.233897,338.217,0.0938875,
2,0,0,1,0,30750.5,0.0813844,0.0811574,-41.2776,16,0.0117651,10,-0.00334998,-1.38429,-0.309068,-0.190897,306.772,0.0811574,
2,0,0,1,0,30750.5,0.0685832,0.0683307,-44.8822,16,0.0110744,10,-0.00306683,-1.34793,-0.409305,-0.144147,251.767,0.0683307,
2,0,0,1,0,30750.5,0.0557876,0.055591,-47.6898,16,0.0103325,10,-0.00265112,-1.32157,-0.575781,-0.10247,190.33,0.055591,
2,0,0,1,0,30750.5,0.0429808,0.0426636,-49.7663,16,0.00955151,10,-0.00212321,-1.30306,-0.871555,-0.0676951,131.217,0.0426636,
2,0,0,1,0,30750.5,0.030188,0.0298994,-51.0924,16,0.00874357,10,-0.00152764,-1.29164,-1.4466,-0.0407853,81.2325,0.0298994,
2,0,0,1,0,30750.5,0.017384,0.017094,-51.889,16,0.00791886,10,-0.000886989,-1.28492,-2.73311,-0.0215871,43.6681,0.017094,
2,0,0,1,0,30750.6,0.00458834,0.00427366,-52.2348,16,0.00708528,10,-0.000223234,-1.28204,-8.428,-0.00700048,14.2626,0.00427366,
2,0,0,1,0,30750.6,-0.00821564,-0.00853499,-52.229,16,0.00624881,10,0.000445774,-1.28209,6.51317,0.00905857,-18.4466,-0.00853499,
2,0,0,1,0,30750.6,-0.0210196,-0.0213914,-51.7827,16,0.00541616,10,0.0011077,-1.28582,2.37771,0.0248138,-50.1046,-0.0213914,
2,0,0,1,0,30750.6,-0.0338153,-0.0341491,-50.9565,16,0.00459371,10,0.00174012,-1.2928,1.57027,0.0375732,-74.6946,-0.0341491,
2,0,0,1,0,30750.6,-0.0466193,-0.0469705,-49.9015,16,0.00378661,10,0.0023439,-1.30189,1.2902,0.0457294,-89.0425,-0.0469705,
2,0,0,1,0,30750.6,-0.0594121,-0.059777,-48.7881,16,0.00299725,10,0.00291641,-1.31169,1.37595,0.0428796,-81.6676,-0.059777,
2,0,0,1,0,30750.7,-0.0722189,-0.0725783,-47.8453,16,0.00222459,10,0.00347253,-1.32016,1.73029,0.0340983,-63.7038,-0.0725783,
2,0,0,1,0,30750.7,-0.0850146,-0.0854134,-47.1546,16,0.00146504,10,0.00402764,-1.32648,2.6504,0.0222608,-41.0076,-0.0854134,
2,0,0,1,0,30750.7,-0.0978158,-0.0981617,-46.7921,16,0.000713779,10,0.00459319,-1.32983,7.24716,0.00814112,-14.8835,-0.0981617,
2,0,0,1,0,30750.7,-0.110611,-0.110954,-46.7534,16,-3.42944e-05,10,0.0051875,-1.33019,-14.5223,-0.00406273,7.41978,-0.1109544,
2,0,0,1,0,30750.7,-0.123418,-0.123765,-47.0189,16,-0.000784183,10,0.0058193,-1.32773,-3.43548,-0.0171737,31.5311,-0.123765,
2,0,0,1,0,30750.7,-0.136214,-0.136563,-47.5289,16,-0.00154035,10,0.00649069,-1.32304,-2.27494,-0.0259348,48.1321,-0.136563,
2,0,0,1,0,30750.7,-0.149015,-0.149366,-48.229,16,-0.00230648,10,0.00720375,-1.31669,-1.84319,-0.0320097,60.2727,-0.149366,
2,0,0,1,0,30750.8,-0.161816,-0.162179,-49.016,16,-0.00308464,10,0.00794939,-1.30966,-1.83306,-0.0321866,61.584,-0.162179,
2,0,0,1,0,30750.8,-0.174615,-0.174933,-49.8081,16,-0.00387548,10,0.00871309,-1.3027,-1.95417,-0.0301919,58.675,-0.174933,
2,0,0,1,0,30750.8,-0.187419,-0.18772,-50.5359,16,-0.00467837,10,0.00948663,-1.2964,-2.18392,-0.0270157,53.2585,-0.18772,
2,0,0,1,0,30750.8,-0.199647,-0.200041,-51.1514,16,-0.00545647,10,0.0102324,-1.29114,0.264863,0.222757,-432.097,-0.200041,
2,0,0,1,1,30750.8,-0.192535,-0.192954,-38.629,16,-0.0059059,10,0.0074536,-1.41309,-0.0690133,-0.854907,1316.36,-0.192954,
2,0,0,1,1,30750.8,-0.179739,-0.180165,-25.809,16,-0.00641311,10,0.00464989,-1.58823,-0.0709014,-0.832141,838.934,-0.180165,
2,0,0,1,1,30750.9,-0.166932,-0.167319,-16.4817,16,-0.00674731,10,0.0027577,-1.783,-0.0578376,-1.0201,650.513,-0.167319,
2,0,0,1,1,30750.9,-0.154139,-0.154512,-8.94727,16,-0.00694818,10,0.00138246,-2.04831,-0.0369498,-1.59676,538.061,-0.154512,
2,0,0,1,1,30750.9,-0.141335,-0.141752,-2.55755,16,-0.00703835,10,0.000362538,-2.59218,-0.0101267,-5.82616,464.31,-0.1417518,
2,1,0,1,1,30750.9,-0.12854,-0.12896,3.00289,16,-0.00703334,10,-0.000387253,-2.52246,0.0101537,5.81068,410.589,-0.12896,
2,1,0,1,1,30750.9,-0.115736,-0.116212,7.95503,16,-0.0069444,10,-0.000924469,-2.09936,0.047826,1.23364,369.427,-0.116212,
2,1,0,1,1,30750.9,-0.102932,-0.103392,12.4757,16,-0.00677985,10,-0.00128988,-1.90394,0.0846496,0.696991,334.556,-0.103392,
2,1,0,1,1,30750.9,-0.0901361,-0.0905797,16.5797,16,-0.00654646,10,-0.00150178,-1.78042,0.123642,0.477185,306.396,-0.0905797,
2,1,0,1,1,30751,-0.0773322,-0.0777382,20.315,16,-0.00625051,10,-0.00157925,-1.69218,0.168123,0.350934,276.823,-0.0777382,
2,1,0,1,1,30751,-0.0645393,-0.0649243,23.694,16,-0.00589766,10,-0.00153832,-1.62536,0.215169,0.274203,252.767,-0.0649243,
2,1,0,1,1,30751,-0.0517325,-0.0521315,26.769,16,-0.00549309,10,-0.00139551,-1.57237,0.2686,0.219658,229.012,-0.0521315,
2,1,0,1,1,30751,-0.0389369,-0.0393525,29.5396,16,-0.00504183,10,-0.00116246,-1.5296,0.3348,0.176225,202.814,-0.03935254,
2,1,0,1,1,30751,-0.0261357,-0.0265587,32,16,-0.00454882,10,-0.000849879,-1.49485,0.408418,0.14446,180.122,-0.0265587,
2,1,0,1,1,30751,-0.01334,-0.0137352,34.1334,16,-0.00401911,10,-0.00046883,-1.46682,0.506956,0.116381,154.845,-0.0137352,
2,1,0,1,1,30751.1,-0.000774628,-0.00115244,35.9413,16,-0.00346841,10,-4.14202e-05,-1.44441, , , ,-0.001152441,
2,1,0,0,1,30751.1,-0.000125413,-0.000497109,36.0399,16,-0.00343963,10,-1.79158e-05,-1.44322, , , ,-0.000497109,