File: Figure_codes/Fig_3-5/rawdata_trumpetplot_data/after 10th/20221101_1-115_003_TrumpetPlot_ParaChange_from10_every3_03_CV_C01_28.csv
mode,ox/red,error,control changes,counter inc.,time/s,control/V,Ewe/V,<I>/mA,cycle number,(Q-Qo)/C,I Range,P/W,log(|I|),Tafel slope mV/dec,alpha_eff,dI/d(E-IR),E-IR/V,
2,0,0,1,0,56103.7,2.44065e-05,-0.000325324,-0.110843,29,0.0000000E+000,10,3.60597e-08,-3.95529, , , ,-0.000325324,
2,1,0,1,0,56105.1,0.00729041,0.00694554,0.196265,29,0.000238851,10,1.36316e-06,-3.70716,0.079863,0.738765,5.59963,0.00694554,
2,1,0,1,0,56106.6,0.0147815,0.0144112,0.22706,29,0.000576124,10,3.27221e-06,-3.64386,0.146176,0.403623,3.57953,0.0144112,
2,1,0,1,0,56108.1,0.0222725,0.0219187,0.253757,29,0.000955544,10,5.56204e-06,-3.59558,0.158408,0.372456,3.68762,0.0219187,
2,1,0,1,0,56109.6,0.0297635,0.0293853,0.279177,29,0.00137356,10,8.20369e-06,-3.55412,0.185689,0.317735,3.46046,0.0293853,
2,1,0,1,0,56111.1,0.0372545,0.0368802,0.304926,29,0.00183027,10,1.12457e-05,-3.51581,0.213626,0.276184,3.28929,0.03688015,
2,1,0,1,0,56112.6,0.0447456,0.0443827,0.33017,29,0.00232483,10,1.46538e-05,-3.48126,0.229318,0.257285,3.31181,0.0443827,
2,1,0,1,0,56114.1,0.0522367,0.0518893,0.351963,29,0.00285501,10,1.82631e-05,-3.4535,0.232663,0.253586,3.48416,0.05188933,
2,1,0,1,0,56115.6,0.0597277,0.0593526,0.373678,29,0.00341777,10,2.21788e-05,-3.4275,0.321516,0.183506,2.67136,0.0593526,
2,1,0,1,0,56117.1,0.0672187,0.0668371,0.392188,29,0.00400995,10,2.62127e-05,-3.40651,0.399299,0.147759,2.25201,0.0668371,
2,1,0,1,0,56118.6,0.0747092,0.0743634,0.406561,29,0.00462695,10,3.02333e-05,-3.39087,0.576631,0.102318,1.62121,0.0743634,
2,1,0,0,0,56120.1,0.0822001,0.0818477,0.419655,29,0.00526558,10,3.43478e-05,-3.37711,0.478005,0.12343,2.02665,0.0818477,
2,1,0,1,0,56121.6,0.0896911,0.0893575,0.440048,29,0.00592845,10,3.93216e-05,-3.3565,0.325689,0.181154,3.11596,0.0893575,
2,1,0,0,0,56123.1,0.097182,0.0968069,0.469885,29,0.00662795,10,4.54881e-05,-3.32801,0.19646,0.300315,5.50165,0.0968069,
2,1,0,1,0,56124.6,0.104673,0.104308,0.510128,29,0.00737973,10,5.32105e-05,-3.29232,0.224368,0.262961,5.21522,0.104308,
2,1,0,0,0,56126.1,0.112164,0.111811,0.543516,29,0.00818883,10,6.07709e-05,-3.26479,0.39058,0.151057,3.2025,0.111811,
2,1,0,1,0,56127.6,0.119655,0.119308,0.567936,29,0.00904205,10,6.77591e-05,-3.2457,0.720229,0.0819183,1.81593,0.119308,
2,1,0,0,0,56129.1,0.127146,0.126801,0.579674,29,0.00992269,10,7.35036e-05,-3.23682,1.67877,0.0351449,0.796719,0.126801,
2,1,0,1,0,56130.6,0.134637,0.134268,0.573769,29,0.0108119,10,7.70387e-05,-3.24126,-0.286861,-0.205675,-4.59503,0.134268,
2,1,0,1,0,56132.1,0.142127,0.141758,0.511682,29,0.0116511,10,7.25351e-05,-3.291,-0.102918,-0.573271,-11.3829,0.1417582,
2,1,0,1,0,56133.6,0.149618,0.149237,0.414848,29,0.0123634,10,6.19109e-05,-3.38211,-0.082922,-0.711512,-11.5557,0.149237,
2,1,0,1,0,56135.1,0.157109,0.156746,0.351735,29,0.0129503,10,5.5133e-05,-3.45378,-0.131652,-0.448151,-6.16466,0.156746,
2,1,0,1,0,56136.6,0.1646,0.16423,0.324311,29,0.013471,10,5.32617e-05,-3.48904,-0.306651,-0.192401,-2.43,0.16423,
2,1,0,1,0,56138.1,0.172091,0.171766,0.308138,29,0.0139615,10,5.29276e-05,-3.51125,-0.467967,-0.126077,-1.52601,0.1717657,
2,1,0,1,0,56139.6,0.179582,0.179223,0.301086,29,0.0144357,10,5.39615e-05,-3.52131,-1.04265,-0.0565864,-0.666204,0.179223,
2,1,0,1,0,56141.1,0.187074,0.186718,0.29672,29,0.0149009,10,5.54028e-05,-3.52765,-3.09201,-0.0190815,-0.220474,0.186718,
2,1,0,1,0,56142.6,0.194564,0.194255,0.292891,29,0.0153598,10,5.68955e-05,-3.53329,-5.40623,-0.0109133,-0.125052,0.194255,
2,1,0,1,0,56144.1,0.202056,0.201702,0.290248,29,0.0158137,10,5.85438e-05,-3.53723,-1.24916,-0.0472319,-0.533723,0.201702,
2,1,0,1,0,56145.6,0.209547,0.209214,0.287845,29,0.0162642,10,6.02213e-05,-3.54084,-0.820213,-0.0719325,-0.809599,0.209214,
2,1,0,1,0,56147.1,0.217038,0.216718,0.285299,29,0.0167105,10,6.18293e-05,-3.5447,-1.3317,-0.0443043,-0.494181,0.216718,
2,1,0,1,0,56148.6,0.224529,0.224169,0.283609,29,0.017154,10,6.35764e-05,-3.54728,-12.1744,-0.00484623,-0.0535743,0.224169,
2,1,0,1,0,56150.1,0.232019,0.231637,0.282322,29,0.0175947,10,6.53965e-05,-3.54925,-2.64425,-0.0223126,-0.245657,0.231637,
2,1,0,0,0,56151.6,0.23951,0.239178,0.281058,29,0.0180329,10,6.72228e-05,-3.5512,-3.85487,-0.0153053,-0.167755,0.239178,
2,1,0,1,0,56153.1,0.247001,0.246636,0.279235,29,0.018469,10,6.88693e-05,-3.55403,-2.00741,-0.0293912,-0.320385,0.246636,
2,1,0,0,0,56154.6,0.254492,0.254174,0.277571,29,0.0189027,10,7.05515e-05,-3.55663,-1.5666,-0.0376611,-0.408434,0.254174,
2,1,0,1,0,56156.1,0.261983,0.261616,0.276178,29,0.0193338,10,7.22527e-05,-3.55881,-1.63253,-0.0361401,-0.389493,0.261616,
2,1,0,0,0,56157.6,0.269474,0.269141,0.274055,29,0.0197623,10,7.37595e-05,-3.56216,10.1716,0.00580046,0.062097,0.269141,
2,1,0,1,0,56159.1,0.276965,0.27666,0.272191,29,0.0201883,10,7.53045e-05,-3.56513,22.8384,0.00258337,0.027489,0.27666,
2,1,0,0,0,56160.6,0.284456,0.284102,0.26993,29,0.0206115,10,7.66877e-05,-3.56875,-1.85938,-0.031731,-0.334666,0.284102,
2,1,0,1,0,56162.1,0.291947,0.291558,0.267978,29,0.0210316,10,7.8131e-05,-3.5719,-1.58417,-0.0372435,-0.391191,0.291558,
2,1,0,1,0,56163.5,0.299437,0.299094,0.266137,29,0.0214488,10,7.95999e-05,-3.57489,-0.00304434,-19.3802,-108.699,0.299094,
2,1,0,1,0,56164.9,0.293744,0.293329,-0.0146285,29,0.0214973,10,-4.29096e-06,-4.8348,-0.00286799,-20.5719,5.56343,0.293329,
2,0,0,1,0,56166.4,0.286253,0.285881,-0.0449088,29,0.021435,10,-1.28386e-05,-4.34767,-0.0330436,-1.78552,3.11699,0.285881,
2,0,0,0,0,56167.9,0.278763,0.278425,-0.0664683,29,0.0213342,10,-1.85064e-05,-4.17739,-0.0652611,-0.90406,2.33856,0.278425,
2,0,0,1,0,56169.4,0.271272,0.270916,-0.0833033,29,0.0212052,10,-2.25682e-05,-4.07934,-0.0750607,-0.786031,2.53523,0.270916,
2,0,0,0,0,56170.9,0.263781,0.263435,-0.0971297,29,0.0210528,10,-2.55873e-05,-4.01265,-0.140068,-0.421224,1.60144,0.263435,
2,0,0,1,0,56172.4,0.25629,0.255885,-0.109222,29,0.0208806,10,-2.79481e-05,-3.96169,-0.166317,-0.354744,1.50878,0.255885,
2,0,0,0,0,56173.9,0.248799,0.248411,-0.119553,29,0.0206916,10,-2.96982e-05,-3.92244,-0.195189,-0.302271,1.4159,0.248411,
2,0,0,1,0,56175.4,0.241308,0.240907,-0.129747,29,0.0204876,10,-3.12569e-05,-3.8869,-0.233253,-0.252945,1.28326,0.240907,
2,0,0,0,0,56176.9,0.233817,0.233419,-0.13933,29,0.0202695,10,-3.25223e-05,-3.85596,-0.250149,-0.235859,1.2737,0.233419,
2,0,0,1,0,56178.4,0.226326,0.225986,-0.146725,29,0.0200381,10,-3.31578e-05,-3.83349,-0.263586,-0.223836,1.29049,0.225986,
2,0,0,0,0,56179.9,0.218835,0.218483,-0.156385,29,0.0197938,10,-3.41675e-05,-3.8058,-0.306511,-0.192489,1.16678,0.218483,
2,0,0,1,0,56181.4,0.211344,0.210984,-0.164062,29,0.0195368,10,-3.46144e-05,-3.78499,-0.413979,-0.142519,0.912364,0.210984,
2,0,0,1,0,56182.9,0.203854,0.20349,-0.172151,29,0.0192666,10,-3.5031e-05,-3.76409,-0.326034,-0.180963,1.22175,0.20349,
2,0,0,1,0,56184.4,0.196363,0.195992,-0.181956,29,0.0189836,10,-3.56619e-05,-3.74003,-0.345928,-0.170556,1.21111,0.195992,
2,0,0,1,0,56185.9,0.188871,0.188515,-0.191354,29,0.0186863,10,-3.60731e-05,-3.71816,-0.302886,-0.194793,1.45103,0.1885151,
2,0,0,1,0,56187.4,0.181381,0.181025,-0.201719,29,0.0183737,10,-3.65161e-05,-3.69525,-0.325674,-0.181162,1.42942,0.181025,
2,0,0,1,0,56188.9,0.173889,0.173491,-0.214211,29,0.018044,10,-3.71637e-05,-3.66916,-0.285423,-0.206711,1.72498,0.173491,
2,0,0,1,0,56190.4,0.166398,0.166073,-0.229378,29,0.0176934,10,-3.80935e-05,-3.63945,-0.293165,-0.201252,1.80982,0.166073,
2,0,0,1,0,56191.9,0.158907,0.158507,-0.248408,29,0.0173167,10,-3.93743e-05,-3.60483,-0.199824,-0.295261,2.8765,0.158507,
2,0,0,1,0,56193.4,0.151416,0.151027,-0.277942,29,0.0169042,10,-4.19768e-05,-3.55605,-0.13297,-0.443709,4.82088,0.1510274,
2,0,0,1,0,56194.9,0.143925,0.143552,-0.325686,29,0.0164365,10,-4.6753e-05,-3.4872,-0.0873758,-0.675244,8.56128,0.143552,
2,0,0,1,0,56196.4,0.136434,0.136043,-0.398395,29,0.0158783,10,-5.41987e-05,-3.39969,-0.0825318,-0.714876,11.0853,0.136043,
2,0,0,1,0,56197.9,0.128943,0.12862,-0.483046,29,0.0151996,10,-6.21292e-05,-3.31601,-0.104616,-0.563968,10.5793,0.12862,
2,0,0,0,0,56199.4,0.121453,0.12111,-0.549869,29,0.0144025,10,-6.65949e-05,-3.25974,-0.195569,-0.301684,6.45387,0.12111,
2,0,0,1,0,56200.9,0.113962,0.113598,-0.577929,29,0.013531,10,-6.56518e-05,-3.23813,-0.735057,-0.0802659,1.8133,0.113598,
2,0,0,0,0,56202.4,0.106471,0.106127,-0.581845,29,0.0126373,10,-6.17493e-05,-3.23519,2.79182,0.0211332,-0.481585,0.106127,
2,0,0,1,0,56203.9,0.0989798,0.0986276,-0.575561,29,0.011748,10,-5.67662e-05,-3.23991,2.21575,0.0266275,-0.597324,0.09862756,
2,0,0,0,0,56205.4,0.0914889,0.0910891,-0.567274,29,0.0108725,10,-5.16725e-05,-3.24621,0.97816,0.0603173,-1.32876,0.0910891,
2,0,0,1,0,56206.9,0.083998,0.0836345,-0.551024,29,0.0100153,10,-4.60846e-05,-3.25883,0.434425,0.135812,-2.91749,0.0836345,
2,0,0,0,0,56208.4,0.076507,0.0761342,-0.5353,29,0.00918192,10,-4.07546e-05,-3.2714,0.521478,0.11314,-2.36359,0.07613422,
2,0,0,1,0,56209.9,0.069016,0.068687,-0.517535,29,0.00837314,10,-3.55479e-05,-3.28606,0.532024,0.110897,-2.24718,0.068687,
2,0,0,0,0,56211.4,0.0615251,0.0611825,-0.502996,29,0.00758803,10,-3.07745e-05,-3.29844,0.543152,0.108625,-2.13628,0.0611825,
2,0,0,1,0,56212.9,0.0540342,0.0536388,-0.486699,29,0.00682667,10,-2.61059e-05,-3.31274,0.61864,0.0953705,-1.81155,0.05363876,
2,0,0,1,0,56214.4,0.0465436,0.0461814,-0.470529,29,0.00608955,10,-2.17297e-05,-3.32741,0.544485,0.108359,-1.99293,0.0461814,
2,0,0,1,0,56215.9,0.0390526,0.038664,-0.454928,29,0.00537713,10,-1.75893e-05,-3.34206,0.376065,0.156888,-2.77654,0.038664,
2,0,0,1,0,56217.4,0.0315615,0.0312167,-0.437742,29,0.00469005,10,-1.36649e-05,-3.35878,0.478182,0.123384,-2.11087,0.0312167,
2,0,0,1,0,56218.9,0.0240706,0.0237154,-0.423711,29,0.00402582,10,-1.00485e-05,-3.37293,0.612383,0.0963449,-1.59575,0.0237154,
2,0,0,1,0,56220.4,0.0165795,0.0162245,-0.414611,29,0.00338042,10,-6.72686e-06,-3.38236,1.12292,0.0525415,-0.850314,0.0162245,
2,0,0,1,0,56221.8,0.00908846,0.0086956,-0.4097,29,0.00274631,10,-3.56259e-06,-3.38753,-27.2894,-0.00216201,0.0345681,0.0086956,
2,0,0,1,0,56223.3,0.00159739,0.00119949,-0.41363,29,0.00211397,10,-4.96147e-07,-3.38339, , , ,0.00119949,
2,0,0,0,0,56223.6,0.000199195,-0.000178351,-0.411267,29,0.00199529,10,7.335e-08,-3.38588, , , ,-0.000178351,