File: Figure_codes/Fig_3-5/rawdata_trumpetplot_data/after 10th/20221101_1-115_003_TrumpetPlot_ParaChange_from10_every3_12_CV_C01_26.csv
mode,ox/red,error,control changes,counter inc.,time/s,control/V,Ewe/V,<I>/mA,cycle number,(Q-Qo)/C,I Range,P/W,log(|I|),Tafel slope mV/dec,alpha_eff,dI/d(E-IR),E-IR/V,
2,1,0,1,0,52419.9,2.44065e-05,-0.000344411,14.5421,27,0.0000000E+000,10,-5.00844e-06,-1.83737, , , ,-0.000344411,
2,1,0,1,0,52419.9,0.0104008,0.0100179,17.6144,27,0.000279839,10,0.000176459,-1.75413,0.186765,0.315906,216.095,0.0100179,
2,1,0,1,0,52419.9,0.0212099,0.0208436,19.6371,27,0.000616093,10,0.000409307,-1.70692,0.273869,0.215432,164.703,0.0208436,
2,1,0,1,0,52420,0.0320052,0.0316247,21.2509,27,0.000984745,10,0.000672052,-1.67262,0.351599,0.167805,139.036,0.0316247,
2,1,0,1,0,52420,0.0428033,0.0424547,22.6679,27,0.0013805,10,0.000962358,-1.64459,0.421585,0.139948,123.753,0.0424547,
2,1,0,1,0,52420,0.0535986,0.0532347,23.9587,27,0.00180044,10,0.00127543,-1.62054,0.474648,0.124303,116.191,0.0532347,
2,1,0,1,0,52420,0.0644077,0.0640467,25.2175,27,0.00224321,10,0.00161509,-1.5983,0.505119,0.116804,114.909,0.0640467,
2,1,0,1,0,52420,0.075203,0.0748564,26.4702,27,0.00270843,10,0.00198146,-1.57724,0.513445,0.11491,118.682,0.07485643,
2,1,0,1,0,52420.1,0.0860011,0.0856609,27.7479,27,0.00319637,10,0.00237691,-1.55677,0.538668,0.109529,118.558,0.0856609,
2,1,0,1,0,52420.1,0.0968075,0.0964728,29.0568,27,0.00370759,10,0.00280319,-1.53675,0.550855,0.107106,121.404,0.09647283,
2,1,0,1,0,52420.1,0.107606,0.107243,30.4032,27,0.00424272,10,0.00326054,-1.51708,0.545138,0.108229,128.388,0.107243,
2,1,0,1,0,52420.1,0.118401,0.118009,31.7606,27,0.00480232,10,0.00374802,-1.49811,0.573043,0.102959,127.621,0.118009,
2,1,0,1,0,52420.1,0.129207,0.128837,33.2239,27,0.00538689,10,0.00428048,-1.47855,0.51959,0.113551,147.235,0.128837,
2,1,0,1,0,52420.1,0.140005,0.139598,34.8357,27,0.00599961,10,0.00486301,-1.45798,0.5247,0.112445,152.917,0.139598,
2,1,0,1,0,52420.2,0.150803,0.150436,36.5053,27,0.00664195,10,0.00549171,-1.43764,0.553193,0.106654,151.949,0.150436,
2,1,0,1,0,52420.2,0.161604,0.161219,38.1147,27,0.00731395,10,0.00614481,-1.41891,0.627688,0.0939958,139.747,0.161219,
2,1,0,1,0,52420.2,0.172405,0.172046,39.5407,27,0.00801336,10,0.00680282,-1.40296,0.771965,0.0764284,117.814,0.172046,
2,1,0,1,0,52420.2,0.183203,0.18283,40.6084,27,0.00873544,10,0.00742445,-1.39138,1.27036,0.0464436,73.4675,0.18283,
2,1,0,1,0,52420.2,0.194001,0.193643,41.0473,27,0.00947137,10,0.00794852,-1.38672,14.0478,0.00419996,6.71555,0.193643,
2,1,0,1,0,52420.3,0.204808,0.204437,40.7415,27,0.0102086,10,0.00832907,-1.38996,-1.46854,-0.040176,-63.7586,0.204437,
2,1,0,1,0,52420.3,0.215603,0.215245,39.6695,27,0.0109333,10,0.00853865,-1.40154,-0.705281,-0.0836546,-129.306,0.215245,
2,1,0,1,0,52420.3,0.226401,0.226102,37.9222,27,0.0116325,10,0.0085743,-1.42111,-0.472272,-0.124928,-184.712,0.2261022,
2,1,0,1,0,52420.3,0.237207,0.2369,35.7548,27,0.0122959,10,0.00847034,-1.44667,-0.38934,-0.151538,-211.337,0.2369,
2,1,0,1,0,52420.3,0.248005,0.247695,33.4297,27,0.0129184,10,0.00828037,-1.47587,-0.362705,-0.162667,-212.239,0.247695,
2,1,0,1,0,52420.3,0.258801,0.25847,31.1958,27,0.0134995,10,0.00806317,-1.5059,-0.361629,-0.163151,-198.751,0.25847,
2,1,0,1,0,52420.4,0.26961,0.269263,29.1976,27,0.0140424,10,0.00786183,-1.53465,-0.385377,-0.153097,-174.48,0.269263,
2,1,0,1,0,52420.4,0.280405,0.280108,27.4499,27,0.0145516,10,0.00768894,-1.56146,-0.426669,-0.138281,-148.205,0.280108,
2,1,0,1,0,52420.4,0.291203,0.290838,25.9656,27,0.0150318,10,0.00755178,-1.5856,-0.470218,-0.125474,-127.233,0.290838,
2,1,0,0,0,52420.4,0.300012,0.299651,24.9138,27,0.0154055,10,0.00746546,-1.60356,0.00300214,19.6527,17292.5,0.299651,
2,1,0,1,0,52420.4,0.290843,0.290577,14.1849,27,0.0156915,10,0.00412179,-1.84818,0.0391897,1.5055,839.25,0.290577,
2,1,0,1,0,52420.4,0.280047,0.279752,7.01084,27,0.0158771,10,0.0019613,-2.15423,0.0292891,2.0144,541.566,0.279752,
2,1,0,1,0,52420.5,0.269244,0.268931,2.02757,27,0.0159556,10,0.000545276,-2.69302,0.00823894,7.16111,394.4,0.268931,
2,0,0,1,0,52420.5,0.258443,0.258163,-1.62764,27,0.0159574,10,-0.000420195,-2.78844,-0.00697644,-8.45703,295.966,0.258163,
2,0,0,1,0,52420.5,0.247645,0.247336,-4.42604,27,0.0159015,10,-0.00109472,-2.35399,-0.0426525,-1.38327,231.222,0.247336,
2,0,0,1,0,52420.5,0.236849,0.236521,-6.63823,27,0.0158009,10,-0.00157008,-2.17795,-0.08239,-0.716106,183.639,0.236521,
2,0,0,1,0,52420.5,0.22604,0.225734,-8.44237,27,0.0156644,10,-0.00190573,-2.07354,-0.128481,-0.459213,150.492,0.225734,
2,0,0,1,0,52420.6,0.215245,0.214939,-9.93602,27,0.0154984,10,-0.00213564,-2.00279,-0.177561,-0.332279,128.558,0.2149393,
2,0,0,1,0,52420.6,0.204447,0.204122,-11.2334,27,0.0153074,10,-0.00229298,-1.94949,-0.232307,-0.253975,111.067,0.204122,
2,0,0,1,0,52420.6,0.19364,0.193296,-12.3776,27,0.0150948,10,-0.00239254,-1.90736,-0.285565,-0.206608,99.5329,0.193296,
2,0,0,1,0,52420.6,0.182842,0.182524,-13.3993,27,0.0148627,10,-0.00244569,-1.87292,-0.32667,-0.18061,94.3343,0.182524,
2,0,0,1,0,52420.6,0.172047,0.171672,-14.3952,27,0.0146125,10,-0.00247125,-1.84178,-0.35833,-0.164652,92.4584,0.171672,
2,0,0,1,0,52420.6,0.161241,0.160902,-15.4109,27,0.0143444,10,-0.00247965,-1.81217,-0.364162,-0.162016,97.4397,0.160902,
2,0,0,1,0,52420.7,0.150443,0.150116,-16.536,27,0.0140571,10,-0.00248231,-1.78157,-0.330756,-0.178379,115.228,0.150116,
2,0,0,1,0,52420.7,0.139645,0.139355,-17.941,27,0.0137472,10,-0.00250016,-1.74615,-0.276297,-0.213539,149.905,0.139355,
2,0,0,1,0,52420.7,0.128849,0.128571,-19.8362,27,0.0134079,10,-0.00255037,-1.70254,-0.225108,-0.262096,203.453,0.128571,
2,0,0,1,0,52420.7,0.118043,0.117706,-22.3309,27,0.0130289,10,-0.00262849,-1.65109,-0.202929,-0.290742,253.582,0.1177064,
2,0,0,1,0,52420.7,0.107245,0.106935,-25.2221,27,0.0126008,10,-0.00269712,-1.59822,-0.210823,-0.279856,275.349,0.106935,
2,0,0,1,0,52420.8,0.0964468,0.0961452,-28.1447,27,0.01212,10,-0.00270597,-1.5506,-0.247789,-0.238106,261.09,0.09614516,
2,0,0,1,0,52420.8,0.0856404,0.0853492,-30.8476,27,0.0115887,10,-0.00263282,-1.51078,-0.297071,-0.198605,238.57,0.0853492,
2,0,0,1,0,52420.8,0.0748451,0.0745765,-33.2183,27,0.0110112,10,-0.00247731,-1.47862,-0.383486,-0.153852,199.042,0.0745765,
2,0,0,1,0,52420.8,0.0640471,0.0638165,-35.0948,27,0.0103955,10,-0.00223963,-1.45476,-0.534314,-0.110422,150.993,0.06381654,
2,0,0,1,0,52420.8,0.0532407,0.0529474,-36.5186,27,0.00975037,10,-0.00193357,-1.43749,-0.751589,-0.0785003,111.712,0.0529474,
2,0,0,1,0,52420.8,0.0424426,0.0421535,-37.5085,27,0.00908348,10,-0.00158111,-1.42587,-1.14656,-0.0514584,75.245,0.0421535,
2,0,0,1,0,52420.9,0.0316473,0.0313289,-38.1288,27,0.00840215,10,-0.00119453,-1.41875,-1.91888,-0.0307472,45.7384,0.0313289,
2,0,0,1,0,52420.9,0.0208437,0.0205117,-38.4888,27,0.00771204,10,-0.000789468,-1.41467,-4.41498,-0.0133636,20.0685,0.0205117,
2,0,0,1,0,52420.9,0.0100429,0.00972415,-38.6143,27,0.0070177,10,-0.000375491,-1.41325,-343.515,-0.000171754,0.258691,0.00972415,
2,0,0,1,0,52420.9,-0.000755207,-0.0011079,-38.552,27,0.00632295,10,4.27119e-05,-1.41395,5.26061,0.0112154,-16.8575,-0.001107904,
2,0,0,1,0,52420.9,-0.0115505,-0.0119675,-38.2166,27,0.00563177,10,0.000457358,-1.41775,2.09545,0.0281562,-41.9703,-0.0119675,
2,0,0,1,0,52420.9,-0.0223597,-0.0226904,-37.6936,27,0.0049485,10,0.000855281,-1.42373,1.50246,0.0392688,-57.7228,-0.0226904,
2,0,0,1,0,52421,-0.033155,-0.0335139,-37.0201,27,0.00427612,10,0.00124069,-1.43156,1.38603,0.0425677,-61.4915,-0.0335139,
2,0,0,1,0,52421,-0.043953,-0.0443577,-36.3356,27,0.00361609,10,0.00161176,-1.43967,1.35475,0.0435506,-61.7583,-0.0443577,
2,0,0,1,0,52421,-0.0547594,-0.055107,-35.7209,27,0.00296796,10,0.00196847,-1.44708,1.56851,0.0376154,-52.4336,-0.055107,
2,0,0,1,0,52421,-0.0655575,-0.0659041,-35.2112,27,0.00232986,10,0.00232056,-1.45332,2.23762,0.0263672,-36.2603,-0.0659041,
2,0,0,1,0,52421,-0.0763528,-0.0767054,-34.8818,27,0.0016992,10,0.00267562,-1.4574,3.5272,0.0167271,-22.787,-0.0767054,
2,0,0,1,0,52421.1,-0.0871592,-0.0875353,-34.7297,27,0.00107293,10,0.00304008,-1.4593,9.63907,0.00612092,-8.30072,-0.0875353,
2,0,0,1,0,52421.1,-0.0979573,-0.0983207,-34.7288,27,0.000447988,10,0.00341456,-1.45931,19.4311,0.00303636,-4.11119,-0.0983207,
2,0,0,1,1,52421.1,-0.0955546,-0.0959984,-27.2923,27,9.76111e-05,10,0.00262002,-1.56396,-0.0465434,-1.26763,1373.22,-0.0959984,
2,0,0,1,1,52421.1,-0.0847538,-0.0851558,-16.567,27,-0.000288809,10,0.00141078,-1.78076,-0.0468923,-1.2582,812.114,-0.0851558,
2,0,0,1,1,52421.1,-0.0739557,-0.0743608,-8.96561,27,-0.000514878,10,0.00066669,-2.04742,-0.0325907,-1.81033,621.069,-0.0743608,
2,0,0,1,1,52421.1,-0.0631604,-0.0635903,-2.98528,27,-0.000619893,10,0.000189835,-2.52501,-0.0107367,-5.49519,496.95,-0.0635903,
2,1,0,1,1,52421.2,-0.0523512,-0.0528059,1.92502,27,-0.000627603,10,-0.000101653,-2.71556,0.0068634,8.59633,412.389,-0.0528059,
2,1,0,1,1,52421.2,-0.0415559,-0.0419919,5.99616,27,-0.000555016,10,-0.00025179,-2.22213,0.0379946,1.55285,349.721,-0.0419919,
2,1,0,1,1,52421.2,-0.0307579,-0.0312563,9.44366,27,-0.000414873,10,-0.000295174,-2.02486,0.0730718,0.807425,293.791,-0.0312563,
2,1,0,1,1,52421.2,-0.0199515,-0.0204105,12.3641,27,-0.000217628,10,-0.000252358,-1.90784,0.114474,0.515401,246.861,-0.0204105,
2,1,0,1,1,52421.2,-0.0091534,-0.00953496,14.8128,27,2.78071e-05,10,-0.000141239,-1.82936,0.162503,0.363069,208.973,-0.00953496,
2,1,0,0,1,52421.2,-7.54729e-05,-0.000382585,16.4921,27,0.000265142,10,-6.30965e-06,-1.78272, , , ,-0.000382585,