File: Figure_codes/Fig_3-5/rawdata_trumpetplot_data/after 10th/20221101_1-115_003_TrumpetPlot_ParaChange_from10_every3_10_CV_C01_32.csv
mode,ox/red,error,control changes,counter inc.,time/s,control/V,Ewe/V,<I>/mA,cycle number,(Q-Qo)/C,I Range,P/W,log(|I|),Tafel slope mV/dec,alpha_eff,dI/d(E-IR),E-IR/V,
2,1,0,0,0,64234.7,-2.44065e-05,-0.000248974,5.07791,33,0.0000000E+000,10,-1.26427e-06,-2.29432, , , ,-0.000248974,
2,1,0,1,0,64234.7,0.00977853,0.00946994,7.22616,33,0.000310733,10,6.84313e-05,-2.14109,0.122845,0.48028,135.108,0.00946994,
2,1,0,1,0,64234.8,0.0197755,0.0194274,8.271,33,0.000700318,10,0.000160684,-2.08244,0.231451,0.254913,82.1925,0.0194274,
2,1,0,1,0,64234.8,0.0297726,0.0294787,8.97476,33,0.00113246,10,0.000264564,-2.04698,0.340373,0.173339,60.7131,0.0294787,
2,1,0,1,0,64234.9,0.0397514,0.0394097,9.5545,33,0.00159517,10,0.00037654,-2.01979,0.378313,0.155956,58.1557,0.0394097,
2,1,0,1,0,64234.9,0.0497393,0.0494353,10.1083,33,0.00208578,10,0.000499709,-1.99532,0.417444,0.141336,55.7143,0.0494353,
2,1,0,1,0,64235,0.0597364,0.0594171,10.6623,33,0.00260485,10,0.000633524,-1.97215,0.41377,0.142591,59.2914,0.05941711,
2,1,0,1,0,64235,0.0697152,0.0693561,11.2278,33,0.00315114,10,0.000778719,-1.9497,0.458035,0.128811,56.4798,0.0693561,
2,1,0,1,0,64235.1,0.0796941,0.0793486,11.8178,33,0.00372633,10,0.000937724,-1.92746,0.46659,0.126449,58.3175,0.0793486,
2,1,0,1,0,64235.1,0.0896911,0.0893096,12.363,33,0.00433117,10,0.00110413,-1.90788,0.502607,0.117388,56.6729,0.0893096,
2,1,0,1,0,64235.2,0.099679,0.0993813,12.9194,33,0.00496217,10,0.00128395,-1.88876,0.570767,0.10337,52.0845,0.0993813,
2,1,0,1,0,64235.2,0.109658,0.109306,13.4787,33,0.00562046,10,0.00147331,-1.87035,0.501381,0.117675,61.9454,0.109306,
2,1,0,1,0,64235.3,0.119655,0.119284,14.1986,33,0.00631187,10,0.00169367,-1.84776,0.430006,0.137208,76.021,0.119284,
2,1,0,1,0,64235.3,0.129652,0.129296,15.0287,33,0.00704246,10,0.00194315,-1.82308,0.401879,0.14681,86.1121,0.129296,
2,1,0,1,0,64235.4,0.139631,0.139259,15.8303,33,0.00781311,10,0.0022045,-1.80051,0.501394,0.117672,72.6982,0.139259,
2,1,0,1,0,64235.4,0.149619,0.149284,16.4759,33,0.00862006,10,0.00245958,-1.78315,0.723915,0.0815013,52.3558,0.149284,
2,1,0,1,0,64235.5,0.159616,0.159304,16.7493,33,0.00945282,10,0.00266822,-1.776,-9.80285,-0.00601866,-3.93218,0.159304,
2,1,0,1,0,64235.5,0.169595,0.169261,16.3466,33,0.0102819,10,0.00276684,-1.78657,-0.451803,-0.130588,-83.1997,0.169261,
2,1,0,1,0,64235.6,0.179573,0.179233,15.1261,33,0.0110698,10,0.00271109,-1.82027,-0.227317,-0.259549,-153.137,0.179233,
2,1,0,1,0,64235.6,0.18957,0.189255,13.4893,33,0.0117858,10,0.00255291,-1.87001,-0.189899,-0.310691,-163.618,0.189255,
2,1,0,1,0,64235.7,0.199558,0.199242,11.9878,33,0.01242,10,0.00238847,-1.92126,-0.206132,-0.286224,-133.872,0.199242,
2,1,0,1,0,64235.7,0.209537,0.209195,10.8131,33,0.0129871,10,0.00226205,-1.96605,-0.240068,-0.245764,-103.766,0.209195,
2,1,0,1,0,64235.8,0.219534,0.219245,9.93736,33,0.0135046,10,0.00217871,-2.00273,-0.313757,-0.188044,-72.9772,0.219245,
2,1,0,1,0,64235.8,0.229531,0.229212,9.29049,33,0.0139847,10,0.00212949,-2.03196,-0.37161,-0.158768,-57.5842,0.229212,
2,1,0,1,0,64235.9,0.23951,0.23918,8.80459,33,0.0144356,10,0.00210588,-2.05529,-0.484673,-0.121732,-41.8501,0.23918,
2,1,0,1,0,64235.9,0.249498,0.249194,8.42359,33,0.0148651,10,0.00209911,-2.0745,-0.591414,-0.0997609,-32.8055,0.249194,
2,1,0,1,0,64236,0.259495,0.259147,8.1307,33,0.0152786,10,0.00210704,-2.08987,-0.690176,-0.0854855,-27.1008,0.259147,
2,1,0,1,0,64236,0.269474,0.269117,7.88416,33,0.0156777,10,0.00212176,-2.10324,-0.856283,-0.0689025,-21.1998,0.269117,
2,1,0,1,0,64236.1,0.279453,0.279116,7.67854,33,0.0160658,10,0.00214321,-2.11472,-0.950952,-0.0620431,-18.5972,0.279116,
2,1,0,1,0,64236.1,0.28945,0.289112,7.50165,33,0.0164451,10,0.00216882,-2.12484,-1.08167,-0.0545454,-15.9601,0.289112,
2,1,0,1,0,64236.2,0.299438,0.29916,7.34737,33,0.0168154,10,0.00219804,-2.13387,-0.0754359,-0.782121,-217.356,0.29916,
2,1,0,1,0,64236.2,0.291747,0.291396,1.63132,33,0.0169944,10,0.00047536,-2.78746,0.00944384,6.24746,383.32,0.291396,
2,0,0,1,0,64236.3,0.28175,0.281437,-0.955999,33,0.0170028,10,-0.000269054,-3.01954,-0.0114373,-5.15856,176.642,0.281437,
2,0,0,1,0,64236.3,0.27178,0.271449,-2.27682,33,0.016919,10,-0.000618041,-2.64267,-0.0507939,-1.16156,102.727,0.271449,
2,0,0,1,0,64236.4,0.261783,0.261465,-3.1121,33,0.0167827,10,-0.000813706,-2.50695,-0.106233,-0.555381,67.1313,0.261465,
2,0,0,1,0,64236.4,0.251786,0.251443,-3.68011,33,0.0166121,10,-0.000925339,-2.43414,-0.167115,-0.35305,50.7959,0.251443,
2,0,0,1,0,64236.5,0.241807,0.241495,-4.12765,33,0.0164166,10,-0.000996807,-2.3843,-0.238948,-0.246916,39.7627,0.241495,
2,0,0,1,0,64236.5,0.231824,0.231455,-4.49109,33,0.0162013,10,-0.00103949,-2.34765,-0.299722,-0.196849,34.5167,0.2314554,
2,0,0,1,0,64236.6,0.221822,0.221519,-4.80415,33,0.0159688,10,-0.00106421,-2.31838,-0.373299,-0.15805,29.5583,0.221519,
2,0,0,1,0,64236.6,0.211843,0.211493,-5.07579,33,0.0157223,10,-0.00107349,-2.2945,-0.468719,-0.125875,24.9523,0.211493,
2,0,0,1,0,64236.7,0.201865,0.201551,-5.33706,33,0.0154624,10,-0.00107569,-2.2727,-0.512758,-0.115064,23.958,0.201551,
2,0,0,1,0,64236.7,0.191868,0.191512,-5.58647,33,0.0151891,10,-0.00106987,-2.25286,-0.494822,-0.119235,26.0382,0.191512,
2,0,0,1,0,64236.8,0.18188,0.181549,-5.86338,33,0.0149037,10,-0.00106449,-2.23185,-0.452851,-0.130286,29.7369,0.181549,
2,0,0,1,0,64236.8,0.171901,0.171568,-6.13499,33,0.0146046,10,-0.00105257,-2.21219,-0.455394,-0.129558,31.0595,0.1715681,
2,0,0,1,0,64236.9,0.161904,0.161547,-6.48316,33,0.0142896,10,-0.00104734,-2.18821,-0.387946,-0.152083,38.4187,0.161547,
2,0,0,1,0,64236.9,0.151907,0.15153,-6.91962,33,0.013955,10,-0.00104853,-2.15992,-0.296496,-0.198991,53.883,0.15153,
2,0,0,1,0,64237,0.141928,0.141606,-7.63837,33,0.0135929,10,-0.00108164,-2.117,-0.197857,-0.298196,88.8699,0.141606,
2,0,0,1,0,64237,0.13194,0.131617,-8.76409,33,0.0131858,10,-0.00115351,-2.05729,-0.143493,-0.411171,140.755,0.131617,
2,0,0,1,0,64237.1,0.121943,0.121624,-10.3219,33,0.0127096,10,-0.00125538,-1.98624,-0.148266,-0.397933,160.101,0.121624,
2,0,0,1,0,64237.1,0.111964,0.11166,-11.957,33,0.0121534,10,-0.00133512,-1.92238,-0.175194,-0.33677,157.163,0.11166,
2,0,0,1,0,64237.2,0.101985,0.101636,-13.4277,33,0.0115187,10,-0.00136473,-1.872,-0.23375,-0.252406,132.109,0.101636,
2,0,0,1,0,64237.2,0.0919883,0.0916487,-14.5703,33,0.0108171,10,-0.00133535,-1.83653,-0.345633,-0.170701,97.0467,0.0916487,
2,0,0,1,0,64237.3,0.0820004,0.0817064,-15.302,33,0.0100694,10,-0.00125027,-1.81525,-0.729877,-0.0808355,48.2262,0.0817064,
2,0,0,1,0,64237.3,0.0720215,0.0716781,-15.552,33,0.00929794,10,-0.00111474,-1.80821,-6.72073,-0.00877881,5.32708,0.0716781,
2,0,0,1,0,64237.4,0.0620245,0.0616364,-15.4951,33,0.00852106,10,-0.000955063,-1.80981,2.14728,0.0274766,-16.6062,0.0616364,
2,0,0,1,0,64237.4,0.0520275,0.0516755,-15.3196,33,0.00775058,10,-0.00079165,-1.81475,1.70878,0.0345275,-20.6423,0.0516755,
2,0,0,1,0,64237.5,0.0420486,0.041732,-15.1193,33,0.00699103,10,-0.00063096,-1.82047,1.66287,0.0354808,-20.9366,0.041732,
2,0,0,1,0,64237.5,0.0320607,0.0316945,-14.8756,33,0.00624238,10,-0.000471474,-1.82753,1.17801,0.0500845,-29.0646,0.03169452,
2,0,0,1,0,64237.6,0.0220637,0.0217309,-14.5588,33,0.00550644,10,-0.000316375,-1.83688,0.878647,0.0671487,-38.1255,0.0217309,
2,0,0,1,0,64237.6,0.0120848,0.0117291,-14.1314,33,0.00479039,10,-0.000165749,-1.84981,0.663578,0.088912,-49.0351,0.0117291,
2,0,0,1,0,64237.7,0.00210598,0.00173611,-13.6748,33,0.00409762,10,-2.3741e-05,-1.86408,0.690473,0.0854486,-45.4833,0.00173611,
2,0,0,1,0,64237.7,-0.00789103,-0.00828734,-13.1401,33,0.0034277,10,0.000108897,-1.8814,0.684367,0.0862111,-44.2626,-0.00828734,
2,0,0,1,0,64237.8,-0.017879,-0.0182618,-12.7607,33,0.00278191,10,0.000233033,-1.89413,0.941076,0.0626942,-31.2,-0.0182618,
2,0,0,1,0,64237.8,-0.0278578,-0.0282301,-12.492,33,0.00215264,10,0.000352651,-1.90337,1.44847,0.0407326,-19.8653,-0.0282301,
2,0,0,1,0,64237.9,-0.0378548,-0.0382761,-12.3668,33,0.00153172,10,0.000473353,-1.90774,3.61113,0.0163384,-7.88376,-0.0382761,
2,0,0,1,0,64237.9,-0.0478519,-0.0482189,-12.3639,33,0.000913753,10,0.000596175,-1.90784,-3.50373,-0.0168392,8.13023,-0.0482189,
2,0,0,1,0,64238,-0.0578126,-0.0582111,-12.4741,33,0.00029564,10,0.000726131,-1.90399,-2.02131,-0.029189,14.2071,-0.0582111,
2,0,0,1,0,64238,-0.0678187,-0.0682233,-12.6554,33,-0.000332301,10,0.000863396,-1.89772,-1.23829,-0.0476462,23.538,-0.06822329,
2,0,0,1,0,64238.1,-0.0778157,-0.0781947,-12.9162,33,-0.000971455,10,0.00100997,-1.88887,-1.00115,-0.0589324,29.715,-0.0781947,
2,0,0,1,0,64238.1,-0.0877945,-0.0881493,-13.2608,33,-0.00162451,10,0.00116893,-1.87743,-0.786086,-0.0750554,38.8693,-0.0881493,
2,0,0,1,0,64238.2,-0.0977734,-0.0981522,-13.6786,33,-0.0022965,10,0.00134258,-1.86396,-0.659674,-0.0894382,47.7675,-0.0981522,
2,0,0,1,1,64238.2,-0.0936874,-0.0940783,-7.3346,33,-0.00276402,10,0.000690027,-2.13462,-0.0246122,-2.39718,686.602,-0.0940783,
2,0,0,1,1,64238.3,-0.0837086,-0.0841638,-2.11139,33,-0.00298797,10,0.000177703,-2.67543,-0.0112368,-5.2506,417.047,-0.0841638,
2,1,0,1,1,64238.3,-0.0737025,-0.074084,1.32607,33,-0.00300208,10,-9.82404e-05,-2.87743,0.00960924,6.13992,289.876,-0.074084,
2,1,0,1,1,64238.4,-0.0637236,-0.0641374,3.76393,33,-0.00287194,10,-0.000241409,-2.42436,0.0416736,1.41576,206.219,-0.0641374,
2,1,0,1,1,64238.4,-0.0537448,-0.0541108,5.55293,33,-0.00263698,10,-0.000300474,-2.25548,0.0834772,0.70678,152.94,-0.0541108,
2,1,0,1,1,64238.5,-0.0437477,-0.0441221,6.88306,33,-0.00232408,10,-0.000303695,-2.16222,0.141052,0.418285,112.128,-0.0441221,
2,1,0,1,1,64238.5,-0.0337507,-0.0341559,7.8383,33,-0.00195456,10,-0.000267724,-2.10578,0.218496,0.270028,82.617,-0.0341559,
2,1,0,1,1,64238.6,-0.0237809,-0.0241524,8.52591,33,-0.00154613,10,-0.000205921,-2.06926,0.332156,0.177627,58.9816,-0.0241524,
2,1,0,1,1,64238.6,-0.0137839,-0.0141767,8.9763,33,-0.00110772,10,-0.000127254,-2.0469,0.560416,0.105279,36.9033,-0.01417665,
2,1,0,1,1,64238.7,-0.0037869,-0.00417749,9.28611,33,-0.000650507,10,-3.87927e-05,-2.03217,0.912159,0.0646817,23.4184,-0.004177493,
2,1,0,1,1,64238.7,-2.55332e-05,-0.000401673,9.3584,33,-0.000476151,10,-3.75901e-06,-2.0288, , , ,-0.000401673,