File: Figure_codes/Fig_3-5/rawdata_trumpetplot_data/after 10th/20221101_1-115_003_TrumpetPlot_ParaChange_from10_every3_04_CV_C01_21.csv
mode,ox/red,error,control changes,counter inc.,time/s,control/V,Ewe/V,<I>/mA,cycle number,(Q-Qo)/C,I Range,P/W,log(|I|),Tafel slope mV/dec,alpha_eff,dI/d(E-IR),E-IR/V,
2,0,0,1,0,42432.8,2.44065e-05,-0.000344411,-0.37734,22,0.0000000E+000,10,1.2996e-07,-3.42327, , , ,-0.000344411,
2,1,0,1,0,42433.5,0.00729063,0.00698618,0.354659,22,0.00017764,10,2.47771e-06,-3.45019,0.0594636,0.992204,13.5774,0.00698618,
2,1,0,1,0,42434.2,0.0147814,0.0144097,0.42752,22,0.000485113,10,6.16042e-06,-3.36904,0.118756,0.496817,8.29791,0.0144097,
2,1,0,1,0,42435,0.0222725,0.0219793,0.48239,22,0.000838236,10,1.06026e-05,-3.3166,0.154996,0.380654,7.15888,0.0219793,
2,1,0,1,0,42435.7,0.0297635,0.0294233,0.534512,22,0.00123018,10,1.57271e-05,-3.27204,0.199929,0.295104,6.1373,0.0294233,
2,1,0,1,0,42436.5,0.0372544,0.0368737,0.583728,22,0.00166012,10,2.15242e-05,-3.23379,0.213933,0.275787,6.29159,0.0368737,
2,1,0,1,0,42437.2,0.0447458,0.0444053,0.63297,22,0.00212792,10,2.81073e-05,-3.19862,0.211795,0.278572,6.8802,0.0444053,
2,1,0,1,0,42438,0.0522363,0.0518976,0.680684,22,0.00263237,10,3.53259e-05,-3.16705,0.243745,0.242056,6.43029,0.0518976,
2,1,0,1,0,42438.7,0.0597282,0.0594118,0.722754,22,0.00317009,10,4.29401e-05,-3.14101,0.285154,0.206906,5.83021,0.0594118,
2,1,0,1,0,42439.5,0.0672182,0.066879,0.761178,22,0.00373732,10,5.09068e-05,-3.11851,0.378896,0.155715,4.60802,0.066879,
2,1,0,1,0,42440.2,0.0747092,0.0743761,0.791251,22,0.00433034,10,5.88501e-05,-3.10169,0.524319,0.112527,3.47609,0.0743761,
2,1,0,1,0,42441,0.0822001,0.0818912,0.816742,22,0.00494501,10,6.6884e-05,-3.08792,0.540688,0.10912,3.49138,0.0818912,
2,1,0,1,0,42441.7,0.0896911,0.0894137,0.852425,22,0.00558164,10,7.62184e-05,-3.06934,0.362078,0.162948,5.43034,0.0894137,
2,1,0,1,0,42442.5,0.097182,0.096863,0.907297,22,0.00625177,10,8.78836e-05,-3.04225,0.199644,0.295527,10.476,0.096863,
2,1,0,1,0,42443.2,0.104673,0.104342,0.988477,22,0.00697228,10,0.00010314,-3.00503,0.19816,0.297739,11.4707,0.1043421,
2,1,0,1,0,42444,0.112164,0.111819,1.06524,22,0.00775438,10,0.000119114,-2.97255,0.281876,0.209312,8.68855,0.111819,
2,1,0,1,0,42444.7,0.119655,0.119348,1.11973,22,0.0085861,10,0.000133638,-2.95089,0.611446,0.0964925,4.21374,0.1193479,
2,1,0,1,0,42445.5,0.127146,0.126817,1.14839,22,0.0094497,10,0.000145635,-2.93991,0.731443,0.0806625,3.62565,0.126817,
2,1,0,1,0,42446.2,0.134637,0.134341,1.15802,22,0.0103306,10,0.000155569,-2.93628,-0.680262,-0.0867313,-3.91423,0.134341,
2,1,0,1,0,42447,0.142127,0.141831,1.07071,22,0.011185,10,0.00015186,-2.97033,-0.130124,-0.453412,-18.8274,0.141831,
2,1,0,1,0,42447.7,0.149619,0.149269,0.872784,22,0.0119269,10,0.00013028,-3.05909,-0.0732586,-0.805366,-27.4195,0.1492694,
2,1,0,1,0,42448.5,0.157109,0.156782,0.703779,22,0.0125229,10,0.00011034,-3.15256,-0.0969144,-0.608785,-16.7837,0.156782,
2,1,0,1,0,42449.2,0.164601,0.164252,0.620176,22,0.0130263,10,0.000101865,-3.20749,-0.187139,-0.315274,-7.64002,0.164252,
2,1,0,1,0,42450,0.172091,0.171805,0.577384,22,0.0134849,10,9.91975e-05,-3.23854,-0.32804,-0.179856,-4.07266,0.171805,
2,1,0,1,0,42450.7,0.179582,0.179297,0.556699,22,0.0139204,10,9.98145e-05,-3.25438,-0.687351,-0.0858368,-1.86901,0.179297,
2,1,0,1,0,42451.5,0.187074,0.186724,0.543823,22,0.014343,10,0.000101545,-3.26454,-1.13762,-0.0518625,-1.09796,0.186724,
2,1,0,1,0,42452.2,0.194564,0.194238,0.535866,22,0.0147575,10,0.000104086,-3.27094,-0.926489,-0.0636813,-1.33005,0.194238,
2,1,0,1,0,42453,0.202056,0.201751,0.52819,22,0.0151661,10,0.000106563,-3.27721,-1.49941,-0.0393487,-0.809338,0.201751,
2,1,0,1,0,42453.7,0.209546,0.209264,0.523967,22,0.0155704,10,0.000109647,-3.2807,-1.3048,-0.0452176,-0.921915,0.209264,
2,1,0,1,0,42454.5,0.217038,0.216727,0.51792,22,0.0159708,10,0.000112247,-3.28574,-2.18325,-0.0270239,-0.546714,0.216727,
2,1,0,1,0,42455.2,0.224528,0.22421,0.514974,22,0.0163681,10,0.000115463,-3.28821,-1.57531,-0.037453,-0.750676,0.22421,
2,1,0,1,0,42456,0.232019,0.231713,0.509855,22,0.0167623,10,0.00011814,-3.29255,-2.51404,-0.0234682,-0.467887,0.231713,
2,1,0,1,0,42456.7,0.23951,0.239178,0.505811,22,0.017154,10,0.000120979,-3.29601,-2.11468,-0.0279002,-0.552555,0.239178,
2,1,0,1,0,42457.5,0.247001,0.246693,0.50476,22,0.0175431,10,0.000124521,-3.29692,-1.48863,-0.0396337,-0.777775,0.246693,
2,1,0,1,0,42458.2,0.254492,0.254169,0.499671,22,0.0179297,10,0.000127001,-3.30132,-7.89088,-0.00747699,-0.146119,0.254169,
2,1,0,1,0,42459,0.261983,0.261664,0.496603,22,0.0183135,10,0.000129943,-3.30399,-2.72731,-0.021633,-0.418759,0.261664,
2,1,0,1,0,42459.7,0.269474,0.269155,0.492015,22,0.0186948,10,0.000132428,-3.30802,-6.21649,-0.00949089,-0.182647,0.2691547,
2,1,0,1,0,42460.4,0.276965,0.276668,0.489356,22,0.0190731,10,0.000135389,-3.31037,-2.29599,-0.025697,-0.491348,0.276668,
2,1,0,1,0,42461.2,0.284456,0.284156,0.483962,22,0.0194486,10,0.000137521,-3.31519,-3.00643,-0.0196246,-0.37083,0.284156,
2,1,0,1,0,42461.9,0.291947,0.291628,0.480602,22,0.0198208,10,0.000140157,-3.31821,-1.14415,-0.0515669,-0.969736,0.291628,
2,1,0,1,0,42462.7,0.299437,0.299067,0.475655,22,0.0201901,10,0.000142253,-3.32271,-0.00280366,-21.0439,-203.573,0.299067,
2,0,0,1,0,42463.4,0.293745,0.293449,-0.0740676,22,0.0202132,10,-2.1735e-05,-4.13037,-0.0145623,-4.05155,10.6284,0.293449,
2,0,0,1,0,42464.1,0.286253,0.285925,-0.129816,22,0.020124,10,-3.71176e-05,-3.88667,-0.0516134,-1.14312,5.80244,0.285925,
2,0,0,1,0,42464.9,0.278763,0.27844,-0.164508,22,0.0200018,10,-4.58055e-05,-3.78381,-0.0955801,-0.617283,3.97888,0.27844,
2,0,0,1,0,42465.6,0.271272,0.270981,-0.195046,22,0.0198559,10,-5.28537e-05,-3.70986,-0.138681,-0.425437,3.22192,0.270981,
2,0,0,1,0,42466.4,0.263781,0.263485,-0.21668,22,0.0196904,10,-5.70919e-05,-3.66418,-0.155988,-0.378233,3.20592,0.263485,
2,0,0,1,0,42467.1,0.25629,0.255945,-0.23948,22,0.0195083,10,-6.12938e-05,-3.62073,-0.252634,-0.233539,2.17097,0.255945,
2,0,0,1,0,42467.9,0.248799,0.248474,-0.256544,22,0.019312,10,-6.37444e-05,-3.59084,-0.298895,-0.197393,1.98397,0.2484736,
2,0,0,1,0,42468.6,0.241308,0.240954,-0.272568,22,0.0191028,10,-6.56765e-05,-3.56452,-0.310529,-0.189999,2.02218,0.240954,
2,0,0,1,0,42469.4,0.233817,0.233476,-0.286767,22,0.0188818,10,-6.69533e-05,-3.54247,-0.263432,-0.223967,2.51778,0.233476,
2,0,0,1,0,42470.1,0.226326,0.225999,-0.302117,22,0.0186491,10,-6.82783e-05,-3.51982,-0.317197,-0.186004,2.20104,0.225999,
2,0,0,1,0,42470.9,0.218835,0.218565,-0.318245,22,0.0184053,10,-6.95572e-05,-3.49724,-0.310317,-0.190128,2.36278,0.218565,
2,0,0,1,0,42471.6,0.211344,0.211021,-0.331086,22,0.0181504,10,-6.98662e-05,-3.48006,-0.476851,-0.123728,1.60302,0.2110211,
2,0,0,1,0,42472.4,0.203854,0.203527,-0.348409,22,0.0178838,10,-7.09106e-05,-3.45791,-0.399718,-0.147604,2.00625,0.203527,
2,0,0,1,0,42473.1,0.196362,0.195985,-0.362658,22,0.0176063,10,-7.10754e-05,-3.4405,-0.380214,-0.155176,2.1988,0.195985,
2,0,0,1,0,42473.9,0.188872,0.188569,-0.380467,22,0.0173166,10,-7.17442e-05,-3.41968,-0.298557,-0.197617,2.93002,0.188569,
2,0,0,1,0,42474.6,0.18138,0.18107,-0.399781,22,0.0170136,10,-7.23883e-05,-3.39818,-0.305347,-0.193223,3.0065,0.18107,
2,0,0,1,0,42475.4,0.17389,0.173563,-0.421147,22,0.0166952,10,-7.30954e-05,-3.37557,-0.309586,-0.190577,3.13465,0.173563,
2,0,0,1,0,42476.1,0.166398,0.166082,-0.449715,22,0.0163579,10,-7.46896e-05,-3.34706,-0.314897,-0.187363,3.30194,0.166082,
2,0,0,1,0,42476.9,0.158907,0.158548,-0.488638,22,0.0159954,10,-7.74725e-05,-3.31101,-0.18579,-0.317563,6.07349,0.158548,
2,0,0,1,0,42477.6,0.151417,0.151122,-0.550138,22,0.0155958,10,-8.31378e-05,-3.25953,-0.129302,-0.456296,9.83418,0.151122,
2,0,0,1,0,42478.4,0.143925,0.143602,-0.65407,22,0.0151353,10,-9.39256e-05,-3.18438,-0.081455,-0.724326,18.549,0.143602,
2,0,0,1,0,42479.1,0.136435,0.136089,-0.813876,22,0.0145762,10,-0.000110759,-3.08944,-0.0823367,-0.71657,22.7105,0.136089,
2,0,0,1,0,42479.9,0.128943,0.128609,-0.983522,22,0.0138914,10,-0.000126489,-3.00722,-0.108969,-0.541437,20.6465,0.128609,
2,0,0,1,0,42480.6,0.121453,0.121124,-1.11261,22,0.0130913,10,-0.000134764,-2.95366,-0.20616,-0.286186,12.3927,0.121124,
2,0,0,1,0,42481.4,0.113962,0.113622,-1.16953,22,0.0122194,10,-0.000132884,-2.93199,-0.843677,-0.069932,3.19041,0.113622,
2,0,0,1,0,42482.1,0.106471,0.106151,-1.16743,22,0.0113282,10,-0.000123924,-2.93277,1.21551,0.0485395,-2.21452,0.106151,
2,0,0,1,0,42482.9,0.0989798,0.098635,-1.14083,22,0.0104506,10,-0.000112525,-2.94278,0.705089,0.0836774,-3.71568,0.098635,
2,0,0,1,0,42483.6,0.0914889,0.0911602,-1.10978,22,0.00959717,10,-0.000101168,-2.95476,0.63977,0.0922207,-3.98265,0.0911602,
2,0,0,1,0,42484.4,0.083998,0.0836705,-1.07335,22,0.00876819,10,-8.9808e-05,-2.96926,0.410623,0.143684,-6.01729,0.0836705,
2,0,0,1,0,42485.1,0.076507,0.0761968,-1.04356,22,0.00796355,10,-7.95161e-05,-2.98148,0.528566,0.111623,-4.53895,0.0761968,
2,0,0,1,0,42485.9,0.069016,0.0687262,-1.00872,22,0.00718327,10,-6.93253e-05,-2.99623,0.533843,0.110519,-4.35997,0.0687262,
2,0,0,1,0,42486.6,0.0615251,0.0612026,-0.978841,22,0.00642613,10,-5.99076e-05,-3.00929,0.529779,0.111367,-4.2593,0.0612026,
2,0,0,1,0,42487.4,0.0540342,0.0536928,-0.948193,22,0.00569275,10,-5.09112e-05,-3.0231,0.540498,0.109159,-4.03273,0.0536928,
2,0,0,1,0,42488.1,0.0465441,0.0462231,-0.913689,22,0.00498351,10,-4.22336e-05,-3.0392,0.488662,0.120738,-4.30789,0.0462231,
2,0,0,1,0,42488.8,0.0390523,0.0387135,-0.880647,22,0.00429979,10,-3.4093e-05,-3.0552,0.35709,0.165224,-5.66814,0.0387135,
2,0,0,1,0,42489.6,0.0315618,0.0311884,-0.846325,22,0.0036418,10,-2.63955e-05,-3.07246,0.433059,0.13624,-4.49814,0.0311884,
2,0,0,1,0,42490.3,0.0240704,0.023747,-0.81309,22,0.00300835,10,-1.93084e-05,-3.08986,0.415884,0.141866,-4.51758,0.023747,
2,0,0,1,0,42491.1,0.0165796,0.0162597,-0.789516,22,0.00239662,10,-1.28373e-05,-3.10264,0.78458,0.0751994,-2.32185,0.01625968,
2,0,0,1,0,42491.8,0.00908846,0.00878463,-0.77514,22,0.00179941,10,-6.80931e-06,-3.11062,1.73211,0.0340624,-1.03136,0.00878463,
2,0,0,1,0,42492.6,0.00159728,0.00124797,-0.781241,22,0.00120793,10,-9.74968e-07,-3.10722, , , ,0.00124797,
2,0,0,1,0,42492.7,0.000199195,-0.000113454,-0.775358,22,0.00109694,10,8.79677e-08,-3.1105, , , ,-0.000113454,