File: Figure_codes/Fig_3-5/rawdata_trumpetplot_data/after 10th/20221101_1-115_003_TrumpetPlot_ParaChange_from10_every3_07_CV_C01_22.csv
mode,ox/red,error,control changes,counter inc.,time/s,control/V,Ewe/V,<I>/mA,cycle number,(Q-Qo)/C,I Range,P/W,log(|I|),Tafel slope mV/dec,alpha_eff,dI/d(E-IR),E-IR/V,
2,0,0,0,0,44507.9,2.44065e-05,-0.000439847,-2.71985,23,0.0000000E+000,10,1.19632e-06,-2.56546, , , ,-0.000439847,
2,1,0,1,0,44508,0.007288,0.00698487,1.05657,23,-2.22113e-05,10,7.38002e-06,-2.9761,0.0108382,5.44371,199.67,0.00698487,
2,1,0,1,0,44508.1,0.0147816,0.0144501,1.93445,23,0.000175898,10,2.79529e-05,-2.71344,0.0623075,0.946917,70.8216,0.0144501,
2,1,0,1,0,44508.3,0.0222712,0.0219207,2.33679,23,0.000446359,10,5.12241e-05,-2.63138,0.120356,0.490212,44.5166,0.0219207,
2,1,0,1,0,44508.4,0.0297648,0.0294511,2.61359,23,0.000758135,10,7.69731e-05,-2.58276,0.167935,0.351326,35.8478,0.0294511,
2,1,0,1,0,44508.5,0.0372518,0.0369256,2.86954,23,0.00110285,10,0.00010596,-2.54219,0.216835,0.272096,30.5006,0.03692558,
2,1,0,1,0,44508.6,0.0447467,0.0443859,3.12063,23,0.00147899,10,0.000138512,-2.50576,0.228186,0.258561,31.4441,0.04438594,
2,1,0,1,0,44508.8,0.052235,0.0519107,3.36217,23,0.00188526,10,0.000174533,-2.47338,0.233782,0.252372,33.074,0.0519107,
2,1,0,1,0,44508.9,0.0597299,0.0593818,3.58667,23,0.00232118,10,0.000212983,-2.44531,0.265306,0.222385,31.1108,0.0593818,
2,1,0,1,0,44509,0.0672156,0.0669085,3.79524,23,0.00278417,10,0.000253934,-2.42076,0.325312,0.181364,26.8868,0.0669085,
2,1,0,1,0,44509.1,0.0747105,0.0743752,3.9874,23,0.00327269,10,0.000296564,-2.39931,0.431135,0.136848,21.2636,0.07437522,
2,1,0,1,0,44509.3,0.0821988,0.0818412,4.14783,23,0.00378253,10,0.000339464,-2.38218,0.515394,0.114476,18.5034,0.0818412,
2,1,0,1,0,44509.4,0.0896937,0.0893795,4.29265,23,0.00431173,10,0.000383675,-2.36727,0.473885,0.124503,20.8833,0.0893795,
2,1,0,1,0,44509.5,0.0971794,0.0968316,4.46562,23,0.00486013,10,0.000432414,-2.35012,0.345368,0.170832,29.8399,0.0968316,
2,1,0,1,0,44509.6,0.104674,0.104342,4.74321,23,0.00543645,10,0.000494918,-2.32393,0.258942,0.22785,42.1956,0.1043423,
2,1,0,1,0,44509.8,0.112163,0.111857,5.11293,23,0.00605235,10,0.000571918,-2.29133,0.221815,0.265988,52.9746,0.111857,
2,1,0,1,0,44509.9,0.119657,0.119322,5.48446,23,0.0067164,10,0.000654415,-2.26087,0.286245,0.206117,44.091,0.119322,
2,1,0,1,0,44510,0.127143,0.126801,5.74836,23,0.0074209,10,0.0007289,-2.24046,0.460451,0.128135,28.7779,0.126801,
2,1,0,1,0,44510.1,0.134638,0.134291,5.92555,23,0.00815368,10,0.000795745,-2.22727,0.961979,0.0613319,14.1903,0.134291,
2,1,0,1,0,44510.3,0.142126,0.141813,5.98798,23,0.00890082,10,0.00084917,-2.22272,-2.75006,-0.0214541,-4.99976,0.1418125,
2,1,0,1,0,44510.4,0.149621,0.14927,5.72862,23,0.00963932,10,0.000855109,-2.24195,-0.196277,-0.300595,-66.9687,0.14927,
2,1,0,1,0,44510.5,0.157107,0.156811,4.99355,23,0.0103146,10,0.000783046,-2.30159,-0.094016,-0.627553,-122.161,0.156811,
2,1,0,1,0,44510.6,0.164602,0.164277,4.12122,23,0.0108842,10,0.000677022,-2.38497,-0.0909569,-0.648659,-104.47,0.164277,
2,1,0,1,0,44510.8,0.17209,0.171763,3.48689,23,0.0113578,10,0.00059892,-2.45756,-0.120967,-0.487737,-66.5542,0.171763,
2,1,0,1,0,44510.9,0.179585,0.179274,3.10528,23,0.0117695,10,0.000556695,-2.5079,-0.183804,-0.320994,-38.9159,0.179274,
2,1,0,1,0,44511,0.187072,0.186787,2.86737,23,0.0121429,10,0.000535586,-2.54252,-0.290183,-0.20332,-22.779,0.186787,
2,1,0,1,0,44511.1,0.194566,0.194204,2.71751,23,0.0124932,10,0.000527752,-2.56583,-0.362248,-0.162872,-17.3091,0.194204,
2,1,0,1,0,44511.3,0.202055,0.201741,2.62899,23,0.0128281,10,0.000530375,-2.58021,-0.511615,-0.115321,-11.7981,0.201741,
2,1,0,1,0,44511.4,0.209549,0.209259,2.56218,23,0.0131535,10,0.00053616,-2.59139,-0.687157,-0.085861,-8.57234,0.209259,
2,1,0,1,0,44511.5,0.217036,0.2167,2.50298,23,0.0134715,10,0.000542395,-2.60154,-1.55055,-0.038051,-3.72882,0.2167,
2,1,0,1,0,44511.6,0.22453,0.22419,2.47064,23,0.0137846,10,0.000553894,-2.60719,-1.02604,-0.0575028,-5.56035,0.22419,
2,1,0,1,0,44511.8,0.232019,0.231688,2.44619,23,0.0140933,10,0.000566752,-2.61151,-1.41771,-0.0416163,-3.96473,0.231688,
2,1,0,1,0,44511.9,0.239513,0.2392,2.42485,23,0.0143991,10,0.000580026,-2.61531,-2.00938,-0.0293622,-2.77252,0.2392,
2,1,0,1,0,44512,0.247001,0.246691,2.40568,23,0.014702,10,0.00059346,-2.61876,-2.2159,-0.0266257,-2.49696,0.246691,
2,1,0,1,0,44512.1,0.254493,0.254189,2.38191,23,0.0150026,10,0.000605455,-2.62307,-1.63102,-0.0361738,-3.36789,0.254189,
2,1,0,1,0,44512.3,0.261983,0.261667,2.36342,23,0.0153009,10,0.000618428,-2.62646,-1.53111,-0.0385342,-3.5584,0.261667,
2,1,0,1,0,44512.4,0.269477,0.26914,2.34955,23,0.0155971,10,0.000632357,-2.62902,-5.21582,-0.0113117,-1.03498,0.26914,
2,1,0,1,0,44512.5,0.276965,0.276654,2.32906,23,0.0158911,10,0.000644344,-2.63282,-5.75976,-0.0102435,-0.931669,0.276654,
2,1,0,1,0,44512.6,0.284457,0.284171,2.30628,23,0.016183,10,0.000655379,-2.63709,-3.30562,-0.0178484,-1.61146,0.284171,
2,1,0,1,0,44512.8,0.291947,0.291619,2.29247,23,0.0164723,10,0.000668529,-2.6397,-1.07181,-0.055047,-4.92519,0.2916193,
2,1,0,1,0,44512.9,0.29944,0.299158,2.27837,23,0.0167594,10,0.000681594,-2.64238,-0.00829016,-7.11687,-495.423,0.299158,
2,0,0,1,0,44513,0.293742,0.293418,-0.391488,23,0.0168197,10,-0.00011487,-3.40728,-0.00463811,-12.7207,124.096,0.2934182,
2,0,0,1,0,44513.1,0.286254,0.285972,-0.855364,23,0.016734,10,-0.00024461,-3.06785,-0.0526051,-1.12156,37.2563,0.285972,
2,0,0,1,0,44513.2,0.278761,0.27846,-1.0578,23,0.0166108,10,-0.000294555,-2.9756,-0.12038,-0.490117,20.3408,0.27846,
2,0,0,1,0,44513.4,0.271272,0.270952,-1.20429,23,0.0164669,10,-0.000326305,-2.91927,-0.172666,-0.3417,15.999,0.270952,
2,0,0,1,0,44513.5,0.263778,0.263466,-1.31467,23,0.0163075,10,-0.000346371,-2.88118,-0.235074,-0.250985,12.7904,0.263466,
2,0,0,1,0,44513.6,0.25629,0.255983,-1.39831,23,0.0161362,10,-0.000357943,-2.8544,-0.268989,-0.21934,11.9599,0.255983,
2,0,0,1,0,44513.7,0.248797,0.248482,-1.47476,23,0.0159542,10,-0.000366451,-2.83128,-0.362834,-0.162609,9.38463,0.248482,
2,0,0,1,0,44513.9,0.241308,0.240969,-1.5481,23,0.015763,10,-0.000373043,-2.8102,-0.496646,-0.118797,7.18369,0.240969,
2,0,0,1,0,44514,0.233814,0.233478,-1.61468,23,0.0155632,10,-0.000376992,-2.79191,-0.4329,-0.13629,8.5836,0.233478,
2,0,0,1,0,44514.1,0.226326,0.225983,-1.67838,23,0.0153555,10,-0.000379285,-2.77511,-0.380234,-0.155168,10.174,0.225983,
2,0,0,1,0,44514.2,0.218834,0.218502,-1.73599,23,0.0151398,10,-0.000379317,-2.76045,-0.418277,-0.141055,9.59562,0.218502,
2,0,0,1,0,44514.4,0.211344,0.211005,-1.79952,23,0.0149166,10,-0.000379707,-2.74484,-0.781741,-0.0754725,5.30932,0.2110053,
2,0,0,1,0,44514.5,0.203856,0.203497,-1.86674,23,0.0146856,10,-0.000379875,-2.72892,-0.718845,-0.0820761,5.96125,0.203497,
2,0,0,1,0,44514.6,0.196362,0.196009,-1.92276,23,0.0144469,10,-0.000376878,-2.71608,-0.433779,-0.136014,10.2139,0.196009,
2,0,0,1,0,44514.7,0.18887,0.188528,-1.98686,23,0.0141999,10,-0.000374579,-2.70183,-0.410236,-0.14382,11.1991,0.1885282,
2,0,0,1,0,44514.9,0.18138,0.181074,-2.07081,23,0.0139441,10,-0.00037497,-2.68386,-0.467468,-0.126212,10.2161,0.1810741,
2,0,0,1,0,44515,0.173892,0.173525,-2.16914,23,0.0136779,10,-0.0003764,-2.66371,-0.412565,-0.143008,12.0509,0.1735248,
2,0,0,1,0,44515.1,0.166398,0.166062,-2.27858,23,0.0133989,10,-0.000378386,-2.64234,-0.310387,-0.190085,16.881,0.166062,
2,0,0,1,0,44515.2,0.158905,0.15856,-2.42264,23,0.0131035,10,-0.000384133,-2.61571,-0.212761,-0.277306,26.3284,0.15856,
2,0,0,1,0,44515.4,0.151417,0.151097,-2.65432,23,0.012785,10,-0.00040106,-2.57605,-0.157229,-0.37525,39.0478,0.151097,
2,0,0,1,0,44515.5,0.143927,0.143562,-3.02769,23,0.0124299,10,-0.00043466,-2.51889,-0.109575,-0.538442,63.7261,0.143562,
2,0,0,1,0,44515.6,0.136435,0.136087,-3.60695,23,0.0120152,10,-0.000490858,-2.44286,-0.0935044,-0.630987,88.7954,0.136087,
2,0,0,1,0,44515.7,0.128941,0.128572,-4.31853,23,0.0115186,10,-0.000555243,-2.36466,-0.104187,-0.566288,95.2557,0.128572,
2,0,0,1,0,44515.9,0.121453,0.121174,-4.98075,23,0.0109346,10,-0.000603536,-2.3027,-0.139536,-0.422831,82.2328,0.121174,
2,0,0,1,0,44516,0.113963,0.113645,-5.52265,23,0.0102742,10,-0.000627619,-2.25785,-0.220445,-0.267641,57.6798,0.113645,
2,0,0,1,0,44516.1,0.106471,0.106147,-5.88073,23,0.00955711,10,-0.000624221,-2.23057,-0.423061,-0.13946,31.9817,0.106147,
2,0,0,1,0,44516.2,0.0989825,0.098666,-6.00549,23,0.00881067,10,-0.000592538,-2.22145,-4.36604,-0.0135134,3.16141,0.09866602,
2,0,0,1,0,44516.4,0.0914889,0.0911463,-5.90797,23,0.00806254,10,-0.00053849,-2.22856,0.677062,0.0871411,-20.1027,0.0911463,
2,0,0,1,0,44516.5,0.0839993,0.0836679,-5.7159,23,0.00733424,10,-0.000478237,-2.24292,0.437195,0.134951,-30.106,0.0836679,
2,0,0,1,0,44516.6,0.076507,0.0761646,-5.54616,23,0.00662969,10,-0.000422421,-2.25601,0.594137,0.0993038,-21.452,0.0761646,
2,0,0,1,0,44516.7,0.0690187,0.0687107,-5.40093,23,0.00594523,10,-0.000371102,-2.26753,0.757365,0.0779017,-16.4324,0.0687107,
2,0,0,1,0,44516.9,0.0615251,0.061199,-5.27834,23,0.00527573,10,-0.00032303,-2.2775,0.844156,0.0698923,-14.4181,0.061199,
2,0,0,1,0,44517,0.0540355,0.0537147,-5.14927,23,0.00462223,10,-0.000276592,-2.28825,0.707268,0.0834195,-16.7734,0.0537147,
2,0,0,1,0,44517.1,0.0465432,0.0462332,-5.01169,23,0.00398486,10,-0.000231706,-2.30002,0.588002,0.10034,-19.6195,0.0462332,
2,0,0,1,0,44517.2,0.0390549,0.0387223,-4.85901,23,0.00336667,10,-0.000188152,-2.31345,0.500828,0.117805,-22.3181,0.0387223,
2,0,0,1,0,44517.4,0.0315613,0.0312203,-4.68035,23,0.00276869,10,-0.000146122,-2.32972,0.469945,0.125547,-22.9329,0.0312203,
2,0,0,1,0,44517.5,0.0240717,0.0238031,-4.48225,23,0.0021942,10,-0.000106691,-2.3485,0.409504,0.144077,-25.2805,0.0238031,
2,0,0,1,0,44517.6,0.0165781,0.0162251,-4.31955,23,0.00164216,10,-7.00853e-05,-2.36456,0.456772,0.129167,-21.7718,0.0162251,
2,0,0,1,0,44517.7,0.00909108,0.00873764,-4.18113,23,0.0011103,10,-3.65332e-05,-2.37871,0.629215,0.0937676,-15.285,0.00873764,
2,0,0,1,0,44517.9,0.00159616,0.00126176,-4.10109,23,0.000592768,10,-5.17459e-06,-2.3871, , , ,0.00126176,
2,0,0,1,0,44517.9,0.000199195,-0.000197438,-4.0766,23,0.000497042,10,8.04877e-07,-2.3897, , , ,-0.000197438,