File: Figure_codes/Fig_3-5/rawdata_trumpetplot_data/after 10th/20221101_1-115_003_TrumpetPlot_ParaChange_from10_every3_04_CV_C01_27.csv
mode,ox/red,error,control changes,counter inc.,time/s,control/V,Ewe/V,<I>/mA,cycle number,(Q-Qo)/C,I Range,P/W,log(|I|),Tafel slope mV/dec,alpha_eff,dI/d(E-IR),E-IR/V,
2,0,0,1,0,54253.5,2.44065e-05,-0.000382585,-0.375432,28,0.0000000E+000,10,1.43635e-07,-3.42547, , , ,-0.000382585,
2,1,0,1,0,54254.3,0.00729063,0.00694058,0.344618,28,0.000169865,10,2.39185e-06,-3.46266,0.0563047,1.04787,13.8755,0.00694058,
2,1,0,1,0,54255,0.0147814,0.0144377,0.418364,28,0.000469603,10,6.04023e-06,-3.37845,0.117652,0.501479,8.16424,0.0144377,
2,1,0,1,0,54255.8,0.0222725,0.0219411,0.469009,28,0.000814287,10,1.02906e-05,-3.32882,0.166324,0.35473,6.50243,0.0219411,
2,1,0,1,0,54256.5,0.0297635,0.0294056,0.520651,28,0.00119668,10,1.53101e-05,-3.28345,0.193403,0.305063,6.17845,0.0294056,
2,1,0,1,0,54257.3,0.0372544,0.0368981,0.568489,28,0.00161608,10,2.09762e-05,-3.24528,0.216449,0.272581,6.05838,0.0368981,
2,1,0,1,0,54258,0.0447458,0.0443521,0.617492,28,0.00207211,10,2.73871e-05,-3.20937,0.220721,0.267306,6.43278,0.0443521,
2,1,0,1,0,54258.8,0.0522363,0.0518785,0.663137,28,0.00256374,10,3.44026e-05,-3.1784,0.251342,0.23474,6.07767,0.0518785,
2,1,0,1,0,54259.5,0.0597282,0.0593638,0.703026,28,0.00308759,10,4.17343e-05,-3.15303,0.310478,0.19003,5.21337,0.0593638,
2,1,0,1,0,54260.3,0.0672182,0.0668567,0.739809,28,0.00363955,10,4.94612e-05,-3.13088,0.383697,0.153767,4.42166,0.06685672,
2,1,0,1,0,54261,0.0747092,0.0743411,0.769433,28,0.00421628,10,5.72005e-05,-3.11383,0.501453,0.117658,3.52986,0.0743411,
2,1,0,1,0,54261.8,0.0822001,0.0818551,0.793188,28,0.00481405,10,6.49265e-05,-3.10062,0.620948,0.095016,2.95193,0.0818551,
2,1,0,1,0,54262.5,0.0896911,0.0893511,0.828202,28,0.00543283,10,7.40008e-05,-3.08186,0.337102,0.175021,5.67688,0.0893511,
2,1,0,1,0,54263.3,0.097182,0.0968609,0.882018,28,0.00608422,10,8.54331e-05,-3.05452,0.193229,0.305338,10.51,0.0968609,
2,1,0,1,0,54264,0.104673,0.104325,0.961816,28,0.00678479,10,0.000100342,-3.01691,0.209121,0.282134,10.5582,0.104325,
2,1,0,1,0,54264.8,0.112164,0.111783,1.035,28,0.00754487,10,0.000115695,-2.98506,0.294328,0.200457,8.07222,0.111783,
2,1,0,1,0,54265.5,0.119655,0.119314,1.08465,28,0.00835233,10,0.000129414,-2.96471,0.79734,0.073996,3.13376,0.119314,
2,1,0,1,0,54266.2,0.127146,0.126794,1.10653,28,0.00918722,10,0.000140302,-2.95604,1.22534,0.0481498,2.08487,0.126794,
2,1,0,1,0,54267,0.134637,0.134242,1.10892,28,0.0100337,10,0.000148864,-2.9551,-0.512809,-0.115052,-4.97088,0.134242,
2,1,0,1,0,54267.7,0.142127,0.14176,1.01587,28,0.0108483,10,0.00014401,-2.99316,-0.120959,-0.487769,-19.2388,0.14176,
2,1,0,1,0,54268.5,0.149619,0.149265,0.826954,28,0.0115522,10,0.000123435,-3.08252,-0.074606,-0.790822,-25.5652,0.149265,
2,1,0,1,0,54269.2,0.157109,0.156791,0.674937,28,0.0121206,10,0.000105824,-3.17074,-0.109283,-0.539884,-14.2539,0.156791,
2,1,0,1,0,54270,0.164601,0.164247,0.598851,28,0.0126051,10,9.83592e-05,-3.22268,-0.195634,-0.301583,-7.06789,0.164247,
2,1,0,1,0,54270.7,0.172091,0.171729,0.562155,28,0.0130502,10,9.65381e-05,-3.25014,-0.389772,-0.15137,-3.33222,0.171729,
2,1,0,1,0,54271.5,0.179582,0.179216,0.543976,28,0.0134753,10,9.74893e-05,-3.26442,-0.590201,-0.099966,-2.129,0.179216,
2,1,0,1,0,54272.2,0.187074,0.186714,0.533711,28,0.0138894,10,9.96511e-05,-3.27269,-1.33455,-0.0442097,-0.91749,0.186714,
2,1,0,1,0,54273,0.194564,0.194209,0.525139,28,0.0142965,10,0.000101987,-3.27973,-1.41471,-0.0417045,-0.854695,0.194209,
2,1,0,1,0,54273.7,0.202056,0.201699,0.519538,28,0.0146983,10,0.00010479,-3.28438,-1.29879,-0.0454268,-0.918422,0.201699,
2,1,0,1,0,54274.5,0.209546,0.209207,0.514335,28,0.0150966,10,0.000107602,-3.28875,-1.16397,-0.0506886,-1.01912,0.209207,
2,1,0,1,0,54275.2,0.217038,0.216683,0.51077,28,0.0154913,10,0.000110675,-3.29177,-2.2355,-0.0263923,-0.526913,0.216683,
2,1,0,1,0,54276,0.224528,0.224236,0.507854,28,0.0158836,10,0.000113879,-3.29426,-13.1689,-0.00448027,-0.0886811,0.224236,
2,1,0,1,0,54276.7,0.232019,0.231662,0.503111,28,0.0162731,10,0.000116552,-3.29834,-3.33441,-0.0176943,-0.347948,0.2316619,
2,1,0,1,0,54277.5,0.23951,0.239183,0.501038,28,0.0166605,10,0.00011984,-3.30013,-2.89961,-0.0203476,-0.398148,0.239183,
2,1,0,1,0,54278.2,0.247001,0.246644,0.499227,28,0.0170456,10,0.000123131,-3.3017,-2.7971,-0.0210933,-0.409446,0.246644,
2,1,0,1,0,54279,0.254492,0.254149,0.494554,28,0.0174284,10,0.00012569,-3.30579,-1.77523,-0.0332351,-0.643563,0.2541489,
2,1,0,1,0,54279.7,0.261983,0.261636,0.491824,28,0.0178086,10,0.000128679,-3.30819,25.4981,0.0023139,0.0444198,0.261636,
2,1,0,1,0,54280.5,0.269474,0.269128,0.48759,28,0.0181867,10,0.000131224,-3.31195,-3.47167,-0.0169947,-0.324013,0.2691282,
2,1,0,1,0,54281.2,0.276965,0.276616,0.485475,28,0.018562,10,0.00013429,-3.31383,-2.0356,-0.0289841,-0.548915,0.276616,
2,1,0,1,0,54282,0.284456,0.284138,0.482074,28,0.0189345,10,0.000136976,-3.31689,-2.83539,-0.0208084,-0.390429,0.284138,
2,1,0,1,0,54282.7,0.291947,0.291613,0.478255,28,0.0193038,10,0.000139466,-3.32034,-1.91595,-0.0307941,-0.575021,0.291613,
2,1,0,1,0,54283.5,0.299437,0.299086,0.472746,28,0.0196704,10,0.000141392,-3.32537,-0.00298055,-19.795,-197.435,0.299086,
2,0,0,1,0,54284.2,0.293745,0.293409,-0.0696066,28,0.0196976,10,-2.04232e-05,-4.15735,-0.0131669,-4.48093,11.0504,0.293409,
2,0,0,1,0,54284.9,0.286253,0.285919,-0.125385,28,0.0196119,10,-3.58499e-05,-3.90176,-0.0522527,-1.12913,5.51467,0.285919,
2,0,0,1,0,54285.7,0.278763,0.278453,-0.161543,28,0.0194931,10,-4.49821e-05,-3.79171,-0.0954849,-0.617899,3.87751,0.278453,
2,0,0,1,0,54286.4,0.271272,0.270926,-0.190408,28,0.0193506,10,-5.15865e-05,-3.72031,-0.133166,-0.443055,3.26521,0.270926,
2,0,0,1,0,54287.2,0.263781,0.263437,-0.213147,28,0.0191883,10,-5.61507e-05,-3.67132,-0.154772,-0.381206,3.18186,0.263437,
2,0,0,1,0,54287.9,0.25629,0.255914,-0.235393,28,0.0190095,10,-6.02405e-05,-3.62821,-0.234017,-0.252119,2.29505,0.255914,
2,0,0,1,0,54288.7,0.248799,0.248449,-0.255101,28,0.0188159,10,-6.33797e-05,-3.59329,-0.279692,-0.210946,2.08196,0.248449,
2,0,0,1,0,54289.4,0.241308,0.240959,-0.268175,28,0.0186096,10,-6.46191e-05,-3.57158,-0.308139,-0.191472,2.00006,0.240959,
2,0,0,1,0,54290.2,0.233817,0.233495,-0.28574,28,0.0183914,10,-6.67189e-05,-3.54403,-0.283124,-0.208389,2.31061,0.233495,
2,0,0,1,0,54290.9,0.226326,0.225976,-0.299326,28,0.0181619,10,-6.76405e-05,-3.52386,-0.370829,-0.159103,1.8564,0.225976,
2,0,0,1,0,54291.7,0.218835,0.218514,-0.31407,28,0.017921,10,-6.86286e-05,-3.50297,-0.307337,-0.191972,2.3569,0.218514,
2,0,0,1,0,54292.4,0.211344,0.210998,-0.328451,28,0.0176692,10,-6.93024e-05,-3.48353,-0.517508,-0.114008,1.45939,0.210998,
2,0,0,1,0,54293.2,0.203854,0.203467,-0.342685,28,0.0174064,10,-6.97252e-05,-3.46511,-0.416649,-0.141606,1.89582,0.2034675,
2,0,0,1,0,54293.9,0.196362,0.196004,-0.358115,28,0.0171326,10,-7.01918e-05,-3.44598,-0.411743,-0.143293,2.00261,0.196004,
2,0,0,1,0,54294.6,0.188872,0.188505,-0.374221,28,0.0168468,10,-7.05425e-05,-3.42687,-0.300977,-0.196028,2.86177,0.188505,
2,0,0,1,0,54295.4,0.18138,0.181042,-0.393647,28,0.0165484,10,-7.12668e-05,-3.40489,-0.377118,-0.15645,2.40235,0.181042,
2,0,0,1,0,54296.1,0.17389,0.173545,-0.413655,28,0.0162357,10,-7.17878e-05,-3.38336,-0.308737,-0.191101,3.08304,0.173545,
2,0,0,1,0,54296.9,0.166398,0.166017,-0.438935,28,0.0159056,10,-7.28709e-05,-3.3576,-0.296589,-0.198929,3.4195,0.166017,
2,0,0,1,0,54297.6,0.158907,0.15852,-0.47312,28,0.0155528,10,-7.49992e-05,-3.32503,-0.186268,-0.316748,5.86684,0.1585204,
2,0,0,1,0,54298.4,0.151417,0.151053,-0.527502,28,0.0151674,10,-7.96808e-05,-3.27778,-0.139552,-0.422782,8.72425,0.151053,
2,0,0,1,0,54299.1,0.143925,0.143586,-0.617913,28,0.0147295,10,-8.87237e-05,-3.20907,-0.0874859,-0.674394,16.2548,0.143586,
2,0,0,1,0,54299.9,0.136435,0.136029,-0.75592,28,0.0142059,10,-0.000102827,-3.12152,-0.0849737,-0.694333,20.4615,0.136029,
2,0,0,1,0,54300.6,0.128943,0.12857,-0.913968,28,0.0135679,10,-0.000117509,-3.03907,-0.104435,-0.564947,20.0882,0.12857,
2,0,0,1,0,54301.4,0.121453,0.121065,-1.04533,28,0.0128191,10,-0.000126553,-2.98075,-0.169712,-0.347648,14.1436,0.1210647,
2,0,0,1,0,54302.1,0.113962,0.1136,-1.11614,28,0.0119921,10,-0.000126794,-2.95228,-0.581876,-0.101396,4.41246,0.1136,
2,0,0,1,0,54302.9,0.106471,0.106108,-1.12387,28,0.0111368,10,-0.000119252,-2.94928,1.86533,0.0316299,-1.39088,0.106108,
2,0,0,1,0,54303.6,0.0989798,0.0986297,-1.10501,28,0.0102887,10,-0.000108987,-2.95663,0.783543,0.075299,-3.2442,0.0986297,
2,0,0,1,0,54304.4,0.0914889,0.091157,-1.07923,28,0.00945963,10,-9.83792e-05,-2.96689,0.678353,0.0869754,-3.65667,0.091157,
2,0,0,1,0,54305.1,0.083998,0.0836843,-1.05142,28,0.00865038,10,-8.79878e-05,-2.97822,0.514379,0.114701,-4.69549,0.0836843,
2,0,0,1,0,54305.9,0.076507,0.0761416,-1.0245,28,0.00786121,10,-7.80071e-05,-2.98949,0.536969,0.109876,-4.38667,0.0761416,
2,0,0,1,0,54306.6,0.069016,0.0686594,-0.993516,28,0.00709348,10,-6.82143e-05,-3.00282,0.571479,0.103241,-4.01335,0.0686594,
2,0,0,1,0,54307.4,0.0615251,0.0611698,-0.965234,28,0.00634706,10,-5.90431e-05,-3.01537,0.604868,0.0975419,-3.68195,0.06116977,
2,0,0,1,0,54308.1,0.0540342,0.0536928,-0.936062,28,0.0056231,10,-5.02598e-05,-3.0287,0.57037,0.103442,-3.77175,0.0536928,
2,0,0,1,0,54308.9,0.0465441,0.0461796,-0.904306,28,0.00492194,10,-4.17605e-05,-3.04368,0.538657,0.109532,-3.86788,0.0461796,
2,0,0,1,0,54309.6,0.0390523,0.0386817,-0.872249,28,0.00424487,10,-3.37401e-05,-3.05936,0.398662,0.147995,-5.02499,0.0386817,
2,0,0,1,0,54310.4,0.0315618,0.0312159,-0.839627,28,0.00359228,10,-2.62097e-05,-3.07591,0.409204,0.144182,-4.72276,0.0312159,
2,0,0,1,0,54311.1,0.0240704,0.0237205,-0.806544,28,0.00296353,10,-1.91316e-05,-3.09337,0.509119,0.115887,-3.65745,0.0237205,
2,0,0,1,0,54311.9,0.0165796,0.0162429,-0.786185,28,0.00235519,10,-1.277e-05,-3.10448,0.873206,0.0675671,-2.07418,0.0162429,
2,0,0,1,0,54312.6,0.00908846,0.0086998,-0.770443,28,0.00176093,10,-6.7027e-06,-3.11326,2.04662,0.0288281,-0.867631,0.0086998,
2,0,0,1,0,54313.4,0.00159728,0.00120775,-0.77781,28,0.00117226,10,-9.39404e-07,-3.10913, , , ,0.00120775,
2,0,0,1,0,54313.5,0.000199195,-0.000184077,-0.767991,28,0.00106199,10,1.4137e-07,-3.11464, , , ,-0.000184077,