File: Figure_codes/Fig_3-5/rawdata_trumpetplot_data/after 10th/20221101_1-115_003_TrumpetPlot_ParaChange_from10_every3_03_CV_C01_6.csv
mode,ox/red,error,control changes,counter inc.,time/s,control/V,Ewe/V,<I>/mA,cycle number,(Q-Qo)/C,I Range,P/W,log(|I|),Tafel slope mV/dec,alpha_eff,dI/d(E-IR),E-IR/V,
2,0,0,1,0,12760.8,2.44065e-05,-0.000401673,-0.110207,7,0.0000000E+000,10,4.4267e-08,-3.95779, , , ,-0.000401673,
2,1,0,1,0,12762.3,0.00729041,0.00697332,0.211478,7,0.000272487,10,1.4747e-06,-3.67474,0.085441,0.690535,5.61018,0.00697332,
2,1,0,1,0,12763.7,0.0147815,0.0144798,0.242925,7,0.000637258,10,3.51752e-06,-3.61453,0.139147,0.424013,4.00909,0.0144798,
2,1,0,1,0,12765.2,0.0222725,0.0219231,0.270383,7,0.00104631,10,5.92762e-06,-3.56802,0.151804,0.388659,4.09259,0.0219231,
2,1,0,1,0,12766.7,0.0297635,0.0294668,0.298414,7,0.00149654,10,8.7933e-06,-3.52518,0.185056,0.318823,3.70174,0.0294668,
2,1,0,1,0,12768.2,0.0372545,0.0369375,0.324216,7,0.00198804,10,1.19757e-05,-3.48917,0.21293,0.277086,3.52508,0.0369375,
2,1,0,1,0,12769.7,0.0447456,0.0444294,0.352223,7,0.00252035,10,1.56491e-05,-3.45318,0.241575,0.244231,3.36251,0.0444294,
2,1,0,1,0,12771.2,0.0522367,0.0519254,0.377295,7,0.00309184,10,1.95912e-05,-3.42332,0.222135,0.265605,3.90977,0.0519254,
2,1,0,1,0,12772.7,0.0597277,0.0593939,0.401547,7,0.00370038,10,2.38494e-05,-3.39626,0.307115,0.19211,3.00696,0.0593939,
2,1,0,1,0,12774.2,0.0672187,0.0668796,0.422953,7,0.00434203,10,2.82869e-05,-3.37371,0.391849,0.150568,2.4754,0.0668796,
2,1,0,1,0,12775.7,0.0747092,0.0744111,0.439521,7,0.00501315,10,3.27053e-05,-3.35702,0.513331,0.114936,1.97458,0.0744111,
2,1,0,0,0,12777.2,0.0822001,0.0818763,0.455959,7,0.00571064,10,3.73322e-05,-3.34107,0.443566,0.133013,2.377,0.08187633,
2,1,0,1,0,12778.7,0.0896911,0.0893586,0.4814,7,0.00643759,10,4.30172e-05,-3.31749,0.277349,0.212729,3.99593,0.0893586,
2,1,0,0,0,12780.2,0.097182,0.0968673,0.517502,7,0.00720869,10,5.01291e-05,-3.28609,0.186597,0.31619,6.37123,0.0968673,
2,1,0,1,0,12781.7,0.104673,0.104368,0.566162,7,0.0080415,10,5.90889e-05,-3.24706,0.207542,0.284279,6.23786,0.104368,
2,1,0,0,0,12783.2,0.112164,0.111856,0.605605,7,0.00894232,10,6.77406e-05,-3.21781,0.343241,0.171891,4.04203,0.111856,
2,1,0,1,0,12784.7,0.119655,0.119304,0.63644,7,0.00989823,10,7.59302e-05,-3.19624,0.426606,0.138301,3.43894,0.119304,
2,1,0,0,0,12786.2,0.127146,0.126874,0.665127,7,0.0109009,10,8.4387e-05,-3.1771,0.412758,0.142941,3.72411,0.126874,
2,1,0,1,0,12787.7,0.134637,0.13436,0.67884,7,0.0119408,10,9.12089e-05,-3.16823,-0.608918,-0.0968931,-2.56289,0.13436,
2,1,0,1,0,12789.2,0.142127,0.14183,0.618921,7,0.0129486,10,8.77817e-05,-3.20837,-0.109128,-0.540649,-12.9781,0.1418303,
2,1,0,1,0,12790.7,0.149618,0.149293,0.500804,7,0.0138134,10,7.47668e-05,-3.30033,-0.0733233,-0.804655,-15.7395,0.149293,
2,1,0,1,0,12792.2,0.157109,0.156797,0.408106,7,0.0145126,10,6.39897e-05,-3.38923,-0.100856,-0.584992,-9.32991,0.156797,
2,1,0,1,0,12793.7,0.1646,0.16425,0.360418,7,0.0151087,10,5.91985e-05,-3.44319,-0.187615,-0.314474,-4.42412,0.16425,
2,1,0,1,0,12795.2,0.172091,0.171785,0.333773,7,0.0156511,10,5.73372e-05,-3.47655,-0.260897,-0.226143,-2.96543,0.171785,
2,1,0,1,0,12796.7,0.179582,0.179291,0.318693,7,0.0161636,10,5.71387e-05,-3.49663,-0.76522,-0.077102,-0.964795,0.179291,
2,1,0,1,0,12798.2,0.187074,0.186731,0.310136,7,0.0166583,10,5.79118e-05,-3.50845,-0.465884,-0.126641,-1.53023,0.186731,
2,1,0,1,0,12799.7,0.194564,0.194253,0.302426,7,0.0171403,10,5.87472e-05,-3.51938,-1.00326,-0.0588082,-0.694218,0.1942531,
2,1,0,1,0,12801.2,0.202056,0.201741,0.297516,7,0.0176128,10,6.00211e-05,-3.52649,-1.52649,-0.0386509,-0.447899,0.201741,
2,1,0,1,0,12802.7,0.209547,0.209252,0.292798,7,0.0180782,10,6.12684e-05,-3.53343,-0.954583,-0.0618071,-0.70435,0.209252,
2,1,0,1,0,12804.2,0.217038,0.216725,0.288017,7,0.0185362,10,6.24207e-05,-3.54058,-1.53546,-0.0384249,-0.432473,0.216725,
2,1,0,1,0,12805.7,0.224529,0.224244,0.284808,7,0.018989,10,6.38664e-05,-3.54545,-3.3534,-0.0175941,-0.195089,0.224244,
2,1,0,1,0,12807.2,0.232019,0.231713,0.281387,7,0.0194368,10,6.52009e-05,-3.5507,-4.61492,-0.0127846,-0.140346,0.231713,
2,1,0,0,0,12808.7,0.23951,0.239216,0.279706,7,0.0198807,10,6.69102e-05,-3.5533,-1.78287,-0.0330928,-0.361753,0.239216,
2,1,0,1,0,12810.2,0.247001,0.24672,0.276875,7,0.0203211,10,6.83105e-05,-3.55772,-1.83886,-0.0320851,-0.347228,0.2467197,
2,1,0,0,0,12811.7,0.254492,0.25417,0.27493,7,0.0207579,10,6.9879e-05,-3.56078,-1.54,-0.0383116,-0.411651,0.25417,
2,1,0,1,0,12813.2,0.261983,0.261647,0.272954,7,0.0211916,10,7.14176e-05,-3.56391,-1.88226,-0.0313453,-0.332941,0.261647,
2,1,0,0,0,12814.7,0.269474,0.269194,0.271333,7,0.0216219,10,7.30412e-05,-3.5665,9.32858,0.00632465,0.0665945,0.269194,
2,1,0,1,0,12816.2,0.276965,0.27662,0.269181,7,0.0220497,10,7.44607e-05,-3.56996,-3.45814,-0.0170612,-0.179879,0.27662,
2,1,0,0,0,12817.7,0.284456,0.284202,0.268234,7,0.0224746,10,7.62326e-05,-3.57149,-1.09313,-0.0539737,-0.562616,0.284202,
2,1,0,1,0,12819.2,0.291947,0.291689,0.264382,7,0.0228963,10,7.71175e-05,-3.57777,-1.47339,-0.0400437,-0.414921,0.291689,
2,1,0,1,0,12820.7,0.299437,0.299154,0.262093,7,0.0233149,10,7.84061e-05,-3.58155,-0.00238227,-24.7663,-120.438,0.299154,
2,0,0,1,0,12822,0.293744,0.293463,-0.0190375,7,0.0233448,10,-5.5868e-06,-4.72039,-0.00618369,-9.54123,5.41649,0.293463,
2,0,0,1,0,12823.5,0.286253,0.285916,-0.0470781,7,0.02327,10,-1.34604e-05,-4.32718,-0.0346492,-1.70278,3.16139,0.285916,
2,0,0,0,0,12825,0.278763,0.278478,-0.0687366,7,0.0231591,10,-1.91416e-05,-4.16281,-0.065696,-0.898076,2.36208,0.278478,
2,0,0,1,0,12826.5,0.271272,0.270956,-0.083321,7,0.0230213,10,-2.25764e-05,-4.07925,-0.108229,-0.545141,1.78039,0.270956,
2,0,0,0,0,12828,0.263781,0.263473,-0.0979497,7,0.0228619,10,-2.58071e-05,-4.009,-0.139214,-0.423809,1.61968,0.263473,
2,0,0,1,0,12829.5,0.25629,0.255954,-0.109735,7,0.0226836,10,-2.80872e-05,-3.95965,-0.208065,-0.283565,1.20727,0.255954,
2,0,0,0,0,12831,0.248799,0.248451,-0.119647,7,0.0224888,10,-2.97265e-05,-3.9221,-0.216079,-0.273049,1.27977,0.248451,
2,0,0,1,0,12832.5,0.241308,0.241058,-0.129299,7,0.0222786,10,-3.11687e-05,-3.8884,-0.283764,-0.207919,1.05275,0.241058,
2,0,0,0,0,12834,0.233817,0.233528,-0.139283,7,0.0220539,10,-3.25265e-05,-3.8561,-0.254941,-0.231426,1.25582,0.233528,
2,0,0,1,0,12835.5,0.226326,0.226047,-0.147718,7,0.0218158,10,-3.33912e-05,-3.83057,-0.306102,-0.192746,1.11681,0.226047,
2,0,0,0,0,12837,0.218835,0.218526,-0.157475,7,0.0215642,10,-3.44122e-05,-3.80279,-0.320167,-0.184279,1.12779,0.218526,
2,0,0,1,0,12838.5,0.211344,0.211054,-0.165649,7,0.0212991,10,-3.49608e-05,-3.78081,-0.271153,-0.217589,1.4096,0.211054,
2,0,0,1,0,12840,0.203854,0.203561,-0.174868,7,0.0210193,10,-3.55962e-05,-3.75729,-0.322929,-0.182703,1.25149,0.203561,
2,0,0,1,0,12841.5,0.196363,0.19601,-0.186391,7,0.0207253,10,-3.65345e-05,-3.72958,-0.2933,-0.201159,1.46323,0.19601,
2,0,0,1,0,12843,0.188871,0.188549,-0.197297,7,0.0204137,10,-3.72001e-05,-3.70488,-0.207661,-0.284117,2.19521,0.188549,
2,0,0,1,0,12844.5,0.181381,0.181106,-0.21248,7,0.0200828,10,-3.84814e-05,-3.67268,-0.262609,-0.224669,1.85731,0.181106,
2,0,0,1,0,12846,0.173889,0.173577,-0.229314,7,0.0197288,10,-3.98037e-05,-3.63957,-0.203946,-0.289293,2.58583,0.173577,
2,0,0,1,0,12847.5,0.166398,0.166093,-0.251369,7,0.0193448,10,-4.17505e-05,-3.59969,-0.17519,-0.336777,3.33206,0.166093,
2,0,0,1,0,12849,0.158907,0.158625,-0.28456,7,0.0189194,10,-4.51385e-05,-3.54583,-0.121721,-0.484716,5.41328,0.1586253,
2,0,0,1,0,12850.5,0.151416,0.151074,-0.339331,7,0.0184296,10,-5.12641e-05,-3.46938,-0.082483,-0.715299,9.50904,0.151074,
2,0,0,1,0,12852,0.143925,0.143602,-0.425275,7,0.0178358,10,-6.10705e-05,-3.37133,-0.0645918,-0.913429,15.177,0.143602,
2,0,0,1,0,12853.5,0.136434,0.136093,-0.544043,7,0.0170851,10,-7.40401e-05,-3.26437,-0.0780528,-0.755898,15.9884,0.136093,
2,0,0,1,0,12855,0.128943,0.128646,-0.644751,7,0.0161631,10,-8.29448e-05,-3.19061,-0.158591,-0.372027,9.30512,0.128646,
2,0,0,0,0,12856.5,0.121453,0.121142,-0.688017,7,0.0151328,10,-8.33479e-05,-3.1624,-0.969691,-0.0608441,1.62869,0.121142,
2,0,0,1,0,12858,0.113962,0.113643,-0.681032,7,0.0140764,10,-7.73945e-05,-3.16683,0.681535,0.0865692,-2.30628,0.113643,
2,0,0,0,0,12859.5,0.106471,0.106141,-0.661228,7,0.0130431,10,-7.01831e-05,-3.17965,0.498934,0.118252,-3.06056,0.106141,
2,0,0,1,0,12861,0.0989799,0.098705,-0.633927,7,0.0120473,10,-6.25718e-05,-3.19796,0.446125,0.13225,-3.26387,0.098705,
2,0,0,0,0,12862.5,0.0914889,0.0911337,-0.603691,7,0.0110956,10,-5.50166e-05,-3.21919,0.351575,0.167816,-3.94814,0.0911337,
2,0,0,1,0,12864,0.083998,0.0836737,-0.573428,7,0.0101886,10,-4.79808e-05,-3.24152,0.33317,0.177087,-3.96581,0.0836737,
2,0,0,0,0,12865.5,0.076507,0.0762297,-0.552183,7,0.00932006,10,-4.20927e-05,-3.25792,0.456425,0.129266,-2.7828,0.0762297,
2,0,0,1,0,12867,0.0690161,0.068722,-0.531696,7,0.00848289,10,-3.65392e-05,-3.27434,0.545434,0.108171,-2.25567,0.068722,
2,0,0,0,0,12868.5,0.0615251,0.0612185,-0.515056,7,0.00767201,10,-3.1531e-05,-3.28815,0.564978,0.104429,-2.10816,0.0612185,
2,0,0,1,0,12870,0.0540342,0.0536907,-0.499062,7,0.00688744,10,-2.6795e-05,-3.30185,0.577463,0.102171,-1.98684,0.0536907,
2,0,0,1,0,12871.5,0.0465436,0.0461866,-0.481022,7,0.00612912,10,-2.22168e-05,-3.31783,0.472843,0.124777,-2.34453,0.0461866,
2,0,0,1,0,12873,0.0390526,0.0387056,-0.462695,7,0.00539767,10,-1.79089e-05,-3.3347,0.399115,0.147827,-2.6682,0.0387056,
2,0,0,1,0,12874.5,0.0315615,0.0312336,-0.445321,7,0.00469248,10,-1.3909e-05,-3.35133,0.494507,0.119311,-2.07286,0.0312336,
2,0,0,1,0,12876,0.0240706,0.0237461,-0.429321,7,0.00401241,10,-1.01947e-05,-3.36722,0.497813,0.118518,-1.99245,0.0237461,
2,0,0,1,0,12877.5,0.0165795,0.0162563,-0.419241,7,0.00335317,10,-6.81531e-06,-3.37754,1.31187,0.0449741,-0.734154,0.0162563,
2,0,0,1,0,12879,0.00908846,0.00879093,-0.413021,7,0.0027065,10,-3.63084e-06,-3.38403,2.75485,0.0214168,-0.345801,0.00879093,
2,0,0,1,0,12880.5,0.00159739,0.0012491,-0.417594,7,0.0020616,10,-5.21618e-07,-3.37925, , , ,0.0012491,
2,0,0,0,0,12880.8,0.000199195,-0.000168808,-0.415796,7,0.00194073,10,7.01895e-08,-3.38112, , , ,-0.000168808,