File: Figure_codes/Fig_3-5/rawdata_trumpetplot_data/after 10th/20221101_1-115_003_TrumpetPlot_ParaChange_from10_every3_12_CV_C01_18.csv
mode,ox/red,error,control changes,counter inc.,time/s,control/V,Ewe/V,<I>/mA,cycle number,(Q-Qo)/C,I Range,P/W,log(|I|),Tafel slope mV/dec,alpha_eff,dI/d(E-IR),E-IR/V,
2,1,0,1,0,36658.9,2.44065e-05,-0.000344411,15.5266,19,0.0000000E+000,10,-5.34754e-06,-1.80892, , , ,-0.000344411,
2,1,0,1,0,36658.9,0.0104008,0.0100794,18.7043,19,0.000297638,10,0.000188527,-1.72806,0.191304,0.30841,224.02,0.0100794,
2,1,0,1,0,36658.9,0.0212099,0.0208839,20.7784,19,0.00065403,10,0.000433934,-1.68239,0.28633,0.206056,166.644,0.0208839,
2,1,0,1,0,36658.9,0.0320052,0.031665,22.4255,19,0.00104345,10,0.000710103,-1.64926,0.368291,0.1602,140.017,0.03166502,
2,1,0,1,0,36658.9,0.0428033,0.0424621,23.8719,19,0.00146038,10,0.00101365,-1.62211,0.431721,0.136662,127.183,0.0424621,
2,1,0,1,0,36659,0.0535986,0.0532549,25.1934,19,0.00190207,10,0.00134167,-1.59871,0.474476,0.124348,122.226,0.0532549,
2,1,0,1,0,36659,0.0644077,0.0640647,26.5165,19,0.00236761,10,0.00169877,-1.57648,0.495735,0.119015,123.124,0.0640647,
2,1,0,1,0,36659,0.075203,0.0748225,27.8568,19,0.00285704,10,0.00208432,-1.55507,0.499224,0.118183,128.511,0.0748225,
2,1,0,1,0,36659,0.0860011,0.0856355,29.2396,19,0.00337105,10,0.00250395,-1.53403,0.51525,0.114508,130.709,0.0856355,
2,1,0,1,0,36659,0.0968075,0.0964262,30.6762,19,0.00391047,10,0.00295799,-1.5132,0.521144,0.113212,135.558,0.0964262,
2,1,0,1,0,36659,0.107606,0.107265,32.1555,19,0.00447613,10,0.00344915,-1.49274,0.540092,0.109241,137.061,0.107265,
2,1,0,1,0,36659.1,0.118401,0.118026,33.6042,19,0.00506823,10,0.00396615,-1.47361,0.551505,0.10698,140.467,0.118026,
2,1,0,1,0,36659.1,0.129207,0.128856,35.2435,19,0.00568787,10,0.00454132,-1.45292,0.528596,0.111616,153.506,0.128856,
2,1,0,1,0,36659.1,0.140005,0.139658,36.9784,19,0.00633781,10,0.00516432,-1.43205,0.50805,0.11613,167.571,0.139658,
2,1,0,1,0,36659.1,0.150803,0.15046,38.808,19,0.00701996,10,0.00583907,-1.41108,0.526583,0.112043,169.63,0.15046,
2,1,0,1,0,36659.1,0.161604,0.16127,40.5933,19,0.00773489,10,0.00654649,-1.39155,0.596055,0.0989842,156.701,0.16127,
2,1,0,1,0,36659.2,0.172405,0.172065,42.1795,19,0.0084804,10,0.00725761,-1.3749,0.730631,0.0807521,132.79,0.172065,
2,1,0,1,0,36659.2,0.183203,0.18288,43.3714,19,0.0092513,10,0.00793176,-1.3628,1.23478,0.0477817,80.7332,0.18288,
2,1,0,1,0,36659.2,0.194001,0.193651,43.8158,19,0.0100374,10,0.00848497,-1.35837,-41.7619,-0.00141277,-2.41069,0.193651,
2,1,0,1,0,36659.2,0.204808,0.20446,43.2902,19,0.0108229,10,0.00885113,-1.36361,-1.05164,-0.056103,-94.5775,0.20446,
2,1,0,1,0,36659.2,0.215603,0.215239,41.7538,19,0.0115896,10,0.00898707,-1.3793,-0.524951,-0.112391,-182.782,0.215239,
2,1,0,1,0,36659.2,0.226401,0.226109,39.3841,19,0.0123207,10,0.00890509,-1.40468,-0.36607,-0.161172,-247.375,0.226109,
2,1,0,1,0,36659.3,0.237207,0.236897,36.5509,19,0.0130041,10,0.00865881,-1.4371,-0.314233,-0.187759,-267.707,0.236897,
2,1,0,1,0,36659.3,0.248005,0.247709,33.7014,19,0.0136358,10,0.00834813,-1.47235,-0.306581,-0.192445,-253.156,0.247709,
2,1,0,1,0,36659.3,0.258801,0.258515,31.1123,19,0.0142183,10,0.00804299,-1.50707,-0.32074,-0.183949,-223.514,0.258515,
2,1,0,1,0,36659.3,0.26961,0.269272,28.9091,19,0.0147575,10,0.00778441,-1.53897,-0.355056,-0.166171,-187.554,0.269272,
2,1,0,1,0,36659.3,0.280405,0.280095,27.073,19,0.0152606,10,0.007583,-1.56746,-0.406819,-0.145028,-153.338,0.280095,
2,1,0,1,0,36659.4,0.291203,0.290855,25.5767,19,0.0157337,10,0.00743911,-1.59216,-0.46708,-0.126317,-126.181,0.290855,
2,1,0,0,0,36659.4,0.300012,0.299651,24.5405,19,0.0161018,10,0.00735358,-1.61012,0.00251965,23.416,20047.7,0.299651,
2,1,0,1,0,36659.4,0.290842,0.290542,12.8734,19,0.0163738,10,0.00374025,-1.89031,0.0330072,1.78749,902.776,0.290542,
2,1,0,1,0,36659.4,0.280047,0.27977,5.31642,19,0.0165316,10,0.00148738,-2.27438,0.0207554,2.84263,562.635,0.27977,
2,1,0,1,0,36659.4,0.269244,0.268985,0.284274,19,0.0165787,10,7.64656e-05,-3.54626,0.0472799,1.24789,389.993,0.268985,
2,0,0,1,0,36659.4,0.258443,0.25811,-3.27867,19,0.0165497,10,-0.000846256,-2.4843,-0.0245663,-2.40166,280.017,0.25811,
2,0,0,1,0,36659.5,0.247645,0.247331,-5.92527,19,0.0164654,10,-0.0014655,-2.22729,-0.0620434,-0.950947,216.024,0.2473305,
2,0,0,1,0,36659.5,0.236849,0.236525,-7.9864,19,0.0163392,10,-0.00188898,-2.09765,-0.107459,-0.549046,169.681,0.236525,
2,0,0,1,0,36659.5,0.22604,0.225694,-9.64051,19,0.0161799,10,-0.0021758,-2.0159,-0.160765,-0.366996,137.336,0.225694,
2,0,0,1,0,36659.5,0.215245,0.214937,-10.9966,19,0.0159938,10,-0.00236357,-1.95874,-0.216179,-0.272922,116.809,0.2149372,
2,0,0,1,0,36659.5,0.204447,0.204093,-12.1721,19,0.015785,10,-0.00248424,-1.91463,-0.275577,-0.214096,101.477,0.204093,
2,0,0,1,0,36659.5,0.19364,0.193336,-13.2166,19,0.0155564,10,-0.00255524,-1.87888,-0.329077,-0.179289,92.2987,0.193336,
2,0,0,1,0,36659.6,0.182842,0.182509,-14.174,19,0.0153097,10,-0.00258689,-1.84851,-0.367262,-0.160648,88.8302,0.1825089,
2,0,0,1,0,36659.6,0.172047,0.17176,-15.124,19,0.0150459,10,-0.0025977,-1.82033,-0.381996,-0.154452,91.2452,0.17176,
2,0,0,1,0,36659.6,0.161241,0.160904,-16.1429,19,0.0147646,10,-0.00259746,-1.79202,-0.377585,-0.156256,98.5104,0.160904,
2,0,0,1,0,36659.6,0.150443,0.150152,-17.3217,19,0.0144637,10,-0.00260088,-1.76141,-0.325126,-0.181468,122.871,0.150152,
2,0,0,1,0,36659.6,0.139645,0.139297,-18.862,19,0.0141385,10,-0.00262743,-1.72441,-0.25996,-0.226958,167.565,0.139297,
2,0,0,1,0,36659.7,0.128849,0.128583,-20.9882,19,0.0137806,10,-0.00269873,-1.67802,-0.212408,-0.277767,228.099,0.128583,
2,0,0,1,0,36659.7,0.118043,0.117755,-23.8069,19,0.0133782,10,-0.00280339,-1.6233,-0.193583,-0.304779,283.137,0.117755,
2,0,0,1,0,36659.7,0.107245,0.106931,-27.0029,19,0.0129208,10,-0.00288743,-1.56859,-0.206233,-0.286084,301.157,0.106931,
2,0,0,1,0,36659.7,0.0964468,0.0961282,-30.2066,19,0.0124053,10,-0.00290371,-1.5199,-0.245085,-0.240733,283.206,0.0961282,
2,0,0,1,0,36659.7,0.0856404,0.0853799,-33.1601,19,0.0118346,10,-0.0028312,-1.47938,-0.293717,-0.200874,259.37,0.0853799,
2,0,0,1,0,36659.7,0.0748451,0.0745818,-35.6925,19,0.0112139,10,-0.00266201,-1.44742,-0.384541,-0.153429,213.368,0.0745818,
2,0,0,1,0,36659.8,0.0640471,0.0638049,-37.6846,19,0.0105525,10,-0.00240446,-1.42384,-0.539938,-0.109272,160.509,0.0638049,
2,0,0,1,0,36659.8,0.0532407,0.0529198,-39.1667,19,0.00985985,10,-0.00207269,-1.40708,-0.830037,-0.0710811,108.469,0.0529198,
2,0,0,1,0,36659.8,0.0424426,0.0421599,-40.076,19,0.00914591,10,-0.0016896,-1.39712,-1.41048,-0.0418298,65.3666,0.0421599,
2,0,0,1,0,36659.8,0.0316473,0.0313501,-40.5974,19,0.00841918,10,-0.00127273,-1.3915,-2.81737,-0.0209416,33.1639,0.03135008,
2,0,0,1,0,36659.8,0.0208437,0.0205191,-40.8294,19,0.00768597,10,-0.000837782,-1.38903,-12.5968,-0.00468373,7.45743,0.0205191,
2,0,0,1,0,36659.9,0.0100429,0.00975808,-40.8131,19,0.00695096,10,-0.000398258,-1.3892,7.68,0.00768229,-12.227,0.00975808,
2,0,0,1,0,36659.9,-0.000755207,-0.00110472,-40.6116,19,0.00621801,10,4.48645e-05,-1.39135,3.27531,0.0180136,-28.5151,-0.00110472,
2,0,0,1,0,36659.9,-0.0115505,-0.0118912,-40.1097,19,0.00549123,10,0.000476952,-1.39675,1.62112,0.0363946,-56.9415,-0.0118912,
2,0,0,1,0,36659.9,-0.0223597,-0.0227561,-39.3809,19,0.0047756,10,0.000896156,-1.40471,1.15842,0.0509312,-78.2225,-0.0227561,
2,0,0,1,0,36659.9,-0.033155,-0.0335245,-38.4712,19,0.00407493,10,0.00128973,-1.41486,1.06818,0.0552341,-82.9335,-0.0335245,
2,0,0,1,0,36659.9,-0.043953,-0.0443036,-37.538,19,0.00339093,10,0.00166307,-1.42553,1.04703,0.0563501,-82.5962,-0.0443036,
2,0,0,1,0,36660,-0.0547594,-0.0551187,-36.7277,19,0.00272279,10,0.00202438,-1.43501,1.22253,0.0482607,-69.2108,-0.0551187,
2,0,0,1,0,36660,-0.0655575,-0.0659168,-36.0889,19,0.00206776,10,0.00237887,-1.44263,1.7975,0.0328233,-46.2674,-0.0659168,
2,0,0,1,0,36660,-0.0763528,-0.0767117,-35.6867,19,0.00142205,10,0.00273759,-1.44749,3.00931,0.0196058,-27.3272,-0.0767117,
2,0,0,1,0,36660,-0.0871592,-0.0875332,-35.5028,19,0.000781701,10,0.00310768,-1.44974,9.4247,0.00626015,-8.67817,-0.0875332,
2,0,0,1,0,36660,-0.0979573,-0.0983387,-35.5214,19,0.00014283,10,0.00349313,-1.44951,-99.1897,-0.00059482,0.823607,-0.0983387,
2,0,0,1,1,36660,-0.0955546,-0.0959931,-27.6797,19,-0.000214843,10,0.00265706,-1.55784,-0.0447015,-1.31987,1446.25,-0.0959931,
2,0,0,1,1,36660.1,-0.0847538,-0.0851812,-16.0863,19,-0.000599867,10,0.00137025,-1.79354,-0.0421563,-1.39955,875.793,-0.0851812,
2,0,0,1,1,36660.1,-0.0739557,-0.0743767,-7.90608,19,-0.000811702,10,0.000588029,-2.10204,-0.0265103,-2.22555,664.156,-0.0743767,
2,0,0,1,1,36660.1,-0.0631604,-0.0635797,-1.5452,19,-0.000893968,10,9.82433e-05,-2.81102,-0.0139652,-4.2248,527.704,-0.0635797,
2,1,0,1,1,36660.1,-0.0523512,-0.0527656,3.60019,19,-0.00087343,10,-0.000189966,-2.44367,0.0162394,3.63313,431.896,-0.0527656,
2,1,0,1,1,36660.1,-0.0415559,-0.0420067,7.82161,19,-0.000769152,10,-0.00032856,-2.1067,0.0488582,1.20758,359.397,-0.0420067,
2,1,0,1,1,36660.2,-0.0307579,-0.0312023,11.339,19,-0.000595275,10,-0.000353801,-1.94543,0.0872664,0.676091,296.346,-0.0312023,
2,1,0,1,1,36660.2,-0.0199515,-0.0203511,14.2745,19,-0.000363607,10,-0.000290501,-1.84544,0.133657,0.441427,244.394,-0.02035111,
2,1,0,1,1,36660.2,-0.0091534,-0.00954238,16.6796,19,-8.41781e-05,10,-0.000159163,-1.77781,0.189377,0.311548,202.027,-0.00954238,
2,1,0,0,1,36660.2,-7.54729e-05,-0.00042076,18.3169,19,0.000180888,10,-7.70702e-06,-1.73715, , , ,-0.00042076,