File: Figure_codes/Fig_3-5/rawdata_trumpetplot_data/after 10th/20221101_1-115_003_TrumpetPlot_ParaChange_from10_every3_09_CV_C01_9.csv
mode,ox/red,error,control changes,counter inc.,time/s,control/V,Ewe/V,<I>/mA,cycle number,(Q-Qo)/C,I Range,P/W,log(|I|),Tafel slope mV/dec,alpha_eff,dI/d(E-IR),E-IR/V,
2,0,0,0,0,18913.7,2.44065e-05,-0.000401673,-5.41662,10,0.0000000E+000,10,2.17571e-06,-2.26627, , , ,-0.000401673,
2,1,0,1,0,18913.8,0.00978761,0.00946474,1.76255,10,-6.47749e-05,10,1.6682e-05,-2.75386,0.0133272,4.42705,279.39,0.00946474,
2,1,0,1,0,18913.9,0.0197755,0.0194612,3.41194,10,0.00020795,10,6.64003e-05,-2.467,0.0770005,0.766229,101.576,0.0194612,
2,1,0,1,0,18914,0.0297635,0.0294717,4.22117,10,0.000592898,10,0.000124405,-2.37457,0.147422,0.400211,65.8075,0.0294717,
2,1,0,1,0,18914.1,0.0397514,0.0394647,4.84261,10,0.00104723,10,0.000191112,-2.31492,0.178915,0.329766,62.3516,0.0394647,
2,1,0,1,0,18914.2,0.0497484,0.0494331,5.42748,10,0.0015613,10,0.000268297,-2.2654,0.227946,0.258833,54.6977,0.0494331,
2,1,0,1,0,18914.3,0.0597273,0.0593959,5.95037,10,0.00212986,10,0.000353427,-2.22546,0.258896,0.227891,52.8876,0.0593959,
2,1,0,1,0,18914.4,0.0697152,0.0693811,6.43305,10,0.00274985,10,0.000446332,-2.19158,0.325997,0.180983,45.4659,0.0693811,
2,1,0,1,0,18914.5,0.0797031,0.0793777,6.87287,10,0.0034158,10,0.000545553,-2.16286,0.407346,0.14484,38.8243,0.0793777,
2,1,0,1,0,18914.6,0.0896911,0.0893481,7.24146,10,0.004122,10,0.000647011,-2.14017,0.424118,0.139112,39.372,0.0893481,
2,1,0,1,0,18914.7,0.099679,0.0993482,7.68641,10,0.00486634,10,0.000763631,-2.11428,0.328681,0.179505,53.8154,0.0993482,
2,1,0,1,0,18914.8,0.109667,0.109336,8.33296,10,0.00566523,10,0.00091109,-2.0792,0.250913,0.235141,76.5872,0.109336,
2,1,0,1,0,18914.9,0.119655,0.119346,9.16464,10,0.00654023,10,0.00109376,-2.03788,0.276429,0.213437,76.3105,0.119346,
2,1,0,1,0,18915,0.129643,0.129376,9.84379,10,0.00749207,10,0.00127356,-2.00684,0.390838,0.150958,57.9327,0.129376,
2,1,0,1,0,18915.1,0.139631,0.139273,10.312,10,0.00850113,10,0.00143618,-1.98666,0.651609,0.0905451,36.4338,0.139273,
2,1,0,1,0,18915.2,0.149619,0.149291,10.4198,10,0.00954209,10,0.00155557,-1.98214,-0.701535,-0.0841013,-34.0972,0.149291,
2,1,0,1,0,18915.3,0.159607,0.159265,9.30166,10,0.0105405,10,0.00148143,-2.03144,-0.113007,-0.522091,-189.119,0.159265,
2,1,0,1,0,18915.4,0.169595,0.169313,7.27167,10,0.0113688,10,0.00123119,-2.13837,-0.0903147,-0.653271,-185.545,0.169313,
2,1,0,1,0,18915.5,0.179582,0.179272,5.84453,10,0.012017,10,0.00104776,-2.23325,-0.131825,-0.447565,-102.43,0.179272,
2,1,0,1,0,18915.6,0.18957,0.189251,5.09593,10,0.0125605,10,0.00096441,-2.29278,-0.215322,-0.274008,-54.5601,0.189251,
2,1,0,1,0,18915.7,0.199558,0.199235,4.67603,10,0.0130467,10,0.000931627,-2.33012,-0.339422,-0.173825,-31.6865,0.199235,
2,1,0,1,0,18915.8,0.209546,0.209211,4.41661,10,0.0134999,10,0.000924004,-2.35491,-0.410739,-0.143644,-24.7507,0.209211,
2,1,0,1,0,18915.9,0.219534,0.219253,4.23034,10,0.0139314,10,0.000927514,-2.37363,-0.740412,-0.0796853,-13.1637,0.219253,
2,1,0,1,0,18916,0.229522,0.229222,4.10433,10,0.0143483,10,0.000940801,-2.38676,-0.781426,-0.075503,-12.1095,0.229222,
2,1,0,1,0,18916.1,0.23951,0.239235,4.01623,10,0.0147546,10,0.000960823,-2.39618,-1.46934,-0.040154,-6.30096,0.239235,
2,1,0,1,0,18916.2,0.249498,0.249172,3.95391,10,0.0151528,10,0.000985204,-2.40297,-1.50651,-0.0391633,-6.03688,0.249172,
2,1,0,1,0,18916.3,0.259486,0.259225,3.89729,10,0.0155449,10,0.00101028,-2.40924,-1.05175,-0.0560972,-8.51702,0.259225,
2,1,0,1,0,18916.4,0.269474,0.269161,3.83851,10,0.0159314,10,0.00103318,-2.41584,-1.39712,-0.0422297,-6.32949,0.269161,
2,1,0,1,0,18916.5,0.279462,0.279198,3.78816,10,0.0163129,10,0.00105765,-2.42157,-1.69232,-0.0348634,-5.15764,0.279198,
2,1,0,1,0,18916.6,0.28945,0.28914,3.73713,10,0.0166891,10,0.00108055,-2.42746,-4.51633,-0.0130637,-1.90491,0.28914,
2,1,0,1,0,18916.7,0.299438,0.299143,3.68866,10,0.0170601,10,0.00110344,-2.43313,-0.0303284,-1.94537,-257.269,0.299143,
2,0,0,1,0,18916.8,0.291747,0.291409,-0.948559,10,0.017111,10,-0.000276418,-3.02294,-0.0139243,-4.23719,143.561,0.291409,
2,0,0,1,0,18916.9,0.281759,0.281362,-1.68421,10,0.0169728,10,-0.000473874,-2.7736,-0.08741,-0.67498,44.0517,0.2813623,
2,0,0,1,0,18917,0.271771,0.271459,-2.01475,10,0.0167872,10,-0.00054692,-2.69578,-0.155898,-0.378452,29.7331,0.271459,
2,0,0,1,0,18917.1,0.261783,0.261493,-2.25445,10,0.0165737,10,-0.000589524,-2.64696,-0.276204,-0.21361,18.793,0.261493,
2,0,0,1,0,18917.2,0.251795,0.251426,-2.43612,10,0.0163395,10,-0.000612506,-2.6133,-0.324803,-0.181649,17.2717,0.2514264,
2,0,0,1,0,18917.3,0.241807,0.241484,-2.59173,10,0.0160881,10,-0.000625863,-2.58641,-0.379123,-0.155622,15.784,0.241484,
2,0,0,1,0,18917.4,0.231815,0.231527,-2.74767,10,0.0158219,10,-0.000636161,-2.56104,-0.417895,-0.141184,15.0995,0.231527,
2,0,0,1,0,18917.5,0.221831,0.221523,-2.87377,10,0.015542,10,-0.000636606,-2.54155,-0.529594,-0.111406,12.4844,0.221523,
2,0,0,1,0,18917.6,0.211843,0.211558,-3.00786,10,0.0152486,10,-0.000636338,-2.52174,-0.5749,-0.102627,12.0363,0.211558,
2,0,0,1,0,18917.7,0.201856,0.201568,-3.13919,10,0.0149419,10,-0.00063276,-2.50318,-0.537229,-0.109823,13.4733,0.201568,
2,0,0,1,0,18917.8,0.191868,0.191529,-3.28851,10,0.0146213,10,-0.000629846,-2.483,-0.454596,-0.129786,16.6788,0.191529,
2,0,0,1,0,18917.9,0.18188,0.181503,-3.46801,10,0.0142853,10,-0.000629456,-2.45992,-0.391307,-0.150777,20.343,0.181503,
2,0,0,1,0,18918,0.171892,0.171546,-3.68292,10,0.0139295,10,-0.000631792,-2.43381,-0.343521,-0.171751,24.6745,0.171546,
2,0,0,1,0,18918.1,0.161904,0.161606,-3.99613,10,0.0135474,10,-0.000645798,-2.39836,-0.239838,-0.245999,38.4313,0.161606,
2,0,0,1,0,18918.2,0.151916,0.151593,-4.52119,10,0.0131244,10,-0.00068538,-2.34475,-0.155709,-0.378913,66.9869,0.151593,
2,0,0,1,0,18918.3,0.141928,0.1416,-5.46418,10,0.0126304,10,-0.000773731,-2.26247,-0.101845,-0.57931,123.661,0.1416,
2,0,0,1,0,18918.4,0.13194,0.13163,-6.93919,10,0.0120155,10,-0.000913405,-2.15869,-0.095906,-0.615185,166.537,0.13163,
2,0,0,1,0,18918.5,0.121952,0.121672,-8.55899,10,0.0112401,10,-0.00104139,-2.06758,-0.134809,-0.437656,145.883,0.121672,
2,0,0,1,0,18918.6,0.111964,0.111636,-9.78406,10,0.0103202,10,-0.00109226,-2.00948,-0.231465,-0.254898,97.1906,0.1116363,
2,0,0,1,0,18918.7,0.101976,0.101648,-10.4801,10,0.00930352,10,-0.00106528,-1.97963,-0.652179,-0.090466,36.9331,0.1016478,
2,0,0,1,0,18918.8,0.0919883,0.0916731,-10.5478,10,0.00824826,10,-0.000966949,-1.97684,1.18976,0.0495899,-20.403,0.0916731,
2,0,0,1,0,18918.9,0.0820004,0.0816858,-10.0922,10,0.00721508,10,-0.000824394,-1.99601,0.386032,0.152837,-60.1868,0.0816858,
2,0,0,1,0,18919,0.0720124,0.0716638,-9.52953,10,0.00623652,10,-0.000682922,-2.02093,0.446679,0.132086,-49.1506,0.0716638,
2,0,0,1,0,18919.1,0.0620245,0.0616856,-9.1353,10,0.00530558,10,-0.000563517,-2.03928,0.649534,0.0908343,-32.4109,0.0616856,
2,0,0,1,0,18919.2,0.0520366,0.0516759,-8.8369,10,0.004408,10,-0.000456655,-2.0537,0.653719,0.0902529,-31.117,0.0516759,
2,0,0,1,0,18919.3,0.0420486,0.0417373,-8.52951,10,0.00354037,10,-0.000355999,-2.06908,0.661348,0.0892117,-29.7165,0.0417373,
2,0,0,1,0,18919.4,0.0320607,0.0316887,-8.19184,10,0.00270561,10,-0.000259588,-2.08662,0.500085,0.11798,-37.6725,0.0316887,
2,0,0,1,0,18919.5,0.0220728,0.0217114,-7.76301,10,0.00190886,10,-0.000168546,-2.10997,0.397825,0.148306,-44.9178,0.0217114,
2,0,0,1,0,18919.6,0.0120848,0.0117109,-7.3124,10,0.00115654,10,-8.56347e-05,-2.13594,0.377204,0.156414,-44.6532,0.0117109,
2,0,0,1,0,18919.7,0.0020969,0.00174608,-7.00159,10,0.000445301,10,-1.22254e-05,-2.1548,0.713377,0.0827053,-22.4878,0.00174608,
2,0,0,1,0,18919.8,-0.00789103,-0.00826482,-6.74454,10,-0.000238736,10,5.57424e-05,-2.17105,1.10298,0.0534916,-14.1004,-0.008264821,
2,0,0,1,0,18919.9,-0.017879,-0.0182566,-6.69589,10,-0.000908093,10,0.000122244,-2.17419,-6.38353,-0.00924253,2.41441,-0.01825662,
2,0,0,1,0,18920,-0.0278669,-0.0282301,-6.75798,10,-0.00157895,10,0.000190779,-2.17018,-1.69614,-0.0347849,9.18605,-0.0282301,
2,0,0,1,0,18920.1,-0.0378548,-0.0381996,-6.92891,10,-0.0022616,10,0.000264681,-2.15934,-0.878709,-0.067144,18.1401,-0.0381996,
2,0,0,1,0,18920.2,-0.0478428,-0.0481755,-7.15342,10,-0.00296427,10,0.00034462,-2.14549,-0.514968,-0.11457,32.031,-0.0481755,
2,0,0,1,0,18920.3,-0.0578216,-0.058228,-7.46452,10,-0.00369295,10,0.000434644,-2.127,-0.50415,-0.117029,34.0727,-0.058228,
2,0,0,1,0,18920.4,-0.0678187,-0.0682131,-7.83324,10,-0.00445597,10,0.00053433,-2.10606,-0.425838,-0.13855,42.3497,-0.0682131,
2,0,0,1,0,18920.5,-0.0778066,-0.0781817,-8.28872,10,-0.00526044,10,0.000648026,-2.08151,-0.404711,-0.145783,47.1767,-0.0781817,
2,0,0,1,0,18920.6,-0.0877945,-0.0881307,-8.82628,10,-0.00611464,10,0.000777867,-2.05422,-0.350746,-0.168213,57.9362,-0.08813075,
2,0,0,1,0,18920.7,-0.0977825,-0.0981609,-9.37416,10,-0.00702419,10,0.000920175,-2.02807,-0.388442,-0.151889,55.6214,-0.0981609,
2,0,0,1,1,18920.8,-0.0927386,-0.0930919,-2.0583,10,-0.00759183,10,0.000191611,-2.68649,-0.00783896,-7.52651,575.909,-0.0930919,
2,1,0,1,1,18920.9,-0.0827529,-0.0831292,1.63818,10,-0.00758608,10,-0.000136181,-2.78564,0.0147169,4.009,243.788,-0.0831292,
2,1,0,1,1,18921,-0.0727627,-0.0731157,3.38658,10,-0.00732574,10,-0.000247612,-2.47024,0.0619184,0.952867,124.831,-0.0731157,
2,1,0,1,1,18921.1,-0.0627748,-0.0631283,4.31784,10,-0.00693621,10,-0.000272578,-2.36473,0.140562,0.419742,70.6749,-0.06312827,
2,1,0,1,1,18921.2,-0.0527868,-0.0531047,4.85684,10,-0.00647516,10,-0.000257921,-2.31365,0.289234,0.203987,38.5911,-0.0531047,
2,1,0,1,1,18921.3,-0.0427989,-0.0431577,5.14663,10,-0.00597402,10,-0.000222117,-2.28848,0.502455,0.117423,23.5816,-0.0431577,
2,1,0,1,1,18921.4,-0.0328109,-0.0331698,5.29925,10,-0.005452,10,-0.000175775,-2.27579,1.25121,0.0471543,9.7366,-0.03316984,
2,1,0,1,1,18921.5,-0.022823,-0.0231318,5.34836,10,-0.00491994,10,-0.000123717,-2.27178,7.00627,0.00842102,1.75759,-0.0231318,
2,1,0,1,1,18921.6,-0.0128351,-0.0132205,5.35146,10,-0.00438518,10,-7.07492e-05,-2.27153,-21.3394,-0.00276484,-0.577889,-0.0132205,
2,1,0,1,1,18921.7,-0.00284713,-0.00317099,5.35884,10,-0.00385013,10,-1.69928e-05,-2.27093,13.0297,0.00452812,0.946481,-0.00317099,
2,1,0,1,1,18921.7,-2.55332e-05,-0.000439847,5.36794,10,-0.00369961,10,-2.36107e-06,-2.27019, , , ,-0.000439847,