File: Figure_codes/Fig_3-5/rawdata_trumpetplot_data/after 10th/20221101_1-115_003_TrumpetPlot_ParaChange_from10_every3_08_CV_C01_9.csv
mode,ox/red,error,control changes,counter inc.,time/s,control/V,Ewe/V,<I>/mA,cycle number,(Q-Qo)/C,I Range,P/W,log(|I|),Tafel slope mV/dec,alpha_eff,dI/d(E-IR),E-IR/V,
2,0,0,0,0,18906.2,2.44065e-05,-0.00042076,-4.08477,10,0.0000000E+000,10,1.71871e-06,-2.38883, , , ,-0.00042076,
2,1,0,1,0,18906.3,0.0072942,0.00701886,1.27225,10,-5.06528e-05,10,8.92974e-06,-2.89543,0.00851652,6.92771,288.175,0.00701886,
2,1,0,1,0,18906.4,0.0147816,0.0144619,2.54819,10,0.000139486,10,3.68516e-05,-2.59377,0.0542433,1.08769,107.417,0.0144619,
2,1,0,1,0,18906.5,0.0222707,0.0219479,3.14288,10,0.000409917,10,6.89794e-05,-2.50267,0.115532,0.510683,62.5306,0.0219479,
2,1,0,1,0,18906.6,0.0297581,0.0293711,3.57421,10,0.000725928,10,0.000104979,-2.44682,0.166656,0.354023,49.2689,0.0293711,
2,1,0,1,0,18906.7,0.0372544,0.0369433,3.94165,10,0.001079,10,0.000145617,-2.40432,0.187875,0.314039,48.2892,0.0369433,
2,1,0,1,0,18906.8,0.0447507,0.0444368,4.28768,10,0.00146602,10,0.000190531,-2.36778,0.218985,0.269424,45.1572,0.0444368,
2,1,0,1,0,18906.8,0.0522381,0.0518993,4.63014,10,0.00188492,10,0.000240301,-2.33441,0.24183,0.243973,44.0748,0.0518993,
2,1,0,1,0,18906.9,0.0597273,0.059405,4.94953,10,0.0023346,10,0.000294027,-2.30544,0.261564,0.225566,43.5523,0.059405,
2,1,0,1,0,18907,0.0672147,0.0669104,5.24961,10,0.00281308,10,0.000351254,-2.27987,0.309246,0.190787,39.0539,0.0669104,
2,1,0,1,0,18907.1,0.0747038,0.0743804,5.51865,10,0.00331828,10,0.000410479,-2.25817,0.403555,0.146201,31.4679,0.07438039,
2,1,0,1,0,18907.2,0.0822055,0.0819073,5.75309,10,0.00384837,10,0.00047122,-2.2401,0.414301,0.142409,31.9973,0.0819073,
2,1,0,1,0,18907.3,0.0896946,0.0894266,5.9689,10,0.00439862,10,0.000533779,-2.22411,0.482452,0.122292,28.5457,0.0894266,
2,1,0,1,0,18907.4,0.097182,0.0968581,6.24501,10,0.00497111,10,0.000604879,-2.20447,0.349054,0.169028,41.2168,0.0968581,
2,1,0,1,0,18907.5,0.104671,0.104345,6.62788,10,0.00557321,10,0.000691586,-2.17863,0.242802,0.242996,62.8041,0.104345,
2,1,0,1,0,18907.6,0.112159,0.111821,7.12504,10,0.00621715,10,0.000796731,-2.14721,0.231318,0.255061,70.909,0.111821,
2,1,0,1,0,18907.7,0.119655,0.119335,7.64657,10,0.00691079,10,0.000912502,-2.11653,0.291348,0.202507,60.3862,0.119335,
2,1,0,1,0,18907.8,0.127149,0.126825,8.05247,10,0.00764841,10,0.00102125,-2.09407,0.405558,0.145479,45.7007,0.126825,
2,1,0,1,0,18907.9,0.134639,0.134345,8.35459,10,0.00841832,10,0.0011224,-2.07807,0.538762,0.10951,35.722,0.134345,
2,1,0,1,0,18908,0.142126,0.141807,8.56016,10,0.00921264,10,0.00121389,-2.06752,1.54106,0.0382854,12.7805,0.141807,
2,1,0,1,0,18908.1,0.149615,0.149276,8.42989,10,0.0100135,10,0.00125838,-2.07418,-0.323359,-0.18246,-59.8226,0.1492763,
2,1,0,1,0,18908.2,0.157103,0.156787,7.58019,10,0.0107697,10,0.00118848,-2.12032,-0.110742,-0.532768,-157.084,0.1567875,
2,1,0,1,0,18908.2,0.164606,0.164302,6.25136,10,0.0114199,10,0.00102711,-2.20403,-0.0847373,-0.696269,-170.104,0.164302,
2,1,0,1,0,18908.3,0.172095,0.171793,5.1806,10,0.0119524,10,0.000889989,-2.28562,-0.10367,-0.569114,-115.345,0.171793,
2,1,0,1,0,18908.4,0.179582,0.179278,4.51099,10,0.0124046,10,0.000808724,-2.34573,-0.15339,-0.38464,-67.9643,0.179278,
2,1,0,1,0,18908.5,0.18707,0.186681,4.10489,10,0.0128077,10,0.000766306,-2.3867,-0.22103,-0.266932,-42.8093,0.186681,
2,1,0,1,0,18908.6,0.194559,0.194232,3.84872,10,0.01318,10,0.000747544,-2.41468,-0.297426,-0.198369,-29.7709,0.194232,
2,1,0,1,0,18908.7,0.202062,0.201745,3.65717,10,0.0135323,10,0.000737815,-2.43685,-0.452965,-0.130253,-18.5941,0.201745,
2,1,0,1,0,18908.8,0.20955,0.209237,3.53001,10,0.0138696,10,0.00073861,-2.45222,-0.488292,-0.120829,-16.6767,0.209237,
2,1,0,1,0,18908.9,0.217039,0.216695,3.43367,10,0.0141966,10,0.00074406,-2.46424,-0.702614,-0.0839722,-11.277,0.2166951,
2,1,0,1,0,18909,0.224526,0.224221,3.3693,10,0.014516,10,0.000755467,-2.47246,-0.989251,-0.0596411,-7.83424,0.224221,
2,1,0,1,0,18909.1,0.232016,0.231665,3.30513,10,0.0148296,10,0.000765684,-2.48081,-1.25496,-0.0470136,-6.07345,0.231665,
2,1,0,1,0,18909.2,0.23951,0.239253,3.26895,10,0.0151387,10,0.000782107,-2.48559,-1.35048,-0.0436882,-5.56898,0.239253,
2,1,0,1,0,18909.3,0.247006,0.246758,3.23486,10,0.0154439,10,0.000798226,-2.49015,-1.81281,-0.0325461,-4.09551,0.246758,
2,1,0,1,0,18909.4,0.254494,0.254211,3.18841,10,0.0157453,10,0.00081053,-2.49643,-1.50568,-0.0391849,-4.87808,0.254211,
2,1,0,1,0,18909.5,0.261983,0.26167,3.16003,10,0.0160436,10,0.000826885,-2.50031,-1.04805,-0.0562949,-6.94454,0.26167,
2,1,0,1,0,18909.6,0.26947,0.269154,3.13272,10,0.0163389,10,0.000843185,-2.50408,-2.40742,-0.0245075,-2.99401,0.269154,
2,1,0,1,0,18909.7,0.276959,0.276642,3.09371,10,0.0166315,10,0.000855851,-2.50952,-3.54361,-0.0166497,-2.01347,0.276642,
2,1,0,1,0,18909.7,0.284461,0.284175,3.06651,10,0.0169219,10,0.000871423,-2.51336,-1.22479,-0.0481717,-5.7669,0.284175,
2,1,0,1,0,18909.8,0.29195,0.291641,3.04135,10,0.0172087,10,0.000886981,-2.51693,-1.868,-0.0315847,-3.74092,0.291641,
2,1,0,1,0,18909.9,0.299438,0.299129,2.99923,10,0.0174927,10,0.000897157,-2.52299,-0.0266447,-2.21432,-236.292,0.299129,
2,0,0,1,0,18910,0.29424,0.293913,-0.547956,10,0.0175503,10,-0.000161051,-3.26125,-0.0041898,-14.0818,176.629,0.293913,
2,0,0,1,0,18910.1,0.286753,0.286451,-1.17547,10,0.0174626,10,-0.000336716,-2.92979,-0.0522159,-1.12992,51.4072,0.286451,
2,0,0,1,0,18910.2,0.279264,0.278956,-1.44628,10,0.0173375,10,-0.000403448,-2.83975,-0.123971,-0.475917,26.9017,0.278956,
2,0,0,1,0,18910.3,0.271776,0.271457,-1.6352,10,0.0171918,10,-0.000443887,-2.78643,-0.163655,-0.360514,23.0117,0.271457,
2,0,0,1,0,18910.4,0.26428,0.263992,-1.78062,10,0.0170305,10,-0.000470071,-2.74943,-0.210257,-0.280609,19.4731,0.263992,
2,0,0,1,0,18910.5,0.256786,0.256432,-1.89414,10,0.016857,10,-0.000485719,-2.72259,-0.304922,-0.193492,14.3313,0.256432,
2,0,0,1,0,18910.6,0.249296,0.249015,-2.00198,10,0.0166732,10,-0.000498523,-2.69854,-0.446524,-0.132132,10.3391,0.249015,
2,0,0,1,0,18910.7,0.241809,0.241455,-2.10318,10,0.01648,10,-0.000507825,-2.67712,-0.38232,-0.154321,12.6551,0.241455,
2,0,0,1,0,18910.8,0.23432,0.233977,-2.18347,10,0.0162784,10,-0.000510882,-2.66085,-0.427998,-0.137851,11.7832,0.233977,
2,0,0,1,0,18910.9,0.226833,0.226521,-2.27708,10,0.0160686,10,-0.000515806,-2.64262,-0.455939,-0.129403,11.4575,0.226521,
2,0,0,1,0,18911,0.219329,0.219027,-2.36135,10,0.0158507,10,-0.000517199,-2.62684,-0.415841,-0.141881,13.0365,0.219027,
2,0,0,1,0,18911,0.21184,0.211535,-2.43284,10,0.0156255,10,-0.000514629,-2.61389,-0.536155,-0.110043,10.4521,0.211535,
2,0,0,1,0,18911.1,0.204353,0.204015,-2.52348,10,0.0153925,10,-0.000514828,-2.598,-0.842531,-0.0700271,6.89655,0.204015,
2,0,0,1,0,18911.2,0.196863,0.196558,-2.60601,10,0.0151517,10,-0.000512232,-2.58402,-0.501535,-0.117639,11.9605,0.196558,
2,0,0,1,0,18911.3,0.189376,0.189048,-2.6984,10,0.0149022,10,-0.000510127,-2.56889,-0.39945,-0.147703,15.6024,0.189048,
2,0,0,1,0,18911.4,0.18188,0.181581,-2.8147,10,0.0146429,10,-0.000511097,-2.55057,-0.418118,-0.141108,15.507,0.181581,
2,0,0,1,0,18911.5,0.174385,0.174034,-2.95242,10,0.0143721,10,-0.000513821,-2.52982,-0.345387,-0.170823,19.6676,0.174034,
2,0,0,1,0,18911.6,0.166896,0.166534,-3.12475,10,0.0140873,10,-0.000520376,-2.50518,-0.251221,-0.234853,28.6401,0.166534,
2,0,0,1,0,18911.7,0.159409,0.159041,-3.36502,10,0.013783,10,-0.000535178,-2.47301,-0.217611,-0.271125,35.68,0.159041,
2,0,0,1,0,18911.8,0.151919,0.151581,-3.73533,10,0.0134507,10,-0.000566206,-2.42767,-0.144298,-0.408875,59.7944,0.151581,
2,0,0,1,0,18911.9,0.144425,0.144128,-4.31601,10,0.0130744,10,-0.00062206,-2.36492,-0.0999487,-0.590303,99.6616,0.144128,
2,0,0,1,0,18912,0.136929,0.136602,-5.19064,10,0.0126298,10,-0.000709052,-2.28478,-0.0884901,-0.666741,135.162,0.136602,
2,0,0,1,0,18912.1,0.129441,0.129116,-6.26235,10,0.0120936,10,-0.000808568,-2.20326,-0.100671,-0.586069,143.026,0.129116,
2,0,0,1,0,18912.2,0.121952,0.121627,-7.26777,10,0.0114583,10,-0.000883954,-2.1386,-0.138093,-0.427248,120.847,0.121627,
2,0,0,1,0,18912.3,0.114465,0.11414,-8.02528,10,0.0107393,10,-0.000916003,-2.09554,-0.224371,-0.262958,82.3396,0.11414,
2,0,0,1,0,18912.4,0.106976,0.106656,-8.52426,10,0.00996139,10,-0.000909166,-2.06934,-0.453814,-0.130009,43.1782,0.106656,
2,0,0,1,0,18912.4,0.0994721,0.0991486,-8.70102,10,0.00915015,10,-0.000862694,-2.06043,-2.86678,-0.0205806,6.98223,0.0991486,
2,0,0,1,0,18912.5,0.0919847,0.0916445,-8.56821,10,0.00833851,10,-0.00078523,-2.06711,0.562899,0.104814,-35.0523,0.0916445,
2,0,0,1,0,18912.6,0.0844973,0.0841729,-8.23145,10,0.00755045,10,-0.000692865,-2.08452,0.346609,0.170221,-54.612,0.0841729,
2,0,0,1,0,18912.7,0.0770082,0.0766426,-7.84651,10,0.00679808,10,-0.000601377,-2.10532,0.417059,0.141467,-43.3245,0.07664258,
2,0,0,1,0,18912.8,0.0695208,0.0691764,-7.56053,10,0.00607682,10,-0.00052301,-2.12145,0.553871,0.106523,-31.4492,0.0691764,
2,0,0,1,0,18912.9,0.0620245,0.0617193,-7.35503,10,0.00537712,10,-0.000453947,-2.13342,0.609632,0.0967797,-27.791,0.06171931,
2,0,0,1,0,18913,0.0545282,0.0542075,-7.1767,10,0.00469548,10,-0.000389031,-2.14408,0.848832,0.0695073,-19.4623,0.0542075,
2,0,0,1,0,18913.1,0.0470408,0.0466953,-6.97596,10,0.00403188,10,-0.000325744,-2.1564,0.663864,0.0888736,-24.2067,0.0466953,
2,0,0,1,0,18913.2,0.0395517,0.0392355,-6.78503,10,0.00338684,10,-0.000266214,-2.16845,0.536776,0.109915,-29.0616,0.0392355,
2,0,0,1,0,18913.3,0.0320643,0.0317741,-6.54641,10,0.00276218,10,-0.000208006,-2.184,0.441004,0.133786,-34.158,0.0317741,
2,0,0,1,0,18913.4,0.0245751,0.0242827,-6.26979,10,0.00216137,10,-0.000152247,-2.20275,0.386563,0.152627,-37.3672,0.0242827,
2,0,0,1,0,18913.5,0.0170735,0.0167432,-5.9928,10,0.00158529,10,-0.000100339,-2.22237,0.371711,0.158726,-37.1428,0.01674317,
2,0,0,1,0,18913.6,0.00958429,0.00928548,-5.75261,10,0.00103518,10,-5.34157e-05,-2.24014,0.475127,0.124177,-27.8582,0.00928548,
2,0,0,1,0,18913.7,0.0020969,0.00173917,-5.60329,10,0.00050558,10,-9.7451e-06,-2.25156,1.16142,0.0507999,-11.0431,0.00173917,
2,0,0,1,0,18913.7,0.000199195,-0.000159264,-5.54828,10,0.000373236,10,8.8364e-07,-2.25584, , , ,-0.000159264,