File: Figure_codes/Fig_3-5/rawdata_trumpetplot_data/after 10th/20221101_1-115_003_TrumpetPlot_ParaChange_from10_every3_04_CV_C01_24.csv
mode,ox/red,error,control changes,counter inc.,time/s,control/V,Ewe/V,<I>/mA,cycle number,(Q-Qo)/C,I Range,P/W,log(|I|),Tafel slope mV/dec,alpha_eff,dI/d(E-IR),E-IR/V,
2,0,0,1,0,48343.1,2.44065e-05,-0.000344411,-0.388152,25,0.0000000E+000,10,1.33684e-07,-3.411, , , ,-0.000344411,
2,1,0,1,0,48343.9,0.00729063,0.00701163,0.348405,25,0.000171499,10,2.44288e-06,-3.45792,0.0567338,1.03994,13.931,0.00701163,
2,1,0,1,0,48344.6,0.0147814,0.0144663,0.420631,25,0.000473126,10,6.08497e-06,-3.3761,0.116777,0.505237,8.30341,0.0144663,
2,1,0,1,0,48345.4,0.0222725,0.0219793,0.473482,25,0.000819705,10,1.04068e-05,-3.3247,0.153319,0.384818,7.11141,0.0219793,
2,1,0,1,0,48346.1,0.0297635,0.0294511,0.525202,25,0.00120458,10,1.54677e-05,-3.27967,0.186074,0.317078,6.48006,0.0294511,
2,1,0,1,0,48346.9,0.0372544,0.0369268,0.575174,25,0.00162707,10,2.12393e-05,-3.2402,0.197286,0.299059,6.71446,0.0369268,
2,1,0,1,0,48347.6,0.0447458,0.0444295,0.624724,25,0.00208733,10,2.77562e-05,-3.20431,0.226537,0.260443,6.34668,0.0444295,
2,1,0,1,0,48348.4,0.0522363,0.0519018,0.670269,25,0.00258406,10,3.47882e-05,-3.17375,0.242436,0.243364,6.37533,0.0519018,
2,1,0,1,0,48349.1,0.0597282,0.0594389,0.714595,25,0.00311424,10,4.24748e-05,-3.14594,0.296368,0.199077,5.53986,0.0594389,
2,1,0,1,0,48349.9,0.0672182,0.0669394,0.750271,25,0.00367357,10,5.02227e-05,-3.12478,0.350449,0.168355,4.92432,0.0669394,
2,1,0,1,0,48350.6,0.0747092,0.0743782,0.781446,25,0.00425865,10,5.81226e-05,-3.1071,0.492068,0.119902,3.65219,0.0743782,
2,1,0,1,0,48351.4,0.0822001,0.0818466,0.80719,25,0.00486558,10,6.60658e-05,-3.09302,0.541012,0.109055,3.44577,0.08184664,
2,1,0,1,0,48352.1,0.0896911,0.0893713,0.842861,25,0.00549358,10,7.53275e-05,-3.07424,0.337564,0.174782,5.75525,0.0893713,
2,1,0,1,0,48352.9,0.097182,0.0968588,0.894712,25,0.00615432,10,8.66607e-05,-3.04832,0.198161,0.297737,10.4097,0.0968588,
2,1,0,1,0,48353.6,0.104673,0.104379,0.975143,25,0.0068641,10,0.000101785,-3.01093,0.208638,0.282787,10.7275,0.104379,
2,1,0,1,0,48354.4,0.112164,0.11186,1.0497,25,0.00763363,10,0.00011742,-2.97894,0.287674,0.205093,8.39384,0.11186,
2,1,0,1,0,48355.1,0.119655,0.119325,1.10316,25,0.00845253,10,0.000131634,-2.95736,0.583899,0.101045,4.34593,0.119325,
2,1,0,1,0,48355.9,0.127146,0.12685,1.13116,25,0.00930183,10,0.000143488,-2.94648,0.838335,0.0703776,3.11166,0.12685,
2,1,0,1,0,48356.6,0.134637,0.134319,1.136,25,0.0101663,10,0.000152586,-2.94462,-0.617888,-0.0954865,-4.22759,0.134319,
2,1,0,1,0,48357.4,0.142127,0.141811,1.0455,25,0.0110025,10,0.000148263,-2.98068,-0.12094,-0.487844,-19.7925,0.141811,
2,1,0,1,0,48358.1,0.149619,0.149242,0.850098,25,0.0117256,10,0.00012687,-3.07053,-0.0738164,-0.79928,-26.5035,0.149242,
2,1,0,1,0,48358.9,0.157109,0.156821,0.689651,25,0.0123065,10,0.000108152,-3.16137,-0.102047,-0.578164,-15.5879,0.156821,
2,1,0,1,0,48359.6,0.164601,0.164282,0.612994,25,0.0128009,10,0.000100704,-3.21254,-0.210874,-0.279788,-6.68871,0.164282,
2,1,0,1,0,48360.4,0.172091,0.171762,0.574244,25,0.013254,10,9.8633e-05,-3.2409,-0.40963,-0.144032,-3.24078,0.171762,
2,1,0,1,0,48361.1,0.179582,0.179285,0.554932,25,0.0136868,10,9.94912e-05,-3.25576,-0.600185,-0.098303,-2.13399,0.179285,
2,1,0,1,0,48361.9,0.187074,0.186772,0.543701,25,0.0141079,10,0.000101548,-3.26464,-1.66038,-0.0355341,-0.751947,0.186772,
2,1,0,1,0,48362.6,0.194564,0.194313,0.535003,25,0.0145212,10,0.000103958,-3.27164,-2.22021,-0.0265741,-0.554632,0.194313,
2,1,0,1,0,48363.3,0.202056,0.201789,0.529352,25,0.0149289,10,0.000106817,-3.27626,-1.10592,-0.0533492,-1.09699,0.201789,
2,1,0,1,0,48364.1,0.209546,0.209252,0.523361,25,0.0153326,10,0.000109514,-3.2812,-0.842808,-0.070004,-1.42888,0.209252,
2,1,0,1,0,48364.8,0.217038,0.216703,0.516916,25,0.0157323,10,0.000112018,-3.28658,-1.37569,-0.0428875,-0.867615,0.216703,
2,1,0,1,0,48365.6,0.224528,0.224213,0.515917,25,0.0161293,10,0.000115675,-3.28742,-2.16054,-0.0273079,-0.548702,0.224213,
2,1,0,1,0,48366.3,0.232019,0.231714,0.510335,25,0.0165234,10,0.000118252,-3.29214,-2.83921,-0.0207804,-0.4148,0.231714,
2,1,0,1,0,48367.1,0.23951,0.239211,0.507212,25,0.0169152,10,0.000121331,-3.29481,-14.5901,-0.00404384,-0.0802363,0.239211,
2,1,0,1,0,48367.8,0.247001,0.246688,0.505069,25,0.0173045,10,0.000124594,-3.29665,-1.94417,-0.0303471,-0.597017,0.246688,
2,1,0,1,0,48368.6,0.254492,0.254193,0.501102,25,0.0176915,10,0.000127377,-3.30007,-1.43869,-0.0410096,-0.802398,0.254193,
2,1,0,1,0,48369.3,0.261983,0.261645,0.497445,25,0.0180757,10,0.000130154,-3.30325,-2.51453,-0.0234636,-0.456447,0.2616449,
2,1,0,1,0,48370.1,0.269474,0.269172,0.494716,25,0.0184576,10,0.000133163,-3.30564,12.0703,0.00488804,0.0943081,0.269172,
2,1,0,1,0,48370.8,0.276965,0.276655,0.490802,25,0.0188368,10,0.000135783,-3.30909,-2.61888,-0.0225287,-0.432045,0.276655,
2,1,0,1,0,48371.6,0.284456,0.284146,0.486827,25,0.019213,10,0.00013833,-3.31263,-28.0522,-0.00210322,-0.0398904,0.284146,
2,1,0,1,0,48372.3,0.291947,0.29162,0.482864,25,0.0195858,10,0.000140813,-3.31618,-1.40356,-0.042036,-0.791837,0.29162,
2,1,0,1,0,48373.1,0.299437,0.299138,0.476888,25,0.0199556,10,0.000142655,-3.32158,-0.00296746,-19.8823,-198.782,0.299138,
2,0,0,1,0,48373.8,0.293745,0.293397,-0.0700954,25,0.0199828,10,-2.05657e-05,-4.15431,-0.0129504,-4.55583,11.2526,0.293397,
2,0,0,1,0,48374.5,0.286253,0.285975,-0.124792,25,0.0198977,10,-3.56875e-05,-3.90381,-0.0496443,-1.18845,5.80963,0.2859751,
2,0,0,1,0,48375.3,0.278763,0.278434,-0.162635,25,0.019779,10,-4.52832e-05,-3.78879,-0.0877596,-0.672291,4.26508,0.278434,
2,0,0,1,0,48376,0.271272,0.270939,-0.190529,25,0.0196366,10,-5.16219e-05,-3.72004,-0.116913,-0.504647,3.74852,0.270939,
2,0,0,1,0,48376.8,0.263781,0.263421,-0.21469,25,0.0194742,10,-5.65537e-05,-3.66819,-0.170152,-0.34675,2.89439,0.263421,
2,0,0,1,0,48377.5,0.25629,0.255976,-0.23635,25,0.0192951,10,-6.04999e-05,-3.62644,-0.213951,-0.275763,2.52678,0.255976,
2,0,0,1,0,48378.3,0.248799,0.248483,-0.254333,25,0.0191015,10,-6.31974e-05,-3.5946,-0.235572,-0.250454,2.47809,0.248483,
2,0,0,1,0,48379,0.241308,0.240979,-0.270369,25,0.0188949,10,-6.51531e-05,-3.56804,-0.270118,-0.218423,2.31029,0.240979,
2,0,0,1,0,48379.8,0.233817,0.233452,-0.284815,25,0.0186762,10,-6.64906e-05,-3.54544,-0.343618,-0.171702,1.91917,0.2334519,
2,0,0,1,0,48380.5,0.226326,0.226018,-0.301311,25,0.0184459,10,-6.81017e-05,-3.52099,-0.283589,-0.208048,2.44635,0.226018,
2,0,0,1,0,48381.3,0.218835,0.218533,-0.315595,25,0.0182043,10,-6.89679e-05,-3.50087,-0.323138,-0.182585,2.24457,0.218533,
2,0,0,1,0,48382,0.211344,0.211047,-0.330939,25,0.0179516,10,-6.98436e-05,-3.48025,-0.467753,-0.126135,1.62332,0.211047,
2,0,0,1,0,48382.8,0.203854,0.203525,-0.344896,25,0.0176875,10,-7.01949e-05,-3.46231,-0.343672,-0.171675,2.31475,0.203525,
2,0,0,1,0,48383.5,0.196362,0.19604,-0.361336,25,0.0174124,10,-7.08362e-05,-3.44209,-0.390627,-0.151039,2.1285,0.19604,
2,0,0,1,0,48384.3,0.188872,0.18854,-0.378013,25,0.0171249,10,-7.12706e-05,-3.42249,-0.305101,-0.193379,2.84277,0.18854,
2,0,0,1,0,48385,0.18138,0.181109,-0.39698,25,0.0168246,10,-7.18968e-05,-3.40123,-0.336754,-0.175202,2.7139,0.181109,
2,0,0,1,0,48385.8,0.17389,0.173585,-0.418159,25,0.0165094,10,-7.25859e-05,-3.37866,-0.285578,-0.206599,3.37026,0.173585,
2,0,0,1,0,48386.5,0.166398,0.166034,-0.444297,25,0.0161759,10,-7.37686e-05,-3.35233,-0.279313,-0.211232,3.68162,0.166034,
2,0,0,1,0,48387.3,0.158907,0.158545,-0.482981,25,0.0158183,10,-7.6574e-05,-3.31607,-0.179547,-0.328604,6.19425,0.158545,
2,0,0,1,0,48388,0.151417,0.151055,-0.541039,25,0.0154258,10,-8.17267e-05,-3.26677,-0.133826,-0.44087,9.31702,0.151055,
2,0,0,1,0,48388.8,0.143925,0.14359,-0.636931,25,0.0149766,10,-9.14571e-05,-3.19591,-0.0842039,-0.70068,17.4443,0.14359,
2,0,0,1,0,48389.5,0.136435,0.136086,-0.784554,25,0.014435,10,-0.000106767,-3.10538,-0.0831467,-0.709589,21.7193,0.136086,
2,0,0,1,0,48390.3,0.128943,0.128618,-0.949509,25,0.0137734,10,-0.000122124,-3.0225,-0.106348,-0.554782,20.4502,0.128618,
2,0,0,1,0,48391,0.121453,0.12114,-1.0812,25,0.012999,10,-0.000130977,-2.96609,-0.193863,-0.304338,12.8028,0.12114,
2,0,0,1,0,48391.7,0.113962,0.113636,-1.14123,25,0.0121504,10,-0.000129684,-2.94263,-0.808993,-0.0729301,3.24679,0.1136355,
2,0,0,1,0,48392.5,0.106471,0.106138,-1.14411,25,0.0112791,10,-0.000121435,-2.94153,1.24212,0.0474993,-2.12428,0.106138,
2,0,0,1,0,48393.2,0.0989798,0.0987029,-1.12329,25,0.0104175,10,-0.000110872,-2.94951,0.954043,0.0618421,-2.70888,0.0987029,
2,0,0,1,0,48394,0.0914889,0.0911421,-1.09553,25,0.00957557,10,-9.98491e-05,-2.96037,0.747203,0.0789612,-3.37579,0.0911421,
2,0,0,1,0,48394.7,0.083998,0.0836387,-1.06794,25,0.00875489,10,-8.9321e-05,-2.97145,0.508505,0.116026,-4.82289,0.08363872,
2,0,0,1,0,48395.5,0.076507,0.0761788,-1.0349,25,0.00795661,10,-7.88374e-05,-2.9851,0.548006,0.107663,-4.34755,0.0761788,
2,0,0,1,0,48396.2,0.069016,0.0687283,-1.00207,25,0.00718163,10,-6.88704e-05,-2.9991,0.56537,0.104356,-4.09624,0.0687283,
2,0,0,1,0,48397,0.0615251,0.0612292,-0.974627,25,0.00642891,10,-5.96756e-05,-3.01116,0.567386,0.103986,-3.95626,0.0612292,
2,0,0,1,0,48397.7,0.0540342,0.05373,-0.94408,25,0.00569947,10,-5.07254e-05,-3.02499,0.499542,0.118108,-4.34023,0.05373,
2,0,0,1,0,48398.5,0.0465441,0.0462011,-0.909961,25,0.00499388,10,-4.20412e-05,-3.04098,0.488319,0.120823,-4.2936,0.04620108,
2,0,0,1,0,48399.2,0.0390523,0.0387284,-0.876955,25,0.00431352,10,-3.3963e-05,-3.05702,0.380292,0.155144,-5.3033,0.0387284,
2,0,0,1,0,48400,0.0315618,0.0312264,-0.843887,25,0.00365878,10,-2.63516e-05,-3.07372,0.434198,0.135883,-4.47222,0.0312264,
2,0,0,1,0,48400.7,0.0240704,0.0237173,-0.81021,25,0.00302857,10,-1.9216e-05,-3.0914,0.484039,0.121891,-3.86391,0.0237173,
2,0,0,1,0,48401.5,0.0165796,0.0162427,-0.787608,25,0.00241944,10,-1.27929e-05,-3.10369,0.926239,0.0636984,-1.95913,0.0162427,
2,0,0,1,0,48402.2,0.00908846,0.0087719,-0.77362,25,0.00182407,10,-6.78612e-06,-3.11147,1.97276,0.0299073,-0.903798,0.0087719,
2,0,0,1,0,48403,0.00159728,0.00120899,-0.78095,25,0.00123402,10,-9.44161e-07,-3.10738, , , ,0.00120899,
2,0,0,1,0,48403.1,0.000199195,-0.000155446,-0.774367,25,0.00112335,10,1.20373e-07,-3.11105, , , ,-0.0001554464,