File: Figure_codes/Fig_3-5/rawdata_trumpetplot_data/after 10th/20221101_1-115_003_TrumpetPlot_ParaChange_from10_every3_02_CV_C01_23.csv
mode,ox/red,error,control changes,counter inc.,time/s,control/V,Ewe/V,<I>/mA,cycle number,(Q-Qo)/C,I Range,P/W,log(|I|),Tafel slope mV/dec,alpha_eff,dI/d(E-IR),E-IR/V,
2,0,0,1,0,45653,2.44065e-05,-0.000344411,-0.394513,24,0.0000000E+000,10,1.35875e-07,-3.40394, , , ,-0.000344411,
2,0,0,1,0,45660.3,0.00729061,0.0069766,-0.0969409,24,-0.000975438,10,-6.76318e-07,-4.01349,-0.0305704,-1.92997,7.42342,0.0069766,
2,0,0,1,0,45667.8,0.0147815,0.0144365,-0.0602486,24,-0.00147232,10,-8.69781e-07,-4.22005,-0.0388535,-1.51852,3.57325,0.01443653,
2,0,0,1,0,45675.3,0.0222725,0.0219368,-0.039265,24,-0.00176498,10,-8.6135e-07,-4.40599,-0.0383292,-1.5393,2.37679,0.0219368,
2,0,0,1,0,45682.8,0.0297635,0.0294202,-0.0239279,24,-0.00192276,10,-7.03963e-07,-4.6211,-0.0290835,-2.02864,1.86461,0.0294202,
2,0,0,1,0,45690.3,0.0372544,0.0369744,-0.0104105,24,-0.00197272,10,-3.84923e-07,-4.98253,-0.0149727,-3.9405,1.54967,0.0369744,
2,0,0,1,0,45697.7,0.0447454,0.044426,0.00149012,24,-0.00192718,10,6.62003e-08,-5.82678,0.0123474,4.77834,1.28969,0.044426,
2,1,0,1,0,45705.2,0.0522363,0.0519336,0.0108887,24,-0.00180081,10,5.65489e-07,-4.96302,0.0176218,3.34813,1.43264,0.0519336,
2,1,0,1,0,45712.7,0.0597273,0.0593968,0.0207376,24,-0.00159946,10,1.23174e-06,-4.68324,0.0378313,1.55955,1.23473,0.0593968,
2,1,0,1,0,45720.2,0.0672183,0.0668473,0.0289929,24,-0.00133221,10,1.9381e-06,-4.53771,0.0648326,0.910036,1.0024,0.0668473,
2,1,0,1,0,45727.7,0.0747092,0.0743856,0.0359299,24,-0.00100685,10,2.67267e-06,-4.44454,0.087669,0.672986,0.949704,0.07438565,
2,1,0,1,0,45735.2,0.0822001,0.081906,0.0428855,24,-0.000627924,10,3.51258e-06,-4.36769,0.0996112,0.592303,1.00072,0.081906,
2,1,0,1,0,45742.7,0.0896911,0.0894052,0.0516272,24,-0.000190121,10,4.61574e-06,-4.28712,0.0944329,0.624782,1.26323,0.0894052,
2,1,0,1,0,45750.2,0.0971821,0.0969056,0.0612648,24,0.000316644,10,5.9369e-06,-4.21279,0.0821883,0.717863,1.72164,0.0969056,
2,1,0,1,0,45757.7,0.104673,0.104372,0.0728265,24,0.000902949,10,7.60103e-06,-4.13771,0.114289,0.516236,1.44857,0.104372,
2,1,0,1,0,45765.2,0.112164,0.111837,0.0805962,24,0.0015642,10,9.01364e-06,-4.09369,0.284539,0.207353,0.65554,0.111837,
2,1,0,1,0,45772.7,0.119655,0.119293,0.0895653,24,0.00228784,10,1.06845e-05,-4.04786,0.227415,0.259437,0.899805,0.119293,
2,1,0,1,0,45780.2,0.127146,0.126812,0.0947575,24,0.00306547,10,1.20164e-05,-4.02339,0.400308,0.147387,0.545158,0.1268122,
2,1,0,1,0,45787.6,0.134637,0.134299,0.0933868,24,0.00386594,10,1.25417e-05,-4.02971,-0.185414,-0.318206,-1.15977,0.134299,
2,1,0,1,0,45795.1,0.142128,0.141799,0.0787799,24,0.00460108,10,1.11709e-05,-4.10358,-0.0752191,-0.784375,-2.37879,0.141799,
2,1,0,1,0,45802.6,0.149619,0.149296,0.0614344,24,0.00520035,10,9.1719e-06,-4.21159,-0.0916529,-0.643733,-1.55284,0.149296,
2,1,0,1,0,45810.1,0.15711,0.156788,0.053343,24,0.00570361,10,8.36352e-06,-4.27292,-0.144052,-0.409575,-0.85259,0.156788,
2,1,0,1,0,45817.6,0.164601,0.164305,0.0509273,24,0.00616471,10,8.36759e-06,-4.29305,-0.897086,-0.0657685,-0.129513,0.164305,
2,1,0,1,0,45825.1,0.172091,0.171798,0.0495782,24,0.00661614,10,8.51741e-06,-4.30471,2.04843,0.0288026,0.0564884,0.171798,
2,1,0,1,0,45832.6,0.179582,0.179271,0.0502207,24,0.00706508,10,9.00314e-06,-4.29912,8.83011,0.00668169,0.0130906,0.179271,
2,1,0,1,0,45840.1,0.187073,0.186717,0.0507821,24,0.00751772,10,9.48186e-06,-4.29429,0.833924,0.0707498,0.140483,0.186717,
2,1,0,1,0,45847.6,0.194564,0.194243,0.0516209,24,0.0079737,10,1.0027e-05,-4.28717,1.04608,0.0564012,0.113522,0.194243,
2,1,0,1,0,45855.1,0.202055,0.201731,0.0525838,24,0.00843526,10,1.06078e-05,-4.27915,1.60699,0.0367145,0.0748288,0.201731,
2,1,0,1,0,45862.6,0.209546,0.209232,0.0534272,24,0.0089016,10,1.11787e-05,-4.27224,0.759876,0.0776442,0.161998,0.209232,
2,1,0,1,0,45870,0.217037,0.216722,0.0536923,24,0.00937281,10,1.16363e-05,-4.27009,-560.944,-0.00010518,-0.000220438,0.216722,
2,1,0,1,0,45877.5,0.224528,0.224183,0.055107,24,0.0098489,10,1.2354e-05,-4.25879,0.929091,0.0635029,0.136798,0.224183,
2,1,0,1,0,45885,0.232019,0.23172,0.055828,24,0.0103319,10,1.29365e-05,-4.25315,0.708902,0.0832273,0.181506,0.23172,
2,1,0,1,0,45892.5,0.23951,0.239258,0.0570239,24,0.0108242,10,1.36434e-05,-4.24394,0.750099,0.0786563,0.175877,0.239258,
2,1,0,1,0,45900,0.247001,0.246695,0.057676,24,0.0113243,10,1.42284e-05,-4.23901,0.513565,0.114883,0.260441,0.246695,
2,1,0,1,0,45907.5,0.254492,0.254179,0.058589,24,0.0118308,10,1.48921e-05,-4.23218,0.796827,0.0740437,0.171569,0.254179,
2,1,0,1,0,45915,0.261983,0.261684,0.0601335,24,0.0123447,10,1.5736e-05,-4.22088,4.13853,0.0142563,0.0335367,0.261684,
2,1,0,1,0,45922.5,0.269474,0.269179,0.0614085,24,0.0128645,10,1.65299e-05,-4.21177,0.877323,0.0672501,0.161298,0.269179,
2,1,0,1,0,45930,0.276965,0.276629,0.0622012,24,0.0133918,10,1.72067e-05,-4.2062,0.801576,0.073605,0.179099,0.276629,
2,1,0,1,0,45937.5,0.284456,0.28414,0.063117,24,0.0139255,10,1.79341e-05,-4.19985,1.08843,0.0542064,0.133754,0.28414,
2,1,0,1,0,45945,0.291947,0.291581,0.063559,24,0.0144647,10,1.85326e-05,-4.19682,3.06367,0.019258,0.0478667,0.291581,
2,1,0,1,0,45952.4,0.299438,0.299139,0.0648148,24,0.0150076,10,1.93886e-05,-4.18833,-0.00448366,-13.1589,-21.3828,0.299139,
2,1,0,1,0,45959.3,0.293745,0.293442,0.00929692,24,0.0151061,10,2.72811e-06,-5.03166,0.0138901,4.24761,1.54821,0.293442,
2,1,0,1,0,45966.8,0.286254,0.285936,0.000539411,24,0.0150796,10,1.54237e-07,-6.26808,0.0125896,4.68639,0.909973,0.285936,
2,1,0,1,0,45974.3,0.278763,0.278461,-0.00494651,24,0.0149978,10,-1.37741e-06,-5.3057,-0.0168072,-3.5104,0.695097,0.278461,
2,0,0,1,0,45981.8,0.271272,0.270983,-0.00932095,24,0.0148782,10,-2.52582e-06,-5.03054,-0.0403047,-1.46385,0.546339,0.270983,
2,0,0,1,0,45989.2,0.263781,0.263493,-0.0136543,24,0.0147261,10,-3.59781e-06,-4.86473,-0.0855934,-0.689305,0.365817,0.263493,
2,1,0,1,0,45996.7,0.25629,0.255964,-0.016824,24,0.014547,10,-4.30634e-06,-4.77407,-0.0790175,-0.74667,0.491311,0.255964,
2,0,0,1,0,46004.2,0.248799,0.248456,-0.0203682,24,0.0143418,10,-5.0606e-06,-4.69105,-0.089756,-0.657338,0.513848,0.248456,
2,0,0,1,0,46011.7,0.241308,0.241009,-0.02335,24,0.0141126,10,-5.62756e-06,-4.63171,-0.130277,-0.452881,0.41907,0.241009,
2,0,0,1,0,46019.2,0.233817,0.233487,-0.0263685,24,0.0138583,10,-6.15671e-06,-4.57891,-0.173217,-0.340614,0.34841,0.233487,
2,0,0,1,0,46026.7,0.226326,0.226022,-0.0287484,24,0.0135836,10,-6.49776e-06,-4.54139,-0.211077,-0.279519,0.316735,0.226022,
2,0,0,1,0,46034.2,0.218835,0.218503,-0.0317335,24,0.0132864,10,-6.93388e-06,-4.49848,-0.271126,-0.217611,0.26847,0.218503,
2,0,0,1,0,46041.7,0.211344,0.211013,-0.0342085,24,0.0129679,10,-7.21843e-06,-4.46587,-0.187428,-0.314788,0.426012,0.211013,
2,0,0,1,0,46049.2,0.203853,0.203509,-0.036923,24,0.012627,10,-7.51417e-06,-4.4327,-0.325757,-0.181116,0.264259,0.203509,
2,0,0,1,0,46056.7,0.196362,0.196067,-0.0401768,24,0.0122656,10,-7.87735e-06,-4.39603,-0.2186,-0.269899,0.422594,0.196067,
2,0,0,1,0,46064.2,0.188871,0.188555,-0.0432906,24,0.0118791,10,-8.16266e-06,-4.36361,-0.240315,-0.245511,0.417784,0.188555,
2,0,0,1,0,46071.6,0.18138,0.181104,-0.0474016,24,0.0114672,10,-8.58461e-06,-4.32421,-0.256905,-0.229657,0.421788,0.181104,
2,0,0,1,0,46079.1,0.173889,0.173569,-0.0508951,24,0.0110244,10,-8.8338e-06,-4.29332,-0.289306,-0.203936,0.407494,0.173569,
2,0,0,1,0,46086.6,0.166398,0.166086,-0.0559382,24,0.0105495,10,-9.29058e-06,-4.25229,-0.194862,-0.302778,0.661272,0.166086,
2,0,0,1,0,46094.1,0.158907,0.158609,-0.0622141,24,0.010031,10,-9.86774e-06,-4.20611,-0.174062,-0.33896,0.822313,0.158609,
2,0,0,1,0,46101.6,0.151417,0.15109,-0.0712918,24,0.00945364,10,-1.07715e-05,-4.14696,-0.107435,-0.54917,1.53132,0.1510901,
2,0,0,1,0,46109.1,0.143926,0.143608,-0.0852734,24,0.00878746,10,-1.22459e-05,-4.06919,-0.0763684,-0.77257,2.58176,0.143608,
2,0,0,1,0,46116.6,0.136435,0.136083,-0.107278,24,0.00798418,10,-1.45987e-05,-3.96949,-0.0797925,-0.739417,3.07974,0.136083,
2,0,0,1,0,46124.1,0.128944,0.128634,-0.127625,24,0.00701288,10,-1.64169e-05,-3.89406,-0.141783,-0.416129,2.06486,0.128634,
2,0,0,1,0,46131.6,0.121453,0.121152,-0.138708,24,0.00592091,10,-1.68047e-05,-3.8579,-0.645099,-0.0914588,0.493027,0.121152,
2,0,0,1,0,46139.1,0.113962,0.113663,-0.139971,24,0.00478547,10,-1.59095e-05,-3.85396,4.20314,0.0140371,-0.0770643,0.113663,
2,0,0,1,0,46146.6,0.106471,0.106151,-0.140063,24,0.00364668,10,-1.48679e-05,-3.85368,-12.7449,-0.0046293,0.0254401,0.106151,
2,0,0,1,0,46154,0.0989798,0.0986339,-0.138505,24,0.00251521,10,-1.36613e-05,-3.85854,1.29141,0.0456866,-0.245977,0.0986339,
2,0,0,1,0,46161.5,0.0914889,0.0911591,-0.13474,24,0.00140527,10,-1.22828e-05,-3.8705,0.372221,0.158508,-0.833125,0.0911591,
2,0,0,1,0,46169,0.083998,0.0836875,-0.12972,24,0.000331059,10,-1.08559e-05,-3.88699,0.383053,0.154026,-0.781027,0.0836875,
2,0,0,1,0,46176.5,0.076507,0.0761809,-0.125811,24,-0.000709115,10,-9.58439e-06,-3.90028,0.506498,0.116486,-0.569806,0.0761809,
2,0,0,1,0,46184,0.069016,0.0686848,-0.121234,24,-0.0017186,10,-8.32696e-06,-3.91637,0.614339,0.0960382,-0.458307,0.0686848,
2,0,0,1,0,46191.5,0.0615251,0.0612165,-0.118524,24,-0.00270319,10,-7.25561e-06,-3.92619,0.725752,0.081295,-0.37718,0.0612165,
2,0,0,1,0,46199,0.0540342,0.0536781,-0.115886,24,-0.00366551,10,-6.22052e-06,-3.93597,0.799756,0.0737725,-0.333173,0.0536781,
2,0,0,1,0,46206.5,0.0465432,0.0462064,-0.112628,24,-0.00460488,10,-5.20412e-06,-3.94835,0.757157,0.0779231,-0.344139,0.0462064,
2,0,0,1,0,46214,0.0390522,0.0386987,-0.110811,24,-0.00552436,10,-4.28825e-06,-3.95542,0.547747,0.107714,-0.463726,0.0386987,
2,0,0,1,0,46221.5,0.0315613,0.0312229,-0.107934,24,-0.00642483,10,-3.37001e-06,-3.96684,0.514587,0.114655,-0.484206,0.0312229,
2,0,0,1,0,46229,0.0240703,0.0237787,-0.105624,24,-0.00730553,10,-2.51161e-06,-3.97624,1.58865,0.0371386,-0.153839,0.02377874,
2,0,0,1,0,46236.4,0.0165794,0.0162425,-0.105268,24,-0.00817557,10,-1.70982e-06,-3.9777,-2.01899,-0.0292226,0.120123,0.0162425,
2,0,0,1,0,46243.9,0.00908843,0.00873158,-0.106446,24,-0.00904966,10,-9.29445e-07,-3.97287,-1.22616,-0.0481178,0.201332,0.00873158,
2,0,0,1,0,46251.4,0.00159744,0.00121967,-0.11016,24,-0.00994,10,-1.34358e-07,-3.95798, , , ,0.001219666,
2,0,0,1,0,46252.8,0.000199235,-0.000168782,-0.11069,24,-0.0101088,10,1.86824e-08,-3.95589, , , ,-0.000168782,