File: Figure_codes/Fig_3-5/rawdata_trumpetplot_data/after 10th/20221101_1-115_003_TrumpetPlot_ParaChange_from10_every3_14_CV_C01_26.csv
mode,ox/red,error,control changes,counter inc.,time/s,control/V,Ewe/V,<I>/mA,cycle number,(Q-Qo)/C,I Range,P/W,log(|I|),Tafel slope mV/dec,alpha_eff,dI/d(E-IR),E-IR/V,
2,1,0,1,0,52422.5,2.44065e-05,-0.000248974,31.145,27,0.0000000E+000,10,-7.75431e-06,-1.50661, , , ,-0.000248974,
2,1,0,1,0,52422.5,0.0133084,0.0129414,34.8086,27,0.000436166,10,0.000450473,-1.45831,0.368441,0.160134,216.733,0.0129414,
2,1,0,1,0,52422.5,0.0273414,0.0270024,37.4992,27,0.000943287,10,0.00101257,-1.42598,0.490079,0.120389,175.731,0.0270024,
2,1,0,1,0,52422.5,0.0413245,0.0409542,39.7561,27,0.00148461,10,0.00162818,-1.4006,0.605597,0.0974245,150.919,0.0409542,
2,1,0,1,0,52422.6,0.0553076,0.0549558,41.746,27,0.00205544,10,0.00229418,-1.37939,0.69613,0.0847543,137.999,0.0549558,
2,1,0,1,0,52422.6,0.0693407,0.0689934,43.5833,27,0.00265306,10,0.00300696,-1.36068,0.790775,0.0746104,126.783,0.0689934,
2,1,0,1,0,52422.6,0.0833238,0.082959,45.2826,27,0.00327537,10,0.0037566,-1.34407,0.866113,0.0681205,120.356,0.082959,
2,1,0,1,0,52422.6,0.0973069,0.096898,46.9755,27,0.00392125,10,0.00455184,-1.32813,0.86284,0.0683789,125.41,0.096898,
2,1,0,1,0,52422.6,0.11134,0.110968,48.7248,27,0.00459149,10,0.00540687,-1.31225,0.919844,0.0641413,121.908,0.110968,
2,1,0,1,0,52422.6,0.125323,0.12489,50.4921,27,0.00528581,10,0.00630594,-1.29678,0.873382,0.0675535,133.164,0.1248896,
2,1,0,1,0,52422.6,0.139306,0.138916,52.4161,27,0.00600627,10,0.00728142,-1.28054,0.842181,0.0700562,143.405,0.1389156,
2,1,0,1,0,52422.7,0.153339,0.152939,54.4989,27,0.00675477,10,0.00833504,-1.26361,0.816244,0.0722823,153.821,0.152939,
2,1,0,1,0,52422.7,0.167322,0.166894,56.7075,27,0.00753347,10,0.00946416,-1.24636,0.826964,0.0713453,157.873,0.166894,
2,1,0,1,0,52422.7,0.181305,0.180927,58.8654,27,0.00834294,10,0.0106503,-1.23014,0.920872,0.0640697,147.091,0.180927,
2,1,0,1,0,52422.7,0.195338,0.19497,60.7636,27,0.00918103,10,0.0118471,-1.21636,1.2034,0.0490276,116.097,0.19497,
2,1,0,1,0,52422.7,0.209322,0.208971,62.0938,27,0.0100419,10,0.0129758,-1.20695,2.10037,0.0280903,67.9208,0.208971,
2,1,0,1,0,52422.7,0.223305,0.223005,62.629,27,0.010916,10,0.0139666,-1.20322,14.5762,0.00404769,9.87413,0.223005,
2,1,0,1,0,52422.7,0.237338,0.237031,62.3468,27,0.0117919,10,0.0147781,-1.20519,-2.7002,-0.0218502,-53.0511,0.237031,
2,1,0,1,0,52422.7,0.251321,0.250971,61.1765,27,0.0126575,10,0.0153535,-1.21342,-1.25211,-0.0471204,-112.26,0.250971,
2,1,0,1,0,52422.8,0.265304,0.264974,59.2097,27,0.0135009,10,0.015689,-1.22761,-0.830072,-0.0710782,-163.967,0.264974,
2,1,0,1,0,52422.8,0.279337,0.279044,56.6042,27,0.0143121,10,0.0157951,-1.24715,-0.632847,-0.0932295,-205.645,0.279044,
2,1,0,1,0,52422.8,0.29332,0.292983,53.5624,27,0.0150832,10,0.0156929,-1.27114,-0.557268,-0.105874,-221.919,0.292983,
2,1,0,1,0,52422.8,0.298714,0.298535,49.4323,27,0.015502,10,0.0147573,-1.30599,0.0610492,0.966434,1696.12,0.298535,
2,1,0,1,0,52422.8,0.28473,0.284523,32.1402,27,0.0160591,10,0.00914463,-1.49295,0.0763693,0.772562,973.852,0.284523,
2,1,0,1,0,52422.8,0.270747,0.27049,20.5915,27,0.0164232,10,0.00556979,-1.68631,0.0656702,0.898429,718.128,0.27049,
2,1,0,1,0,52422.8,0.256714,0.256454,11.7345,27,0.0166459,10,0.00300936,-1.93054,0.0472195,1.24948,558.432,0.256454,
2,1,0,1,0,52422.9,0.242731,0.242454,4.75035,27,0.0167588,10,0.00115174,-2.32327,0.020171,2.925,449.16,0.242454,
2,0,0,1,0,52422.9,0.228748,0.228456,-0.900512,27,0.0167839,10,-0.000205728,-3.04551,-0.0714966,-0.825214,363.939,0.228456,
2,0,0,1,0,52422.9,0.214715,0.214407,-5.56312,27,0.016737,10,-0.00119277,-2.25468,-0.0384734,-1.53353,303.096,0.214407,
2,0,0,1,0,52422.9,0.200732,0.200417,-9.45814,27,0.0166307,10,-0.00189557,-2.02419,-0.082474,-0.715377,257.257,0.200417,
2,0,0,1,0,52422.9,0.186735,0.186405,-12.822,27,0.016474,10,-0.00239008,-1.89205,-0.129388,-0.455992,225.424,0.186405,
2,0,0,1,0,52422.9,0.172716,0.172396,-15.7976,27,0.016273,10,-0.00272345,-1.80141,-0.177986,-0.331486,203.25,0.1723958,
2,0,0,1,0,52422.9,0.158733,0.158394,-18.5748,27,0.016032,10,-0.00294214,-1.73108,-0.214923,-0.274516,198.635,0.158394,
2,0,0,1,0,52423,0.144719,0.144428,-21.4389,27,0.015752,10,-0.00309636,-1.6688,-0.229916,-0.256616,214.769,0.144428,
2,0,0,1,0,52423,0.130717,0.130417,-24.6549,27,0.0154296,10,-0.00321543,-1.6081,-0.225337,-0.26183,252.527,0.130417,
2,0,0,1,0,52423,0.116733,0.116435,-28.5404,27,0.0150577,10,-0.00332311,-1.54454,-0.216138,-0.272973,304.464,0.116435,
2,0,0,1,0,52423,0.102703,0.102442,-33.0822,27,0.0146266,10,-0.00338901,-1.48041,-0.229878,-0.256658,330.407,0.102442,
2,0,0,1,0,52423,0.0887173,0.0884053,-37.6343,27,0.0141311,10,-0.00332707,-1.42442,-0.271526,-0.217291,318.307,0.0884053,
2,0,0,1,0,52423,0.0747342,0.0744376,-41.9273,27,0.0135732,10,-0.00312096,-1.3775,-0.334626,-0.176316,287.554,0.0744376,
2,0,0,1,0,52423,0.0607011,0.0604264,-45.6499,27,0.0129591,10,-0.00275846,-1.34056,-0.433821,-0.136001,241.518,0.0604264,
2,0,0,1,0,52423.1,0.046718,0.04648,-48.6633,27,0.012298,10,-0.00226187,-1.3128,-0.575715,-0.102481,194.098,0.04648,
2,0,0,1,0,52423.1,0.0327349,0.0325102,-51.0602,27,0.0115991,10,-0.00165998,-1.29192,-0.776332,-0.0759984,151.143,0.0325102,
2,0,0,1,0,52423.1,0.0187018,0.0184131,-52.9915,27,0.0108704,10,-0.000975739,-1.27579,-1.00268,-0.0588425,121.452,0.0184131,
2,0,0,1,0,52423.1,0.00471873,0.00445393,-54.3979,27,0.0101178,10,-0.000242284,-1.26442,-1.49241,-0.0395334,83.8466,0.00445393,
2,0,0,1,0,52423.1,-0.00926438,-0.00964418,-55.3556,27,0.00934862,10,0.000533859,-1.25684,-2.61374,-0.022573,48.6988,-0.00964418,
2,0,0,1,0,52423.1,-0.0232974,-0.0236511,-55.8584,27,0.00856975,10,0.00132111,-1.25291,-6.62969,-0.00889936,19.3667,-0.0236511,
2,0,0,1,0,52423.1,-0.0372805,-0.0376686,-55.8806,27,0.00778718,10,0.00210494,-1.25274,12.4702,0.00473127,-10.3084,-0.0376686,
2,0,0,1,0,52423.1,-0.0512637,-0.0516289,-55.6022,27,0.0070066,10,0.00287068,-1.25491,4.60565,0.0128103,-27.781,-0.0516289,
2,0,0,1,0,52423.2,-0.0652967,-0.0656443,-55.1848,27,0.00623117,10,0.00362257,-1.25818,3.80361,0.0155116,-33.3861,-0.0656443,
2,0,0,1,0,52423.2,-0.0792798,-0.0796395,-54.6563,27,0.0054623,10,0.0043528,-1.26236,3.48552,0.0169272,-36.1174,-0.0796395,
2,0,0,1,0,52423.2,-0.0932629,-0.0936634,-54.1944,27,0.00470045,10,0.00507604,-1.26605,4.1579,0.0141898,-30.0213,-0.0936634,
2,0,0,1,0,52423.2,-0.107296,-0.107646,-53.8779,27,0.00394427,10,0.00579973,-1.26859,6.91557,0.00853148,-17.9377,-0.107646,
2,0,0,1,0,52423.2,-0.121279,-0.121686,-53.6561,27,0.00319177,10,0.00652918,-1.27038,13.2667,0.00444722,-9.31802,-0.121686,
2,0,0,1,0,52423.2,-0.135262,-0.13561,-53.6091,27,0.00244107,10,0.00726993,-1.27076,-42.8296,-0.00137755,2.88399,-0.13561,
2,0,0,1,0,52423.2,-0.149295,-0.149673,-53.7759,27,0.00168955,10,0.0080488,-1.26941,-7.78392,-0.00757973,15.9078,-0.149673,
2,0,0,1,0,52423.3,-0.163278,-0.163641,-54.032,27,0.000934983,10,0.00884183,-1.26735,-5.53543,-0.0106586,22.4832,-0.163641,
2,0,0,1,0,52423.3,-0.177261,-0.17764,-54.3798,27,0.000176099,10,0.00966005,-1.26456,-4.82694,-0.0122231,25.941,-0.17764,
2,0,0,1,0,52423.3,-0.191295,-0.191618,-54.7824,27,-0.000588007,10,0.0104973,-1.26136,-4.68299,-0.0125988,26.9162,-0.1916185,
2,0,0,0,1,52423.3,-0.199984,-0.200475,-54.6522,27,-0.00109828,10,0.0109564,-1.26239,-0.0430833,-1.36944,2609.56,-0.200475,
2,0,0,1,1,52423.3,-0.186686,-0.187099,-36.9404,27,-0.00167727,10,0.00691151,-1.4325,-0.0895007,-0.659213,962.717,-0.187099,
2,0,0,1,1,52423.3,-0.172667,-0.173051,-25.9232,27,-0.00211197,10,0.00448603,-1.58631,-0.0873619,-0.675351,683.094,-0.173051,
2,0,0,1,1,52423.3,-0.158684,-0.159086,-17.3992,27,-0.00241235,10,0.00276798,-1.75947,-0.0715064,-0.825101,555.25,-0.159086,
2,0,0,1,1,52423.4,-0.14467,-0.145108,-10.2263,27,-0.00260403,10,0.00148391,-1.99028,-0.0478326,-1.23347,476.908,-0.145108,
2,0,0,1,1,52423.4,-0.130668,-0.131023,-4.00173,27,-0.00270206,10,0.000524317,-2.39775,-0.0159725,-3.69384,419.381,-0.1310226,
2,1,0,1,1,52423.4,-0.116685,-0.117154,1.57295,27,-0.00271785,10,-0.000184276,-2.80329,0.0340252,1.73401,380.6,-0.117154,
2,1,0,1,1,52423.4,-0.102654,-0.103148,6.6988,27,-0.00265925,10,-0.000690965,-2.174,0.0408971,1.44265,348.468,-0.103148,
2,1,0,1,1,52423.4,-0.0886685,-0.0891652,11.3764,27,-0.00253191,10,-0.00101438,-1.94399,0.0792281,0.744685,323.353,-0.0891652,
2,1,0,1,1,52423.4,-0.0746854,-0.0751084,15.7392,27,-0.00234122,10,-0.00118215,-1.80302,0.120023,0.491571,298.664,-0.0751084,
2,1,0,1,1,52423.4,-0.0606523,-0.0610888,19.833,27,-0.00209171,10,-0.00121157,-1.70261,0.162898,0.36219,277.849,-0.0610888,
2,1,0,1,1,52423.5,-0.0466692,-0.0470649,23.526,27,-0.00178762,10,-0.00110725,-1.62845,0.211386,0.27911,255.101,-0.0470649,
2,1,0,1,1,52423.5,-0.0326861,-0.0330866,26.9423,27,-0.00143362,10,-0.000891428,-1.56957,0.264485,0.223075,233.825,-0.0330866,
2,1,0,1,1,52423.5,-0.018653,-0.0190404,30.1251,27,-0.0010337,10,-0.000573596,-1.52107,0.322181,0.183127,214.502,-0.0190404,
2,1,0,1,1,52423.5,-0.00466992,-0.00506958,32.9494,27,-0.000591641,10,-0.00016704,-1.48215, , , ,-0.00506958,
2,1,0,0,1,52423.5,-0.000175352,-0.000649808,33.8075,27,-0.000441427,10,-2.19684e-05,-1.47099, , , ,-0.000649808,