File: Figure_codes/Fig_3-5/rawdata_trumpetplot_data/after 10th/20221101_1-115_003_TrumpetPlot_ParaChange_from10_every3_14_CV_C01_18.csv
mode,ox/red,error,control changes,counter inc.,time/s,control/V,Ewe/V,<I>/mA,cycle number,(Q-Qo)/C,I Range,P/W,log(|I|),Tafel slope mV/dec,alpha_eff,dI/d(E-IR),E-IR/V,
2,1,0,1,0,36661.5,2.44065e-05,-0.000325324,33.859,19,0.0000000E+000,10,-1.10151e-05,-1.47033, , , ,-0.000325324,
2,1,0,1,0,36661.5,0.0133084,0.0128979,37.5728,19,0.000472074,10,0.000484612,-1.42513,0.396902,0.148651,217.138,0.0128979,
2,1,0,1,0,36661.5,0.0273414,0.0269102,40.2641,19,0.00101785,10,0.00108351,-1.39508,0.532544,0.110789,173.576,0.0269102,
2,1,0,1,0,36661.5,0.0413245,0.0409446,42.4654,19,0.0015975,10,0.00173873,-1.37197,0.660781,0.0892882,147.779,0.0409446,
2,1,0,1,0,36661.5,0.0553076,0.0549738,44.3868,19,0.00220594,10,0.00244011,-1.35275,0.763605,0.0772651,133.834,0.0549738,
2,1,0,1,0,36661.5,0.0693407,0.0689563,46.1994,19,0.00284038,10,0.00318574,-1.33536,0.859663,0.0686316,123.602,0.06895633,
2,1,0,1,0,36661.5,0.0833238,0.0829378,47.8695,19,0.00349898,10,0.00397019,-1.31994,0.896766,0.0657919,122.949,0.0829378,
2,1,0,1,0,36661.6,0.0973069,0.0968906,49.6171,19,0.00418161,10,0.00480743,-1.30437,0.891456,0.0661839,128.232,0.0968906,
2,1,0,1,0,36661.6,0.11134,0.110882,51.3937,19,0.00488912,10,0.00569862,-1.28909,0.886291,0.0665696,133.69,0.110882,
2,1,0,1,0,36661.6,0.125323,0.124978,53.416,19,0.00562289,10,0.0066758,-1.27233,0.853901,0.0690946,143.994,0.124978,
2,1,0,1,0,36661.6,0.139306,0.138991,55.4605,19,0.00638508,10,0.0077085,-1.25602,0.815436,0.0723539,156.788,0.138991,
2,1,0,1,0,36661.6,0.153339,0.152969,57.7778,19,0.00717795,10,0.00883822,-1.23824,0.784161,0.0752396,169.743,0.152969,
2,1,0,1,0,36661.6,0.167322,0.166952,60.2449,19,0.00800424,10,0.010058,-1.22008,0.782798,0.0753706,177.148,0.166952,
2,1,0,1,0,36661.6,0.181305,0.180974,62.6725,19,0.00886514,10,0.0113421,-1.20292,0.854957,0.0690093,168.731,0.180974,
2,1,0,1,0,36661.6,0.195338,0.194994,64.8579,19,0.00975872,10,0.0126469,-1.18804,1.1204,0.0526599,133.09,0.194994,
2,1,0,1,0,36661.7,0.209322,0.208955,66.4029,19,0.0106785,10,0.0138752,-1.17781,1.98156,0.0297746,76.9485,0.208955,
2,1,0,1,0,36661.7,0.223305,0.222985,66.9454,19,0.0116132,10,0.0149278,-1.17428,84.1412,0.000701202,1.82745,0.222985,
2,1,0,1,0,36661.7,0.237338,0.236996,66.3889,19,0.012548,10,0.0157339,-1.1779,-1.81698,-0.0324714,-83.9085,0.236996,
2,1,0,1,0,36661.7,0.251321,0.250997,64.6555,19,0.0134665,10,0.0162284,-1.18939,-0.912538,-0.0646548,-162.68,0.250997,
2,1,0,1,0,36661.7,0.265304,0.264972,61.8818,19,0.014353,10,0.016397,-1.20844,-0.631614,-0.0934114,-225.116,0.264972,
2,1,0,1,0,36661.7,0.279337,0.279021,58.3717,19,0.0151952,10,0.0162869,-1.2338,-0.501192,-0.117719,-267.861,0.279021,
2,1,0,1,0,36661.7,0.29332,0.292993,54.5202,19,0.0159852,10,0.015974,-1.26344,-0.456217,-0.129325,-276.214,0.292993,
2,1,0,1,0,36661.8,0.298713,0.29856,49.8558,19,0.0164099,10,0.0148849,-1.30228,0.0546095,1.0804,1888.86,0.29856,
2,1,0,1,0,36661.8,0.28473,0.284484,30.5891,19,0.0169574,10,0.0087021,-1.51443,0.0659257,0.894947,1073.98,0.284484,
2,1,0,1,0,36661.8,0.270747,0.270495,18.0871,19,0.0172923,10,0.00489246,-1.74263,0.0536766,1.09918,767.527,0.270495,
2,1,0,1,0,36661.8,0.256714,0.256443,8.80325,19,0.0174763,10,0.00225753,-2.05536,0.0331425,1.78019,577.521,0.256443,
2,1,0,1,0,36661.8,0.242731,0.242437,1.71111,19,0.0175472,10,0.000414835,-2.76672,0.0298726,1.97505,447.201,0.242437,
2,0,0,1,0,36661.8,0.228748,0.228453,-3.85297,19,0.0175303,10,-0.000880223,-2.4142,-0.0178259,-3.30979,357.366,0.228453,
2,0,0,1,0,36661.8,0.214715,0.214432,-8.34996,19,0.017443,10,-0.0017905,-2.07832,-0.0637736,-0.925148,289.427,0.214432,
2,0,0,1,0,36661.9,0.200732,0.20042,-12.0515,19,0.0172991,10,-0.00241537,-1.91896,-0.112153,-0.526066,243.257,0.20042,
2,0,0,1,0,36661.9,0.186735,0.186426,-15.1992,19,0.0171076,10,-0.00283353,-1.81818,-0.164045,-0.359657,211.64,0.186426,
2,0,0,1,0,36661.9,0.172716,0.172427,-17.9884,19,0.0168745,10,-0.00310167,-1.74501,-0.21683,-0.272103,190.442,0.172427,
2,0,0,1,0,36661.9,0.158733,0.158439,-20.6334,19,0.0166039,10,-0.00326914,-1.68543,-0.248452,-0.237471,191.097,0.158439,
2,0,0,1,0,36661.9,0.144719,0.144422,-23.4458,19,0.0162956,10,-0.0033861,-1.62993,-0.250273,-0.235743,215.897,0.144422,
2,0,0,1,0,36661.9,0.130717,0.13042,-26.7296,19,0.0159448,10,-0.00348607,-1.57301,-0.234095,-0.252035,263.89,0.13042,
2,0,0,1,0,36661.9,0.116733,0.11644,-30.8766,19,0.0155421,10,-0.00359528,-1.51037,-0.21859,-0.269912,325.806,0.11644,
2,0,0,1,0,36662,0.102703,0.102422,-35.7969,19,0.0150758,10,-0.00366638,-1.44615,-0.230341,-0.256142,356.678,0.1024217,
2,0,0,1,0,36662,0.0887173,0.0884201,-40.765,19,0.0145395,10,-0.00360445,-1.38971,-0.269493,-0.21893,347.178,0.0884201,
2,0,0,1,0,36662,0.0747341,0.0744344,-45.3926,19,0.0139352,10,-0.00337877,-1.34301,-0.335978,-0.175607,310.129,0.0744344,
2,0,0,1,0,36662,0.0607011,0.0605537,-49.4151,19,0.0132705,10,-0.00299227,-1.30614,-0.434572,-0.135766,261.091,0.0605537,
2,0,0,1,0,36662,0.046718,0.046516,-52.7034,19,0.0125543,10,-0.00245155,-1.27816,-0.593794,-0.0993611,203.738,0.046516,
2,0,0,1,0,36662,0.0327349,0.0324974,-55.1696,19,0.0117982,10,-0.00179287,-1.2583,-0.811225,-0.0727295,156.368,0.0324974,
2,0,0,1,0,36662,0.0187018,0.0184386,-57.1557,19,0.0110113,10,-0.00105387,-1.24294,-1.11764,-0.0527897,117.45,0.0184386,
2,0,0,1,0,36662,0.00471873,0.00442,-58.467,19,0.0102013,10,-0.000258424,-1.23309,-1.73743,-0.0339583,77.3938,0.00442,
2,0,0,1,0,36662.1,-0.00926438,-0.00961131,-59.2923,19,0.00937604,10,0.000569877,-1.227,-3.41836,-0.0172597,39.896,-0.00961131,
2,0,0,1,0,36662.1,-0.0232974,-0.0236532,-59.6627,19,0.0085428,10,0.00141122,-1.2243,-19.681,-0.00299782,6.96839,-0.0236532,
2,0,0,1,0,36662.1,-0.0372805,-0.0376612,-59.5049,19,0.00770826,10,0.00224102,-1.22545,5.18343,0.0113824,-26.3952,-0.0376612,
2,0,0,1,0,36662.1,-0.0512637,-0.0516268,-58.9436,19,0.00687897,10,0.00304307,-1.22956,2.82873,0.0208575,-47.9488,-0.0516268,
2,0,0,1,0,36662.1,-0.0652967,-0.0656644,-58.2143,19,0.00605888,10,0.00382261,-1.23497,2.39447,0.0246401,-55.9545,-0.0656644,
2,0,0,1,0,36662.1,-0.0792798,-0.0796851,-57.3991,19,0.00524974,10,0.00457386,-1.24109,2.35192,0.0250859,-56.2021,-0.0796851,
2,0,0,1,0,36662.1,-0.0932629,-0.0936358,-56.6735,19,0.00445157,10,0.00530667,-1.24662,2.91163,0.0202636,-44.8394,-0.0936358,
2,0,0,1,0,36662.2,-0.107296,-0.107661,-56.1703,19,0.00366203,10,0.00604734,-1.25049,4.51752,0.0130603,-28.6402,-0.107661,
2,0,0,1,0,36662.2,-0.121279,-0.121668,-55.8464,19,0.00287824,10,0.00679471,-1.253,8.0633,0.0073171,-15.9576,-0.121668,
2,0,0,1,0,36662.2,-0.135262,-0.135621,-55.7536,19,0.00209741,10,0.00756133,-1.25373,-96.0331,-0.000614372,1.3375,-0.135621,
2,0,0,1,0,36662.2,-0.149295,-0.149677,-55.9006,19,0.00131604,10,0.00836704,-1.25258,-7.47031,-0.00789794,17.2366,-0.149677,
2,0,0,1,0,36662.2,-0.163278,-0.163628,-56.1858,19,0.000531446,10,0.00919357,-1.25037,-5.29268,-0.0111475,24.4548,-0.163628,
2,0,0,1,0,36662.2,-0.177261,-0.177642,-56.5878,19,-0.000257901,10,0.0100524,-1.24728,-4.28329,-0.0137745,30.4172,-0.177642,
2,0,0,1,0,36662.2,-0.191295,-0.191606,-57.0588,19,-0.00105333,10,0.0109328,-1.24368,-3.86096,-0.0152812,34.0136,-0.191606,
2,0,0,0,1,36662.3,-0.199984,-0.200475,-57.0052,19,-0.00158518,10,0.0114281,-1.24409,-0.0425879,-1.38537,2747.96,-0.200475,
2,0,0,1,1,36662.3,-0.186686,-0.187102,-38.0838,19,-0.00218699,10,0.00712557,-1.41926,-0.0845163,-0.698091,1049.77,-0.187102,
2,0,0,1,1,36662.3,-0.172667,-0.173079,-25.9836,19,-0.00262972,10,0.00449723,-1.5853,-0.0794364,-0.742733,752.424,-0.1730794,
2,0,0,1,1,36662.3,-0.158684,-0.159125,-16.6532,19,-0.00292498,10,0.00264995,-1.7785,-0.0623222,-0.946693,606.622,-0.159125,
2,0,0,1,1,36662.3,-0.14467,-0.145084,-8.83572,19,-0.00310135,10,0.00128192,-2.05376,-0.0372714,-1.58298,515.318,-0.145084,
2,0,0,1,1,36662.3,-0.130668,-0.131071,-2.09145,19,-0.00317612,10,0.000274129,-2.67955,-0.0254848,-2.31511,454.401,-0.131071,
2,1,0,1,1,36662.3,-0.116685,-0.117136,3.87641,19,-0.00316239,10,-0.000454065,-2.41157,0.0142645,4.13615,406.815,-0.1171355,
2,1,0,1,1,36662.4,-0.102654,-0.103159,9.32419,19,-0.00306919,10,-0.000961878,-2.03039,0.0552853,1.06719,370.896,-0.103159,
2,1,0,1,1,36662.4,-0.0886685,-0.0891302,14.2794,19,-0.00290293,10,-0.00127273,-1.84529,0.0954303,0.618252,338.907,-0.0891302,
2,1,0,1,1,36662.4,-0.0746854,-0.0750374,18.8505,19,-0.00267012,10,-0.00141449,-1.72468,0.137418,0.429348,312.779,-0.07503736,
2,1,0,1,1,36662.4,-0.0606523,-0.0610559,23.0767,19,-0.00237609,10,-0.00140897,-1.63683,0.183332,0.32182,287.754,-0.0610559,
2,1,0,1,1,36662.4,-0.0466692,-0.0471359,26.8847,19,-0.00202565,10,-0.00126723,-1.5705,0.235198,0.250853,262.117,-0.0471359,
2,1,0,1,1,36662.4,-0.0326861,-0.0330633,30.3765,19,-0.00162413,10,-0.00100435,-1.51746,0.294411,0.2004,236.785,-0.0330633,
2,1,0,1,1,36662.4,-0.018653,-0.0190447,33.577,19,-0.001176,10,-0.000639463,-1.47396,0.357942,0.164831,215.29,-0.0190447,
2,1,0,1,1,36662.4,-0.00466992,-0.00508761,36.3871,19,-0.000685589,10,-0.000185123,-1.43905, , , ,-0.00508761,
2,1,0,0,1,36662.5,-0.000175352,-0.000630721,37.2134,19,-0.000519935,10,-2.34713e-05,-1.4293, , , ,-0.000630721,