File: Figure_codes/Fig_3-5/rawdata_trumpetplot_data/after 10th/20221101_1-115_003_TrumpetPlot_ParaChange_from10_every3_11_CV_C01_5.csv
mode,ox/red,error,control changes,counter inc.,time/s,control/V,Ewe/V,<I>/mA,cycle number,(Q-Qo)/C,I Range,P/W,log(|I|),Tafel slope mV/dec,alpha_eff,dI/d(E-IR),E-IR/V,
2,1,0,1,0,11045.2,2.44065e-05,-0.000306236,10.2705,6,0.0000000E+000,10,-3.14519e-06,-1.98841, , , ,-0.000306236,
2,1,0,1,0,11045.2,0.0101427,0.00981428,14.662,6,0.000323059,10,0.000143897,-1.83381,0.116127,0.508063,288.975,0.00981428,
2,1,0,1,0,11045.2,0.0205441,0.0201829,17.0136,6,0.00073747,10,0.000343385,-1.7692,0.214656,0.274858,182.069,0.0201829,
2,1,0,1,0,11045.2,0.0309482,0.0306279,18.6245,6,0.00120189,10,0.00057043,-1.72992,0.311878,0.189176,137.381,0.0306279,
2,1,0,1,0,11045.3,0.0413439,0.0409987,19.9646,6,0.00170391,10,0.000818522,-1.69974,0.374152,0.15769,122.84,0.0409987,
2,1,0,1,0,11045.3,0.0517425,0.0514077,21.2366,6,0.00223976,10,0.00109173,-1.67291,0.393,0.150127,124.488,0.0514077,
2,1,0,1,0,11045.3,0.0621438,0.0617944,22.5576,6,0.00280921,10,0.00139393,-1.64671,0.395995,0.148992,131.187,0.0617944,
2,1,0,1,0,11045.4,0.0725479,0.0722118,23.9382,6,0.00341379,10,0.00172862,-1.62091,0.41636,0.141704,132.372,0.07221178,
2,1,0,1,0,11045.4,0.0829437,0.0825879,25.3188,6,0.00405404,10,0.00209103,-1.59656,0.419264,0.140723,139.042,0.0825879,
2,1,0,1,0,11045.4,0.0933422,0.0929979,26.7432,6,0.00473112,10,0.00248706,-1.57279,0.464896,0.12691,132.387,0.0929979,
2,1,0,1,0,11045.4,0.103749,0.103382,28.0972,6,0.00544408,10,0.00290476,-1.55134,0.49558,0.119052,130.579,0.103382,
2,1,0,1,0,11045.5,0.114148,0.113799,29.5063,6,0.00619278,10,0.00335778,-1.53009,0.462153,0.127663,147.03,0.1137988,
2,1,0,1,0,11045.5,0.124543,0.124226,31.1446,6,0.0069807,10,0.00386897,-1.50662,0.418454,0.140995,171.366,0.124226,
2,1,0,1,0,11045.5,0.134942,0.134583,33.0752,6,0.00781525,10,0.00445135,-1.4805,0.389164,0.151607,195.784,0.134583,
2,1,0,1,0,11045.5,0.145349,0.145046,35.1455,6,0.00870242,10,0.00509771,-1.45413,0.414288,0.142413,195.255,0.1450458,
2,1,0,1,0,11045.6,0.155747,0.155405,37.0265,6,0.0096413,10,0.0057541,-1.43149,0.517269,0.114061,164.641,0.155405,
2,1,0,1,0,11045.6,0.166143,0.165868,38.4536,6,0.0106239,10,0.00637823,-1.41506,0.857155,0.0688324,103.188,0.165868,
2,1,0,1,0,11045.6,0.176542,0.176196,38.9218,6,0.011633,10,0.00685788,-1.40981,-2.42243,-0.0243557,-36.9073,0.176196,
2,1,0,1,0,11045.6,0.186949,0.186612,37.3513,6,0.0126298,10,0.00697019,-1.42769,-0.305951,-0.192842,-280.01,0.186612,
2,1,0,1,0,11045.7,0.197347,0.196999,33.232,6,0.0135516,10,0.00654667,-1.47844,-0.158691,-0.371791,-480.816,0.196999,
2,1,0,1,0,11045.7,0.207743,0.207407,28.0141,6,0.014347,10,0.00581033,-1.55262,-0.136195,-0.433201,-473.918,0.207407,
2,1,0,1,0,11045.7,0.218141,0.217802,23.6481,6,0.0150153,10,0.00515061,-1.6262,-0.157305,-0.375067,-347.24,0.217802,
2,1,0,1,0,11045.7,0.228548,0.228274,20.7265,6,0.0155892,10,0.00473132,-1.68347,-0.212475,-0.277679,-224.825,0.228274,
2,1,0,1,0,11045.8,0.238947,0.238582,18.8274,6,0.0161012,10,0.00449189,-1.72521,-0.295815,-0.199449,-146.649,0.238582,
2,1,0,1,0,11045.8,0.249343,0.249048,17.5682,6,0.0165733,10,0.00437533,-1.75527,-0.404234,-0.145955,-100.312,0.249048,
2,1,0,1,0,11045.8,0.259741,0.259417,16.7187,6,0.0170184,10,0.00433712,-1.7768,-0.556419,-0.106035,-69.2088,0.259417,
2,1,0,1,0,11045.8,0.270148,0.269874,16.0875,6,0.0174443,10,0.00434159,-1.79351,-0.691709,-0.0852959,-53.5403,0.269874,
2,1,0,1,0,11045.9,0.280547,0.280248,15.5776,6,0.0178557,10,0.00436559,-1.8075,-0.848004,-0.0695752,-42.333,0.280248,
2,1,0,1,0,11045.9,0.290942,0.290595,15.1673,6,0.0182551,10,0.00440755,-1.81909,-0.981229,-0.0601287,-35.5963,0.290595,
2,1,0,0,0,11045.9,0.300012,0.299785,14.8575,6,0.0185958,10,0.00445406,-1.82805,0.00103472,57.02,27701.6,0.299785,
2,1,0,1,0,11045.9,0.290704,0.290403,1.96517,6,0.0187599,10,0.00057069,-2.7066,0.00436928,13.5034,777.31,0.290403,
2,0,0,1,0,11046,0.280305,0.279967,-3.28022,6,0.0187326,10,-0.000918353,-2.4841,-0.0213805,-2.75952,327.067,0.279967,
2,0,0,1,0,11046,0.269909,0.269577,-5.74375,6,0.0186117,10,-0.00154838,-2.2408,-0.0748232,-0.788526,174.519,0.269577,
2,0,0,1,0,11046,0.2595,0.259174,-7.15649,6,0.0184425,10,-0.00185478,-2.1453,-0.149089,-0.395737,110.307,0.259174,
2,0,0,1,0,11046,0.249104,0.24881,-8.12594,6,0.0182431,10,-0.00202181,-2.09013,-0.236398,-0.249579,79.0017,0.24881,
2,0,0,1,0,11046.1,0.238705,0.238409,-8.87137,6,0.0180218,10,-0.00211502,-2.05201,-0.313264,-0.18834,65.1322,0.2384093,
2,0,0,1,0,11046.1,0.22831,0.228029,-9.48041,6,0.0177829,10,-0.00216181,-2.02317,-0.38361,-0.153802,56.9625,0.228029,
2,0,0,1,0,11046.1,0.2179,0.217556,-10.0614,6,0.0175288,10,-0.00218893,-1.99734,-0.431322,-0.136789,53.6203,0.217556,
2,0,0,1,0,11046.2,0.207504,0.207216,-10.5846,6,0.0172604,10,-0.0021933,-1.97533,-0.473316,-0.124652,51.505,0.207216,
2,0,0,1,0,11046.2,0.197106,0.196782,-11.1188,6,0.016978,10,-0.00218798,-1.95394,-0.481464,-0.122543,53.2552,0.196782,
2,0,0,1,0,11046.2,0.18671,0.186378,-11.6969,6,0.0166814,10,-0.00218005,-1.93193,-0.451294,-0.130735,59.7229,0.1863783,
2,0,0,1,0,11046.2,0.1763,0.175978,-12.3844,6,0.0163685,10,-0.00217938,-1.90713,-0.390582,-0.151057,72.9858,0.175978,
2,0,0,1,0,11046.3,0.165905,0.165583,-13.2325,6,0.016036,10,-0.00219107,-1.87836,-0.331749,-0.177845,91.9021,0.165583,
2,0,0,1,0,11046.3,0.155506,0.155189,-14.4199,6,0.0156774,10,-0.0022378,-1.84104,-0.241079,-0.244733,138.022,0.155189,
2,0,0,1,0,11046.3,0.145105,0.14479,-16.1684,6,0.0152811,10,-0.00234102,-1.79133,-0.183065,-0.32229,203.713,0.14479,
2,0,0,1,0,11046.3,0.134701,0.134417,-18.7496,6,0.0148292,10,-0.00252027,-1.72701,-0.146774,-0.40198,294.239,0.134417,
2,0,0,1,0,11046.4,0.124305,0.123997,-22.1883,6,0.0142982,10,-0.00275128,-1.65388,-0.142145,-0.415068,359.673,0.123997,
2,0,0,1,0,11046.4,0.113906,0.113616,-26.0208,6,0.0136708,10,-0.00295639,-1.58468,-0.165002,-0.357571,362.814,0.113616,
2,0,0,1,0,11046.4,0.103505,0.103238,-29.6451,6,0.0129463,10,-0.0030605,-1.52805,-0.211603,-0.278825,322.002,0.103238,
2,0,0,1,0,11046.4,0.0931008,0.0928282,-32.6342,6,0.0121348,10,-0.00302937,-1.48633,-0.297794,-0.198123,252.049,0.0928282,
2,0,0,1,0,11046.5,0.0827051,0.0824108,-34.8819,6,0.011255,10,-0.00287465,-1.4574,-0.468207,-0.126013,171.34,0.0824108,
2,0,0,1,0,11046.5,0.0723065,0.0719594,-36.1621,6,0.010329,10,-0.0026022,-1.44175,-1.16982,-0.0504352,71.0589,0.0719594,
2,0,0,1,0,11046.5,0.0618997,0.0615685,-36.351,6,0.00938409,10,-0.00223807,-1.43948,2.77763,0.0212411,-30.097,0.06156848,
2,0,0,1,0,11046.5,0.0515011,0.0511542,-35.7002,6,0.00844626,10,-0.00182622,-1.44733,0.981357,0.0601208,-83.7366,0.0511542,
2,0,0,1,0,11046.6,0.0411053,0.0408237,-34.7515,6,0.0075303,10,-0.00141869,-1.45903,0.855916,0.068932,-93.5002,0.04082375,
2,0,0,1,0,11046.6,0.0307068,0.0303925,-33.7958,6,0.00663923,10,-0.00102714,-1.47114,0.866935,0.0680559,-89.7726,0.0303925,
2,0,0,1,0,11046.6,0.0202999,0.0199825,-32.8467,6,0.00577294,10,-0.00065636,-1.48351,0.777547,0.0758796,-97.2296,0.01998252,
2,0,0,1,0,11046.6,0.00990136,0.00957887,-31.7648,6,0.00493271,10,-0.000304271,-1.49805,0.65088,0.0906465,-112.368,0.00957887,
2,0,0,1,0,11046.7,-0.000494411,-0.000874614,-30.4818,6,0.00412308,10,2.66598e-05,-1.51596,0.518059,0.113887,-135.249,-0.0008746144,
2,0,0,1,0,11046.7,-0.010893,-0.0112359,-28.8643,6,0.0033516,10,0.000324314,-1.53964,0.416746,0.141573,-159.426,-0.01123585,
2,0,0,1,0,11046.7,-0.0212998,-0.0216851,-27.2808,6,0.00262237,10,0.000591587,-1.56414,0.454903,0.129698,-138.225,-0.0216851,
2,0,0,1,0,11046.8,-0.0316984,-0.0320962,-26.0921,6,0.00192968,10,0.000837458,-1.58349,0.65149,0.0905617,-92.2325,-0.0320962,
2,0,0,1,0,11046.8,-0.0420942,-0.0424595,-25.3612,6,0.00126196,10,0.00107682,-1.59583,1.14814,0.0513877,-50.9005,-0.0424595,
2,0,0,1,0,11046.8,-0.0524927,-0.0528208,-25.0463,6,0.000607366,10,0.00132296,-1.60126,4.98053,0.0118461,-11.5962,-0.0528208,
2,0,0,1,0,11046.8,-0.0628996,-0.0632382,-25.0949,6,-4.38367e-05,10,0.00158696,-1.60041,-3.3523,-0.0175999,17.2323,-0.0632382,
2,0,0,1,0,11046.9,-0.0732982,-0.0736853,-25.357,6,-0.000699124,10,0.00186844,-1.5959,-1.66156,-0.0355089,35.1465,-0.0736853,
2,0,0,1,0,11046.9,-0.0836939,-0.0840529,-25.8189,6,-0.0013641,10,0.00217016,-1.58806,-1.12019,-0.0526696,53.1028,-0.0840529,
2,0,0,1,0,11046.9,-0.0940925,-0.0944598,-26.4631,6,-0.00204355,10,0.0024997,-1.57736,-0.853919,-0.0690932,71.3976,-0.0944598,
2,0,0,1,1,11046.9,-0.0978574,-0.098273,-21.7375,6,-0.00257343,10,0.00213621,-1.66279,-0.0247399,-2.38481,1963.08,-0.098273,
2,0,0,1,1,11047,-0.0874588,-0.0878651,-7.30606,6,-0.00292939,10,0.000641948,-2.13632,-0.0155863,-3.78538,1036.25,-0.0878651,
2,1,0,1,1,11047,-0.077052,-0.0774858,1.34341,6,-0.00299793,10,-0.000104095,-2.87179,0.0115566,5.10529,677.556,-0.0774858,
2,1,0,1,1,11047,-0.0666562,-0.0670832,7.18027,6,-0.00288198,10,-0.000481676,-2.14386,0.0342841,1.72092,469.861,-0.0670832,
2,1,0,1,1,11047,-0.0562576,-0.0566817,11.3221,6,-0.00263779,10,-0.000641755,-1.94607,0.077322,0.763043,335.148,-0.0566817,
2,1,0,1,1,11047.1,-0.0458563,-0.0462272,14.2637,6,-0.00230248,10,-0.000659372,-1.84577,0.138693,0.425399,235.878,-0.0462272,
2,1,0,1,1,11047.1,-0.0354522,-0.0358299,16.3163,6,-0.0019033,10,-0.00058461,-1.78738,0.229709,0.256847,162.915,-0.0358299,
2,1,0,1,1,11047.1,-0.0250564,-0.025423,17.6948,6,-0.00145988,10,-0.000449855,-1.75216,0.38639,0.152695,105.338,-0.025423,
2,1,0,1,1,11047.1,-0.0146579,-0.0150395,18.598,6,-0.000986945,10,-0.000279705,-1.73053,0.6051,0.0975045,70.7828,-0.01503953,
2,1,0,1,1,11047.2,-0.00425653,-0.00462633,19.1951,6,-0.000494894,10,-8.88027e-05,-1.71681,1.02155,0.0577555,43.2265,-0.00462633,
2,1,0,0,1,11047.2,-7.54729e-05,-0.00042076,19.3301,6,-0.00029244,10,-8.13334e-06,-1.71377, , , ,-0.00042076,