File: Figure_codes/Fig_3-5/rawdata_trumpetplot_data/after 10th/20221101_1-115_003_TrumpetPlot_ParaChange_from10_every3_08_CV_C01_24.csv
mode,ox/red,error,control changes,counter inc.,time/s,control/V,Ewe/V,<I>/mA,cycle number,(Q-Qo)/C,I Range,P/W,log(|I|),Tafel slope mV/dec,alpha_eff,dI/d(E-IR),E-IR/V,
2,0,0,0,0,48458.1,2.44065e-05,-0.000363498,-3.97156,25,0.0000000E+000,10,1.44365e-06,-2.40104, , , ,-0.000363498,
2,1,0,1,0,48458.2,0.0072942,0.00696262,0.596845,25,-9.67473e-05,10,4.15561e-06,-3.22414,0.00368348,16.0175,303.494,0.00696262,
2,1,0,1,0,48458.3,0.0147816,0.014435,2.02679,25,3.71271e-05,10,2.92567e-05,-2.69319,0.0364105,1.62041,126.48,0.014435,
2,1,0,1,0,48458.4,0.0222707,0.0219499,2.7221,25,0.000264031,10,5.97499e-05,-2.5651,0.0887895,0.664493,70.3751,0.0219499,
2,1,0,1,0,48458.5,0.0297581,0.0294516,3.17174,25,0.000541904,10,9.34127e-05,-2.4987,0.141548,0.41682,51.4402,0.0294516,
2,1,0,1,0,48458.6,0.0372544,0.0369035,3.52394,25,0.00085705,10,0.000130046,-2.45297,0.181917,0.324324,44.599,0.0369035,
2,1,0,1,0,48458.7,0.0447507,0.0444167,3.85349,25,0.00120418,10,0.000171159,-2.41415,0.218972,0.269441,40.5322,0.0444167,
2,1,0,1,0,48458.8,0.0522381,0.0518734,4.16644,25,0.00158079,10,0.000216127,-2.38023,0.241958,0.243844,39.6519,0.0518734,
2,1,0,1,0,48458.9,0.0597273,0.0593853,4.46284,25,0.00198587,10,0.000265027,-2.35039,0.250158,0.235851,41.0537,0.0593853,
2,1,0,1,0,48459,0.0672147,0.0669183,4.74547,25,0.00241788,10,0.000317558,-2.32372,0.296107,0.199253,36.8806,0.0669183,
2,1,0,1,0,48459.1,0.0747038,0.0743473,4.99604,25,0.00287499,10,0.000371443,-2.30137,0.379703,0.155385,30.272,0.0743473,
2,1,0,1,0,48459.2,0.0822055,0.0818517,5.2188,25,0.00335543,10,0.000427168,-2.28243,0.442954,0.133197,27.1265,0.0818517,
2,1,0,1,0,48459.3,0.0896946,0.0893588,5.4103,25,0.00385439,10,0.000483458,-2.26678,0.51735,0.114043,24.1275,0.0893588,
2,1,0,1,0,48459.4,0.097182,0.0968438,5.62499,25,0.0043719,10,0.000544745,-2.24988,0.432337,0.136468,29.9676,0.0968438,
2,1,0,1,0,48459.5,0.104671,0.104355,5.91658,25,0.00491204,10,0.000617425,-2.22793,0.27813,0.212131,48.9785,0.104355,
2,1,0,1,0,48459.5,0.112159,0.111825,6.29921,25,0.00548425,10,0.000704411,-2.20071,0.250426,0.235598,57.983,0.111825,
2,1,0,1,0,48459.6,0.119655,0.119321,6.7627,25,0.00609755,10,0.00080693,-2.16988,0.286174,0.206169,54.3596,0.119321,
2,1,0,1,0,48459.7,0.127149,0.12683,7.14864,25,0.00675099,10,0.000906664,-2.14578,0.359999,0.163889,45.6969,0.12683,
2,1,0,1,0,48459.8,0.134639,0.134311,7.42027,25,0.0074351,10,0.000996623,-2.12958,0.559973,0.105362,30.533,0.134311,
2,1,0,1,0,48459.9,0.142126,0.141814,7.59016,25,0.00814012,10,0.00107639,-2.11975,1.69926,0.0347209,10.2746,0.141814,
2,1,0,1,0,48460,0.149615,0.149254,7.51598,25,0.0088511,10,0.00112179,-2.12401,-0.447538,-0.131832,-38.577,0.149254,
2,1,0,1,0,48460.1,0.157103,0.156787,6.94251,25,0.00953325,10,0.00108849,-2.15848,-0.145661,-0.40505,-109.479,0.1567868,
2,1,0,1,0,48460.2,0.164606,0.164268,5.94367,25,0.0101406,10,0.000976353,-2.22595,-0.0949989,-0.62106,-143.957,0.164268,
2,1,0,1,0,48460.3,0.172095,0.171751,4.98727,25,0.0106512,10,0.000856568,-2.30214,-0.104742,-0.563288,-109.811,0.171751,
2,1,0,1,0,48460.4,0.179582,0.179245,4.32516,25,0.0110857,10,0.000775264,-2.364,-0.148275,-0.39791,-67.2735,0.179245,
2,1,0,1,0,48460.5,0.18707,0.186774,3.90685,25,0.0114705,10,0.000729697,-2.40817,-0.204002,-0.289213,-44.1692,0.186774,
2,1,0,1,0,48460.6,0.194559,0.194267,3.6482,25,0.011824,10,0.000708726,-2.43792,-0.30046,-0.196366,-27.9719,0.194267,
2,1,0,1,0,48460.7,0.202062,0.201755,3.47229,25,0.0121581,10,0.00070055,-2.45938,-0.461597,-0.127817,-17.3214,0.2017545,
2,1,0,1,0,48460.8,0.20955,0.209222,3.35798,25,0.0124784,10,0.000702564,-2.47392,-0.551283,-0.107023,-14.0124,0.209222,
2,1,0,1,0,48460.9,0.217039,0.216695,3.26763,25,0.0127893,10,0.00070808,-2.48577,-0.722132,-0.0817025,-10.4354,0.216695,
2,1,0,1,0,48461,0.224526,0.224208,3.2091,25,0.0130935,10,0.000719506,-2.49362,-1.01608,-0.0580665,-7.27175,0.224208,
2,1,0,1,0,48461,0.232016,0.231708,3.15826,25,0.0133924,10,0.000731795,-2.50055,-1.52297,-0.03874,-4.77913,0.231708,
2,1,0,1,0,48461.1,0.23951,0.239209,3.12118,25,0.0136878,10,0.000746614,-2.50568,-1.64011,-0.0359732,-4.3846,0.239209,
2,1,0,1,0,48461.2,0.247006,0.246663,3.09705,25,0.0139798,10,0.000763928,-2.50905,-1.54133,-0.0382785,-4.61597,0.246663,
2,1,0,1,0,48461.3,0.254494,0.254158,3.06195,25,0.0142688,10,0.000778219,-2.514,-2.66637,-0.0221275,-2.64533,0.254158,
2,1,0,1,0,48461.4,0.261983,0.261695,3.03541,25,0.0145553,10,0.000794352,-2.51778,-1.24046,-0.0475629,-5.63536,0.261695,
2,1,0,1,0,48461.5,0.26947,0.269179,3.01441,25,0.0148394,10,0.000811418,-2.5208,-3.44354,-0.0171335,-2.01496,0.2691794,
2,1,0,1,0,48461.6,0.276959,0.276631,2.99417,25,0.0151215,10,0.000828281,-2.52372,-2.98163,-0.0197879,-2.31027,0.2766313,
2,1,0,1,0,48461.7,0.284461,0.284167,2.96475,25,0.0154019,10,0.000842484,-2.52801,-2.13801,-0.0275957,-3.19403,0.284167,
2,1,0,1,0,48461.8,0.29195,0.291631,2.94376,25,0.0156794,10,0.000858491,-2.5311,-1.47944,-0.0398798,-4.57932,0.291631,
2,1,0,1,0,48461.9,0.299438,0.299114,2.91232,25,0.0159546,10,0.000871116,-2.53576,-0.0342548,-1.72239,-182.573,0.299114,
2,0,0,1,0,48462,0.29424,0.293902,-0.152054,25,0.0160385,10,-4.4689e-05,-3.818,-0.0326768,-1.80556,214.269,0.293902,
2,0,0,1,0,48462.1,0.286753,0.286393,-1.00167,25,0.0159756,10,-0.000286872,-2.99927,-0.0340954,-1.73044,66.5545,0.286393,
2,0,0,1,0,48462.2,0.279264,0.278934,-1.33881,25,0.0158632,10,-0.00037344,-2.87328,-0.0915966,-0.644129,33.602,0.278934,
2,0,0,1,0,48462.3,0.271776,0.271486,-1.54306,25,0.0157265,10,-0.000418918,-2.81162,-0.153195,-0.38513,23.2128,0.271486,
2,0,0,1,0,48462.3,0.26428,0.263927,-1.6993,25,0.0155733,10,-0.000448491,-2.76973,-0.190739,-0.309323,20.4719,0.263927,
2,0,0,1,0,48462.4,0.256786,0.256451,-1.81245,25,0.0154073,10,-0.000464804,-2.74173,-0.263198,-0.224166,15.9105,0.256451,
2,0,0,1,0,48462.5,0.249296,0.24896,-1.9252,25,0.0152309,10,-0.000479298,-2.71552,-0.398466,-0.148068,11.127,0.24896,
2,0,0,1,0,48462.6,0.241809,0.241495,-2.01684,25,0.0150453,10,-0.000487057,-2.69533,-0.362415,-0.162797,12.8323,0.2414953,
2,0,0,1,0,48462.7,0.23432,0.233948,-2.09785,25,0.0148514,10,-0.000490787,-2.67823,-0.39586,-0.149043,12.2519,0.233948,
2,0,0,1,0,48462.8,0.226833,0.226523,-2.18395,25,0.0146496,10,-0.000494715,-2.66076,-0.499191,-0.118191,10.0681,0.226523,
2,0,0,1,0,48462.9,0.219329,0.218987,-2.26593,25,0.01444,10,-0.000496211,-2.64475,-0.457572,-0.128942,11.3872,0.218987,
2,0,0,1,0,48463,0.21184,0.211521,-2.33524,25,0.0142237,10,-0.000493951,-2.63167,-0.531281,-0.111052,10.1308,0.2115207,
2,0,0,1,0,48463.1,0.204353,0.204034,-2.41678,25,0.0140001,10,-0.000493105,-2.61676,-0.715112,-0.0825045,7.78512,0.204034,
2,0,0,1,0,48463.2,0.196863,0.19656,-2.49627,25,0.0137694,10,-0.000490667,-2.60271,-0.55406,-0.106487,10.3696,0.19656,
2,0,0,1,0,48463.3,0.189376,0.18905,-2.57486,25,0.0135311,10,-0.000486776,-2.58925,-0.481399,-0.122559,12.3489,0.1890495,
2,0,0,1,0,48463.4,0.18188,0.181582,-2.66741,25,0.0132844,10,-0.000484353,-2.57391,-0.477185,-0.123642,12.8834,0.181582,
2,0,0,1,0,48463.5,0.174385,0.174039,-2.77655,25,0.0130284,10,-0.000483229,-2.55649,-0.425918,-0.138524,15.0202,0.174039,
2,0,0,1,0,48463.6,0.166896,0.166565,-2.9132,25,0.0127617,10,-0.000485237,-2.53563,-0.318829,-0.185052,20.975,0.166565,
2,0,0,1,0,48463.7,0.159409,0.159081,-3.07602,25,0.012481,10,-0.000489336,-2.51201,-0.273023,-0.216099,25.9741,0.159081,
2,0,0,1,0,48463.7,0.151919,0.151561,-3.327,25,0.012181,10,-0.000504244,-2.47795,-0.195663,-0.301539,39.1732,0.151561,
2,0,0,1,0,48463.8,0.144425,0.144082,-3.71356,25,0.0118517,10,-0.000535059,-2.43021,-0.130351,-0.452626,65.7401,0.144082,
2,0,0,1,0,48463.9,0.136929,0.136592,-4.31083,25,0.0114764,10,-0.000588826,-2.36544,-0.10378,-0.568508,95.7932,0.136592,
2,0,0,1,0,48464,0.129441,0.129103,-5.10353,25,0.0110357,10,-0.000658882,-2.29213,-0.107243,-0.55015,109.596,0.129103,
2,0,0,1,0,48464.1,0.121952,0.121592,-5.92449,25,0.0105182,10,-0.00072037,-2.22735,-0.13242,-0.445553,102.741,0.121592,
2,0,0,1,0,48464.2,0.114465,0.114141,-6.62932,25,0.00992868,10,-0.000756674,-2.17853,-0.179814,-0.328117,84.8257,0.114141,
2,0,0,1,0,48464.3,0.106976,0.10662,-7.17634,25,0.00928004,10,-0.000765143,-2.1441,-0.283966,-0.207771,58.1285,0.10662,
2,0,0,1,0,48464.4,0.0994721,0.099137,-7.51674,25,0.00858801,10,-0.000745186,-2.12397,-0.586855,-0.100536,29.4553,0.099137,
2,0,0,1,0,48464.5,0.0919847,0.0916599,-7.58834,25,0.00787804,10,-0.000695546,-2.11985,6.09688,0.00967708,-2.86573,0.0916599,
2,0,0,1,0,48464.6,0.0844973,0.0841712,-7.47062,25,0.00717082,10,-0.00062881,-2.12664,0.629525,0.0937215,-27.3078,0.0841712,
2,0,0,1,0,48464.7,0.0770082,0.0766549,-7.2682,25,0.00648053,10,-0.000557143,-2.13857,0.600573,0.0982395,-27.8357,0.0766549,
2,0,0,1,0,48464.8,0.0695208,0.0691876,-7.07076,25,0.00580896,10,-0.000489209,-2.15053,0.748708,0.0788024,-21.7647,0.0691876,
2,0,0,1,0,48464.9,0.0620245,0.06169,-6.91784,25,0.00515228,10,-0.000426762,-2.16003,0.729291,0.0809005,-21.8583,0.06169,
2,0,0,1,0,48465,0.0545282,0.0542123,-6.77519,25,0.00450971,10,-0.000367298,-2.16908,0.895637,0.0658749,-17.4085,0.0542123,
2,0,0,1,0,48465.1,0.0470408,0.0467283,-6.61144,25,0.00388224,10,-0.000308941,-2.1797,0.721102,0.0818192,-21.1043,0.0467283,
2,0,0,1,0,48465.2,0.0395516,0.039211,-6.43086,25,0.00327093,10,-0.000252161,-2.19173,0.59401,0.099325,-24.9107,0.039211,
2,0,0,1,0,48465.2,0.0320643,0.0317346,-6.22495,25,0.00267776,10,-0.000197546,-2.20586,0.461338,0.127889,-31.0449,0.0317346,
2,0,0,1,0,48465.3,0.0245751,0.0242186,-5.98545,25,0.00210538,10,-0.000144959,-2.2229,0.42931,0.13743,-32.1015,0.0242186,
2,0,0,1,0,48465.4,0.0170735,0.016722,-5.73969,25,0.00155453,10,-9.59793e-05,-2.24111,0.428575,0.137666,-30.8702,0.016722,
2,0,0,1,0,48465.5,0.00958429,0.00923913,-5.52788,25,0.00102634,10,-5.10727e-05,-2.25744,0.479917,0.122938,-26.5328,0.00923913,
2,0,0,1,0,48465.6,0.0020969,0.00171327,-5.40135,25,0.000516039,10,-9.25397e-06,-2.2675,1.07731,0.0547658,-11.4921,0.00171327,
2,0,0,1,0,48465.6,0.000199195,-0.000205073,-5.35429,25,0.000388438,10,1.09802e-06,-2.2713, , , ,-0.000205073,