File: Figure_codes/Fig_3-5/rawdata_trumpetplot_data/after 10th/20221101_1-115_003_TrumpetPlot_ParaChange_from10_every3_12_CV_C01_21.csv
mode,ox/red,error,control changes,counter inc.,time/s,control/V,Ewe/V,<I>/mA,cycle number,(Q-Qo)/C,I Range,P/W,log(|I|),Tafel slope mV/dec,alpha_eff,dI/d(E-IR),E-IR/V,
2,1,0,1,0,42569.3,2.44065e-05,-0.000287149,15.484,22,0.0000000E+000,10,-4.44622e-06,-1.81012, , , ,-0.0002871489,
2,1,0,1,0,42569.3,0.0104008,0.0100656,18.7086,22,0.000297352,10,0.000188313,-1.72796,0.191621,0.3079,223.465,0.0100656,
2,1,0,1,0,42569.3,0.0212099,0.0208107,20.7702,22,0.000653606,10,0.000432241,-1.68256,0.28658,0.205876,166.443,0.0208107,
2,1,0,1,0,42569.3,0.0320052,0.0316512,22.4071,22,0.00104282,10,0.000709212,-1.64961,0.364917,0.161681,141.217,0.0316512,
2,1,0,1,0,42569.3,0.0428033,0.0424536,23.8418,22,0.00145951,10,0.00101217,-1.62266,0.431774,0.136645,127.105,0.0424536,
2,1,0,1,0,42569.3,0.0535986,0.0532496,25.1641,22,0.00190083,10,0.00133998,-1.59922,0.482202,0.122355,120.167,0.0532496,
2,1,0,1,0,42569.4,0.0644077,0.0640424,26.4711,22,0.0023658,10,0.00169527,-1.57723,0.505177,0.116791,120.677,0.0640424,
2,1,0,1,0,42569.4,0.075203,0.0748882,27.8026,22,0.00285439,10,0.00208209,-1.55591,0.512907,0.115031,124.827,0.0748882,
2,1,0,1,0,42569.4,0.0860011,0.0855973,29.1724,22,0.00336719,10,0.00249708,-1.53503,0.5241,0.112574,128.152,0.0855973,
2,1,0,1,0,42569.4,0.0968075,0.0963965,30.5864,22,0.00390499,10,0.00294842,-1.51447,0.5335,0.110591,131.92,0.0963965,
2,1,0,1,0,42569.4,0.107606,0.107237,32.0335,22,0.00446849,10,0.00343518,-1.4944,0.537688,0.109729,137.12,0.107237,
2,1,0,1,0,42569.5,0.118401,0.118058,33.5006,22,0.00505831,10,0.00395503,-1.47495,0.564771,0.104467,136.537,0.118058,
2,1,0,1,0,42569.5,0.129207,0.128801,35.1015,22,0.00567522,10,0.00452112,-1.45467,0.512322,0.115162,157.742,0.128801,
2,1,0,1,0,42569.5,0.140005,0.139636,36.8403,22,0.00632282,10,0.00514422,-1.43368,0.507361,0.116288,167.223,0.139636,
2,1,0,1,0,42569.5,0.150803,0.15045,38.6548,22,0.00700256,10,0.0058156,-1.4128,0.54145,0.108967,164.366,0.15045,
2,1,0,1,0,42569.5,0.161604,0.161196,40.3712,22,0.00771425,10,0.00650766,-1.39393,0.621457,0.0949381,149.491,0.161196,
2,1,0,1,0,42569.5,0.172405,0.17203,41.8642,22,0.008455,10,0.0072019,-1.37816,0.800899,0.0736672,120.21,0.17203,
2,1,0,1,0,42569.6,0.183203,0.18289,42.8978,22,0.00921884,10,0.00784556,-1.36756,1.52896,0.0385883,64.4834,0.1828896,
2,1,0,1,0,42569.6,0.194001,0.19363,43.17,22,0.00999475,10,0.00835902,-1.36482,-6.106,-0.00966263,-16.2458,0.19363,
2,1,0,1,0,42569.6,0.204808,0.204406,42.532,22,0.0107674,10,0.00869381,-1.37128,-0.960331,-0.0614372,-101.744,0.204406,
2,1,0,1,0,42569.6,0.215603,0.215297,40.9708,22,0.0115201,10,0.00882087,-1.38753,-0.517968,-0.113907,-181.769,0.215297,
2,1,0,1,0,42569.6,0.226401,0.226093,38.6603,22,0.0122374,10,0.00874081,-1.41273,-0.370658,-0.159176,-239.847,0.226093,
2,1,0,1,0,42569.7,0.237207,0.236877,35.9701,22,0.012909,10,0.00852049,-1.44406,-0.326685,-0.180602,-253.431,0.236877,
2,1,0,1,0,42569.7,0.248005,0.247674,33.2862,22,0.0135318,10,0.00824412,-1.47774,-0.327579,-0.180109,-234.07,0.247674,
2,1,0,1,0,42569.7,0.258801,0.258493,30.8592,22,0.0141084,10,0.00797689,-1.51062,-0.34068,-0.173183,-208.798,0.258493,
2,1,0,1,0,42569.7,0.26961,0.269293,28.7907,22,0.0146445,10,0.00775313,-1.54075,-0.37897,-0.155685,-175.067,0.269293,
2,1,0,1,0,42569.7,0.280405,0.280095,27.051,22,0.0151465,10,0.00757685,-1.56782,-0.428391,-0.137725,-145.55,0.280095,
2,1,0,1,0,42569.7,0.291203,0.29087,25.6206,22,0.01562,10,0.00745227,-1.59141,-0.481428,-0.122552,-122.663,0.29087,
2,1,0,0,0,42569.8,0.300012,0.299613,24.6295,22,0.0159891,10,0.00737932,-1.60854,0.00267529,22.0537,18941.4,0.299613,
2,1,0,1,0,42569.8,0.290842,0.290547,13.0311,22,0.0162625,10,0.00378614,-1.88502,0.0338852,1.74117,890.73,0.290547,
2,1,0,1,0,42569.8,0.280047,0.27979,5.56723,22,0.0164241,10,0.00155765,-2.25436,0.0221662,2.66171,556.459,0.27979,
2,1,0,1,0,42569.8,0.269244,0.268952,0.560666,22,0.0164762,10,0.000150792,-3.2513,0.0275554,2.14114,387.551,0.268952,
2,0,0,1,0,42569.8,0.258443,0.258126,-3.00578,22,0.0164523,10,-0.000775871,-2.52204,-0.0217229,-2.71602,285.16,0.2581265,
2,0,0,1,0,42569.8,0.247645,0.247328,-5.69867,22,0.0163726,10,-0.00140944,-2.24423,-0.0583086,-1.01186,220.117,0.247328,
2,0,0,1,0,42569.9,0.236849,0.236523,-7.78234,22,0.0162503,10,-0.0018407,-2.10889,-0.101913,-0.578925,174.346,0.236523,
2,0,0,1,0,42569.9,0.22604,0.2257,-9.46899,22,0.0160943,10,-0.00213715,-2.0237,-0.153011,-0.385592,141.886,0.2257,
2,0,0,1,0,42569.9,0.215245,0.21493,-10.8639,22,0.0159107,10,-0.00233498,-1.96401,-0.208542,-0.282916,119.744,0.21493,
2,0,0,1,0,42569.9,0.204447,0.204138,-12.0768,22,0.0157039,10,-0.00246533,-1.91805,-0.266649,-0.221265,104.074,0.204138,
2,0,0,1,0,42569.9,0.19364,0.193301,-13.1498,22,0.0154767,10,-0.00254186,-1.88108,-0.320996,-0.183803,94.1659,0.193301,
2,0,0,1,0,42570,0.182842,0.182552,-14.1329,22,0.015231,10,-0.00257999,-1.84977,-0.362147,-0.162917,89.8086,0.182552,
2,0,0,1,0,42570,0.172047,0.171707,-15.1118,22,0.0149678,10,-0.00259479,-1.82068,-0.379118,-0.155624,91.7227,0.171707,
2,0,0,1,0,42570,0.161241,0.160914,-16.1322,22,0.0146868,10,-0.0025959,-1.79231,-0.371171,-0.158956,100.081,0.160914,
2,0,0,1,0,42570,0.150443,0.150091,-17.3263,22,0.0143861,10,-0.00260052,-1.76129,-0.320788,-0.183922,124.456,0.150091,
2,0,0,1,0,42570,0.139645,0.13934,-18.8676,22,0.0140609,10,-0.002629,-1.72428,-0.258239,-0.228471,168.673,0.13934,
2,0,0,1,0,42570,0.128849,0.128553,-20.989,22,0.013703,10,-0.0026982,-1.67801,-0.210362,-0.280469,230.43,0.1285533,
2,0,0,1,0,42570.1,0.118043,0.117737,-23.7978,22,0.0133004,10,-0.00280189,-1.62346,-0.194232,-0.303761,282.262,0.117737,
2,0,0,1,0,42570.1,0.107245,0.106906,-26.9674,22,0.0128432,10,-0.00288298,-1.56916,-0.208166,-0.283427,298.216,0.106906,
2,0,0,1,0,42570.1,0.0964468,0.0962226,-30.0837,22,0.0123288,10,-0.00289473,-1.52167,-0.246188,-0.239654,281.459,0.0962226,
2,0,0,1,0,42570.1,0.0856404,0.0853354,-33.0345,22,0.0117598,10,-0.00281901,-1.48103,-0.306968,-0.192202,247.32,0.0853354,
2,0,0,1,0,42570.1,0.0748451,0.0745606,-35.4762,22,0.0111421,10,-0.00264513,-1.45006,-0.406391,-0.14518,200.662,0.0745606,
2,0,0,1,0,42570.2,0.0640471,0.063754,-37.4016,22,0.0104853,10,-0.0023845,-1.42711,-0.562508,-0.104887,152.828,0.063754,
2,0,0,1,0,42570.2,0.0532407,0.0529103,-38.7805,22,0.00979886,10,-0.00205189,-1.41139,-0.877647,-0.0672252,101.573,0.0529103,
2,0,0,1,0,42570.2,0.0424426,0.042145,-39.6469,22,0.00909237,10,-0.00167092,-1.40179,-1.46262,-0.0403386,62.3474,0.04214501,
2,0,0,1,0,42570.2,0.0316473,0.0313066,-40.1358,22,0.00837377,10,-0.00125652,-1.39647,-2.8501,-0.020701,32.4085,0.0313066,
2,0,0,1,0,42570.2,0.0208437,0.0204852,-40.3447,22,0.00764909,10,-0.000826468,-1.39421,-11.3267,-0.00520895,8.19735,0.0204852,
2,0,0,1,0,42570.2,0.0100429,0.00970188,-40.3143,22,0.00692282,10,-0.000391124,-1.39454,7.16472,0.00823479,-12.9484,0.00970188,
2,0,0,1,0,42570.3,-0.000755208,-0.00109412,-40.1023,22,0.00619881,10,4.38767e-05,-1.39683,2.974,0.0198386,-31.0176,-0.00109412,
2,0,0,1,0,42570.3,-0.0115505,-0.0119177,-39.5977,22,0.0054812,10,0.000471913,-1.40233,1.58911,0.0371276,-57.3511,-0.0119177,
2,0,0,1,0,42570.3,-0.0223597,-0.0227763,-38.889,22,0.0047746,10,0.000885745,-1.41017,1.20246,0.0490662,-74.435,-0.0227763,
2,0,0,1,0,42570.3,-0.033155,-0.0335203,-38.045,22,0.00408215,10,0.00127528,-1.4197,1.13044,0.0521921,-77.5045,-0.0335203,
2,0,0,1,0,42570.3,-0.043953,-0.0443259,-37.2174,22,0.00340499,10,0.00164969,-1.42925,1.14859,0.0513673,-74.6281,-0.0443259,
2,0,0,1,0,42570.4,-0.0547594,-0.0551166,-36.4944,22,0.00274205,10,0.00201145,-1.43777,1.3995,0.0421578,-60.0438,-0.0551166,
2,0,0,1,0,42570.4,-0.0655575,-0.0659242,-35.9385,22,0.00209059,10,0.00236922,-1.44444,2.09583,0.0281512,-39.5045,-0.06592422,
2,0,0,1,0,42570.4,-0.0763528,-0.0767605,-35.6006,22,0.00144709,10,0.00273272,-1.44854,3.66865,0.0160822,-22.3569,-0.0767605,
2,0,0,1,0,42570.4,-0.0871592,-0.087529,-35.4748,22,0.000807867,10,0.00310507,-1.45008,27.0385,0.00218207,-3.02202,-0.087529,
2,0,0,1,0,42570.4,-0.0979573,-0.0983377,-35.5187,22,0.000169229,10,0.00349282,-1.44954,-27.5929,-0.00213823,2.96055,-0.0983377,
2,0,0,1,1,42570.4,-0.0955546,-0.0959709,-27.513,22,-0.000187612,10,0.00264045,-1.56046,-0.043579,-1.35386,1478.42,-0.0959709,
2,0,0,1,1,42570.5,-0.0847538,-0.0852003,-15.9742,22,-0.000569861,10,0.00136101,-1.79658,-0.041999,-1.4048,872.764,-0.0852003,
2,0,0,1,1,42570.5,-0.0739557,-0.0743449,-7.88771,22,-0.00078046,10,0.000586411,-2.10305,-0.0267833,-2.20286,655.101,-0.0743449,
2,0,0,1,1,42570.5,-0.0631604,-0.0635924,-1.60389,22,-0.000863005,10,0.000101995,-2.79482,-0.0132504,-4.45271,523.093,-0.0635924,
2,1,0,1,1,42570.5,-0.0523512,-0.0527858,3.50051,22,-0.000843789,10,-0.000184777,-2.45587,0.0159379,3.70187,425.565,-0.0527858,
2,1,0,1,1,42570.5,-0.0415559,-0.0420046,7.69104,22,-0.000741593,10,-0.000323059,-2.11401,0.0487079,1.2113,354.509,-0.0420046,
2,1,0,1,1,42570.5,-0.0307579,-0.0312139,11.2005,22,-0.00057027,10,-0.00034961,-1.95076,0.0871682,0.676852,292.665,-0.0312139,
2,1,0,1,1,42570.6,-0.0199515,-0.0203469,14.1228,22,-0.000341353,10,-0.000287355,-1.85008,0.131082,0.450101,246.365,-0.0203469,
2,1,0,1,1,42570.6,-0.0091534,-0.00954875,16.5371,22,-6.46387e-05,10,-0.000157909,-1.78154,0.185983,0.317233,203.838,-0.00954875,
2,1,0,0,1,42570.6,-7.54729e-05,-0.000458935,18.1674,22,0.000198232,10,-8.33767e-06,-1.74071, , , ,-0.000458935,