File: Figure_codes/Fig_3-5/rawdata_trumpetplot_data/after 10th/20221101_1-115_003_TrumpetPlot_ParaChange_from10_every3_14_CV_C01_34.csv
mode,ox/red,error,control changes,counter inc.,time/s,control/V,Ewe/V,<I>/mA,cycle number,(Q-Qo)/C,I Range,P/W,log(|I|),Tafel slope mV/dec,alpha_eff,dI/d(E-IR),E-IR/V,
2,1,0,1,0,68183.5,2.44065e-05,-0.0002108,30.8862,35,0.0000000E+000,10,-6.51079e-06,-1.51024, , , ,-0.0002108,
2,1,0,1,0,68183.6,0.0133084,0.0129319,34.6184,35,0.000433603,10,0.000447681,-1.46069,0.365814,0.161284,217.13,0.0129319,
2,1,0,1,0,68183.6,0.0273414,0.0269801,37.3406,35,0.00093828,10,0.00100746,-1.42782,0.48501,0.121647,176.775,0.0269801,
2,1,0,1,0,68183.6,0.0413245,0.0409584,39.6183,35,0.00147749,10,0.0016227,-1.4021,0.59355,0.0994018,153.45,0.0409584,
2,1,0,1,0,68183.6,0.0553076,0.0549643,41.6383,35,0.0020467,10,0.00228862,-1.38051,0.682091,0.0864987,140.522,0.05496427,
2,1,0,1,0,68183.6,0.0693407,0.0689882,43.5178,35,0.00264324,10,0.00300221,-1.36133,0.778504,0.0757864,128.585,0.0689882,
2,1,0,1,0,68183.6,0.0833238,0.0829717,45.2523,35,0.00326488,10,0.00375466,-1.34436,0.850539,0.0693678,122.458,0.0829717,
2,1,0,1,0,68183.6,0.0973069,0.096933,46.939,35,0.00391042,10,0.00454994,-1.32847,0.864595,0.06824,125.092,0.096933,
2,1,0,1,0,68183.7,0.11134,0.11093,48.6847,35,0.00458013,10,0.00540061,-1.31261,0.916941,0.0643444,122.233,0.11093,
2,1,0,1,0,68183.7,0.125323,0.124895,50.3339,35,0.00527367,10,0.00628645,-1.29814,0.918692,0.0642218,126.357,0.1248949,
2,1,0,1,0,68183.7,0.139306,0.138947,52.2666,35,0.00599201,10,0.0072623,-1.28178,0.85641,0.0688922,140.581,0.1389474,
2,1,0,1,0,68183.7,0.153339,0.152999,54.2761,35,0.006738,10,0.00830419,-1.26539,0.855502,0.0689653,146.156,0.152999,
2,1,0,1,0,68183.7,0.167322,0.166951,56.3548,35,0.00751274,10,0.00940847,-1.24907,0.890364,0.066265,145.662,0.166951,
2,1,0,1,0,68183.7,0.181305,0.181015,58.2968,35,0.00831578,10,0.0105526,-1.23435,1.03151,0.0571977,130.039,0.181015,
2,1,0,1,0,68183.7,0.195338,0.194972,59.9204,35,0.00914412,10,0.0116828,-1.22243,1.48072,0.0398456,93.0405,0.194972,
2,1,0,1,0,68183.7,0.209322,0.208966,60.9239,35,0.00999096,10,0.012731,-1.21521,3.11276,0.0189542,44.9748,0.208966,
2,1,0,1,0,68183.8,0.223305,0.222936,61.1825,35,0.0108466,10,0.0136398,-1.21337,-24.8293,-0.00237623,-5.66378,0.222936,
2,1,0,1,0,68183.8,0.237338,0.236995,60.726,35,0.0117009,10,0.0143917,-1.21663,-2.24728,-0.0262539,-62.1036,0.236995,
2,1,0,1,0,68183.8,0.251321,0.251003,59.4896,35,0.0125431,10,0.014932,-1.22556,-1.21284,-0.048646,-112.728,0.251003,
2,1,0,1,0,68183.8,0.265304,0.264996,57.5722,35,0.0133631,10,0.0152564,-1.23979,-0.843433,-0.0699522,-156.938,0.264996,
2,1,0,1,0,68183.8,0.279337,0.279039,55.1176,35,0.0141523,10,0.0153799,-1.25871,-0.656683,-0.0898455,-193.019,0.279039,
2,1,0,1,0,68183.8,0.29332,0.293015,52.2835,35,0.0149041,10,0.0153198,-1.28164,-0.583872,-0.10105,-206.704,0.293015,
2,1,0,1,0,68183.8,0.298714,0.298584,48.2481,35,0.015313,10,0.0144061,-1.31652,0.0614232,0.960549,1648.34,0.298584,
2,1,0,1,0,68183.9,0.28473,0.284497,31.5569,35,0.0158579,10,0.00897783,-1.50091,0.0785485,0.751128,930.083,0.284497,
2,1,0,1,0,68183.9,0.270747,0.270546,20.4521,35,0.0162173,10,0.00553324,-1.68926,0.0673799,0.875632,695.355,0.270546,
2,1,0,1,0,68183.9,0.256714,0.256431,11.8714,35,0.0164402,10,0.00304418,-1.9255,0.0489244,1.20594,546.094,0.256431,
2,1,0,1,0,68183.9,0.242731,0.242478,5.02755,35,0.0165562,10,0.00121907,-2.29864,0.0225696,2.61414,440.402,0.242478,
2,0,0,1,0,68183.9,0.228748,0.228464,-0.558397,35,0.0165857,10,-0.000127573,-3.25306,-0.130063,-0.453625,362.592,0.228464,
2,0,0,1,0,68183.9,0.214715,0.214414,-5.21298,35,0.0165437,10,-0.00111774,-2.28291,-0.0356501,-1.65498,303.267,0.214414,
2,0,0,1,0,68183.9,0.200732,0.200462,-9.13709,35,0.016442,10,-0.00183164,-2.03919,-0.0787878,-0.748847,259.966,0.200462,
2,0,0,1,0,68184,0.186735,0.186466,-12.5462,35,0.0162895,10,-0.00233945,-1.90149,-0.125183,-0.471309,227.883,0.186466,
2,0,0,1,0,68184,0.172716,0.172424,-15.5734,35,0.0160919,10,-0.00268524,-1.80762,-0.172588,-0.341856,206.501,0.172424,
2,0,0,1,0,68184,0.158733,0.158397,-18.3814,35,0.0158538,10,-0.00291156,-1.73562,-0.211168,-0.279398,200.03,0.158397,
2,0,0,1,0,68184,0.144719,0.144432,-21.2649,35,0.0155764,10,-0.00307133,-1.67234,-0.229708,-0.256848,213.028,0.144432,
2,0,0,1,0,68184,0.130717,0.130478,-24.4505,35,0.0152566,10,-0.00319026,-1.61171,-0.226193,-0.260839,249.504,0.130478,
2,0,0,1,0,68184,0.116733,0.116419,-28.3006,35,0.0148878,10,-0.00329473,-1.5482,-0.218145,-0.270462,299.087,0.116419,
2,0,0,1,0,68184,0.102703,0.102441,-32.7808,35,0.0144605,10,-0.00335809,-1.48438,-0.232389,-0.253885,323.749,0.102441,
2,0,0,1,0,68184.1,0.0887172,0.0884063,-37.2629,35,0.0139699,10,-0.00329427,-1.42872,-0.273484,-0.215734,312.668,0.0884063,
2,0,0,1,0,68184.1,0.0747342,0.0744736,-41.4139,35,0.0134181,10,-0.00308424,-1.38285,-0.342975,-0.172024,277.166,0.0744736,
2,0,0,1,0,68184.1,0.0607011,0.060454,-44.9925,35,0.0128122,10,-0.00271997,-1.34686,-0.4418,-0.133545,233.901,0.060454,
2,0,0,1,0,68184.1,0.046718,0.0464259,-47.9593,35,0.0121604,10,-0.00222655,-1.31913,-0.589646,-0.10006,186.773,0.0464259,
2,0,0,1,0,68184.1,0.0327349,0.032508,-50.2737,35,0.011472,10,-0.0016343,-1.29866,-0.770978,-0.0765262,149.919,0.032508,
2,0,0,1,0,68184.1,0.0187018,0.0184258,-52.2141,35,0.0107542,10,-0.000962089,-1.28221,-1.00604,-0.0586455,119.214,0.0184258,
2,0,0,1,0,68184.1,0.00471873,0.00440833,-53.5827,35,0.0100129,10,-0.00023621,-1.27098,-1.50408,-0.0392267,81.9233,0.00440833,
2,0,0,1,0,68184.1,-0.00926438,-0.00960176,-54.4922,35,0.0092556,10,0.000523221,-1.26367,-2.69814,-0.0218669,46.4384,-0.00960176,
2,0,0,1,0,68184.2,-0.0232974,-0.0236267,-54.9551,35,0.00848909,10,0.00129841,-1.25999,-7.34398,-0.00803379,17.202,-0.0236267,
2,0,0,1,0,68184.2,-0.0372805,-0.0376283,-54.9675,35,0.00771931,10,0.00206833,-1.25989,12.8294,0.00459881,-9.85615,-0.0376283,
2,0,0,1,0,68184.2,-0.0512637,-0.0516098,-54.7094,35,0.00695144,10,0.00282354,-1.26194,5.1386,0.0114817,-24.5023,-0.0516098,
2,0,0,1,0,68184.2,-0.0652967,-0.0656114,-54.3517,35,0.0061881,10,0.00356609,-1.26479,4.43874,0.0132921,-28.18,-0.0656114,
2,0,0,1,0,68184.2,-0.0792798,-0.079648,-53.9001,35,0.00543034,10,0.00429303,-1.26841,4.12977,0.0142865,-30.0616,-0.079648,
2,0,0,1,0,68184.2,-0.0932629,-0.0936157,-53.5162,35,0.00467852,10,0.00500995,-1.27151,5.07084,0.0116351,-24.3059,-0.0936157,
2,0,0,1,0,68184.2,-0.107296,-0.107665,-53.2711,35,0.00393133,10,0.00573543,-1.27351,9.14951,0.00644843,-13.4042,-0.107665,
2,0,0,1,0,68184.3,-0.121279,-0.121598,-53.0933,35,0.00318698,10,0.00645602,-1.27496,17.8517,0.003305,-6.8518,-0.121598,
2,0,0,1,0,68184.3,-0.135262,-0.135661,-53.0849,35,0.00244392,10,0.00720154,-1.27503,-30.6287,-0.0019263,3.99234,-0.135661,
2,0,0,1,0,68184.3,-0.149295,-0.149674,-53.2555,35,0.00169978,10,0.00797098,-1.27364,-7.64537,-0.00771709,16.0375,-0.1496741,
2,0,0,1,0,68184.3,-0.163278,-0.163611,-53.49,35,0.000952624,10,0.00875155,-1.27173,-5.91124,-0.00998098,20.8433,-0.163611,
2,0,0,1,0,68184.3,-0.177261,-0.177584,-53.8071,35,0.000201491,10,0.00955527,-1.26916,-5.52923,-0.0106706,22.4055,-0.177584,
2,0,0,1,0,68184.3,-0.191295,-0.191607,-54.1606,35,-0.000554206,10,0.0103775,-1.26632,-5.44097,-0.0108437,22.9017,-0.191607,
2,0,0,0,1,68184.3,-0.199984,-0.200532,-53.9557,35,-0.00105848,10,0.0108199,-1.26796,-0.0414476,-1.42348,2667.52,-0.200532,
2,0,0,1,1,68184.4,-0.186686,-0.187096,-36.0464,35,-0.00162551,10,0.00674413,-1.44314,-0.0885159,-0.666547,951.117,-0.187096,
2,0,0,1,1,68184.4,-0.172667,-0.173043,-25.2654,35,-0.00204927,10,0.00437202,-1.59747,-0.0877537,-0.672336,663.08,-0.173043,
2,0,0,1,1,68184.4,-0.158684,-0.159132,-16.9765,35,-0.00234216,10,0.0027015,-1.77015,-0.0718866,-0.820737,539.25,-0.159132,
2,0,0,1,1,68184.4,-0.14467,-0.145067,-10.0263,35,-0.00252951,10,0.00145449,-1.99886,-0.0482654,-1.22241,463.138,-0.145067,
2,0,0,1,1,68184.4,-0.130668,-0.131069,-3.97265,35,-0.00262594,10,0.000520692,-2.40092,-0.016533,-3.56861,410.358,-0.131069,
2,1,0,1,1,68184.4,-0.116685,-0.11711,1.47083,35,-0.00264235,10,-0.000172249,-2.83244,0.0360334,1.63737,373.538,-0.11711,
2,1,0,1,1,68184.4,-0.102654,-0.103129,6.48431,35,-0.00258601,10,-0.000668718,-2.18814,0.0400335,1.47377,344.33,-0.1031286,
2,1,0,1,1,68184.5,-0.0886685,-0.0891111,11.0913,35,-0.00246218,10,-0.000988358,-1.95502,0.0782328,0.754159,319.088,-0.0891111,
2,1,0,1,1,68184.5,-0.0746854,-0.075101,15.4018,35,-0.00227594,10,-0.00115669,-1.81243,0.118121,0.499487,296.741,-0.075101,
2,1,0,1,1,68184.5,-0.0606523,-0.0610177,19.4567,35,-0.00203151,10,-0.00118721,-1.71093,0.161461,0.365413,274.926,-0.0610177,
2,1,0,1,1,68184.5,-0.0466692,-0.0470384,23.1248,35,-0.0017329,10,-0.00108776,-1.63592,0.208544,0.282914,254.199,-0.0470384,
2,1,0,1,1,68184.5,-0.0326861,-0.0331152,26.5449,35,-0.00138455,10,-0.00087904,-1.57602,0.260137,0.226804,234.171,-0.0331152,
2,1,0,1,1,68184.5,-0.018653,-0.0190945,29.7281,35,-0.000990196,10,-0.000567644,-1.52683,0.316196,0.186593,215.671,-0.0190945,
2,1,0,1,1,68184.5,-0.00466992,-0.00507489,32.5768,35,-0.00055352,10,-0.000165323,-1.48709, , , ,-0.00507489,
2,1,0,0,1,68184.5,-0.000175352,-0.000554371,33.4271,35,-0.000404965,10,-1.8531e-05,-1.4759, , , ,-0.000554371,