File: Figure_codes/Fig_3-5/rawdata_trumpetplot_data/after 10th/20221101_1-115_003_TrumpetPlot_ParaChange_from10_every3_08_CV_C01_3.csv
mode,ox/red,error,control changes,counter inc.,time/s,control/V,Ewe/V,<I>/mA,cycle number,(Q-Qo)/C,I Range,P/W,log(|I|),Tafel slope mV/dec,alpha_eff,dI/d(E-IR),E-IR/V,
2,0,0,0,0,7085.41,2.44065e-05,-0.000401673,-3.96965,4,0.0000000E+000,10,1.5945e-06,-2.40125, , , ,-0.000401673,
2,1,0,1,0,7085.5,0.0072942,0.00698307,1.93619,4,4.80967e-06,10,1.35205e-05,-2.71305,0.0154577,3.81686,264.713,0.00698307,
2,1,0,1,0,7085.59,0.0147816,0.0145025,2.97506,4,0.000245789,10,4.31457e-05,-2.5265,0.0875696,0.67375,77.8306,0.0145025,
2,1,0,1,0,7085.69,0.0222707,0.0219697,3.44562,4,0.000549048,10,7.56992e-05,-2.46273,0.149339,0.395075,53.0063,0.0219697,
2,1,0,1,0,7085.78,0.0297581,0.0294656,3.80414,4,0.000889497,10,0.000112091,-2.41974,0.189629,0.311134,46.176,0.0294656,
2,1,0,1,0,7085.88,0.0372544,0.0369654,4.16318,4,0.00126375,10,0.000153893,-2.38058,0.21735,0.271452,44.0464,0.03696537,
2,1,0,1,0,7085.97,0.0447507,0.0444559,4.51092,4,0.00167134,10,0.000200537,-2.34574,0.2141,0.275572,48.574,0.0444559,
2,1,0,1,0,7086.06,0.0522381,0.051947,4.86066,4,0.00211156,10,0.000252496,-2.31331,0.225424,0.261729,49.6998,0.051947,
2,1,0,1,0,7086.16,0.0597273,0.0593825,5.20702,4,0.00258441,10,0.000309206,-2.28341,0.277285,0.212777,43.2244,0.0593825,
2,1,0,1,0,7086.25,0.0672147,0.0669254,5.54117,4,0.00308828,10,0.000370845,-2.2564,0.276662,0.213256,46.0286,0.0669254,
2,1,0,1,0,7086.34,0.0747038,0.0744114,5.82861,4,0.00362166,10,0.000433715,-2.23443,0.348818,0.169143,38.491,0.0744114,
2,1,0,1,0,7086.44,0.0822055,0.0818957,6.1072,4,0.00418326,10,0.000500154,-2.21416,0.456292,0.129303,30.8386,0.0818957,
2,1,0,1,0,7086.53,0.0896946,0.0893561,6.38297,4,0.00476875,10,0.000570358,-2.19498,0.366593,0.160941,40.1337,0.0893561,
2,1,0,1,0,7086.62,0.097182,0.0968789,6.70352,4,0.00538198,10,0.000649429,-2.1737,0.301689,0.195565,51.2238,0.0968789,
2,1,0,1,0,7086.72,0.104671,0.104368,7.17516,4,0.00603122,10,0.000748857,-2.14417,0.234001,0.252136,70.5594,0.104368,
2,1,0,1,0,7086.81,0.112159,0.111838,7.75307,4,0.00672996,10,0.000867085,-2.11053,0.217844,0.270836,81.868,0.111838,
2,1,0,1,0,7086.91,0.119655,0.119338,8.34227,4,0.00748556,10,0.00099555,-2.07872,0.265254,0.222428,72.3893,0.119338,
2,1,0,1,0,7087,0.127149,0.126844,8.81823,4,0.00829211,10,0.00111854,-2.05462,0.389445,0.151498,52.1458,0.126844,
2,1,0,1,0,7087.09,0.134639,0.134306,9.21291,4,0.00913786,10,0.00123735,-2.0356,0.447125,0.131954,47.4458,0.134306,
2,1,0,1,0,7087.19,0.142126,0.141764,9.48517,4,0.0100157,10,0.00134466,-2.02295,0.831505,0.0709557,26.2453,0.141764,
2,1,0,1,0,7087.28,0.149615,0.149329,9.36182,4,0.0109046,10,0.00139799,-2.02864,-0.289253,-0.203974,-74.209,0.1493288,
2,1,0,1,0,7087.37,0.157103,0.156822,8.32744,4,0.0117406,10,0.00130593,-2.07949,-0.0973313,-0.606177,-196,0.156822,
2,1,0,1,0,7087.47,0.164606,0.164321,6.68889,4,0.0124458,10,0.00109912,-2.17465,-0.075845,-0.777902,-203.476,0.164321,
2,1,0,1,0,7087.56,0.172095,0.171797,5.44846,4,0.0130101,10,0.000936026,-2.26373,-0.0983631,-0.599819,-127.985,0.1717966,
2,1,0,1,0,7087.65,0.179582,0.179326,4.73616,4,0.0134847,10,0.000849318,-2.32457,-0.140877,-0.418804,-77.5055,0.179326,
2,1,0,1,0,7087.75,0.18707,0.186763,4.28478,4,0.0139061,10,0.000800238,-2.36807,-0.220729,-0.267296,-44.769,0.186763,
2,1,0,1,0,7087.84,0.194559,0.194233,3.98846,4,0.0142934,10,0.000774692,-2.3992,-0.279143,-0.211361,-32.8733,0.194233,
2,1,0,1,0,7087.94,0.202062,0.201747,3.77685,4,0.0146578,10,0.000761968,-2.42287,-0.33836,-0.17437,-25.6515,0.201747,
2,1,0,1,0,7088.03,0.20955,0.209263,3.6265,4,0.0150047,10,0.000758893,-2.44051,-0.480207,-0.122864,-17.3887,0.209263,
2,1,0,1,0,7088.12,0.217039,0.216731,3.49766,4,0.0153391,10,0.00075805,-2.45622,-0.579531,-0.101806,-13.9311,0.216731,
2,1,0,1,0,7088.22,0.224526,0.224267,3.42685,4,0.0156644,10,0.000768528,-2.4651,-0.673319,-0.0876257,-11.7146,0.2242666,
2,1,0,1,0,7088.31,0.232016,0.231738,3.36072,4,0.0159825,10,0.000778804,-2.47357,-1.55748,-0.0378818,-4.95938,0.231738,
2,1,0,1,0,7088.4,0.23951,0.23919,3.2963,4,0.0162955,10,0.000788442,-2.48197,-1.91341,-0.0308351,-3.96949,0.23919,
2,1,0,1,0,7088.5,0.247006,0.246713,3.2586,4,0.0166038,10,0.00080394,-2.48697,-0.849961,-0.069415,-8.81689,0.246713,
2,1,0,1,0,7088.59,0.254494,0.254215,3.22085,4,0.0169079,10,0.000818786,-2.49203,-1.8218,-0.0323855,-4.06527,0.254215,
2,1,0,1,0,7088.68,0.261983,0.261734,3.17664,4,0.0172085,10,0.000831434,-2.49803,-2.05412,-0.0287228,-3.5679,0.261734,
2,1,0,1,0,7088.78,0.26947,0.269169,3.14859,4,0.0175057,10,0.000847503,-2.50188,-1.5389,-0.038339,-4.71357,0.269169,
2,1,0,1,0,7088.87,0.276959,0.276686,3.12047,4,0.0178,10,0.00086339,-2.50578,-3.54695,-0.016634,-2.02313,0.276686,
2,1,0,1,0,7088.97,0.284461,0.284151,3.08057,4,0.0180918,10,0.000875347,-2.51137,-2.36798,-0.0249158,-2.99606,0.284151,
2,1,0,1,0,7089.06,0.29195,0.291649,3.04709,4,0.0183798,10,0.000888679,-2.51611,-0.938424,-0.0628713,-7.47379,0.2916486,
2,1,0,1,0,7089.15,0.299438,0.299177,3.02111,4,0.0186648,10,0.000903849,-2.51983,-0.0220235,-2.67896,-280.254,0.2991772,
2,0,0,1,0,7089.23,0.29424,0.293975,-0.870594,4,0.0186967,10,-0.000255933,-3.06018,-0.012464,-4.73361,137.281,0.293975,
2,0,0,1,0,7089.33,0.286753,0.286433,-1.34365,4,0.0185879,10,-0.000384865,-2.87171,-0.0833566,-0.707802,36.99,0.286433,
2,0,0,1,0,7089.42,0.279264,0.27895,-1.56657,4,0.0184499,10,-0.000436994,-2.80505,-0.136626,-0.431837,26.4533,0.27895,
2,0,0,1,0,7089.51,0.271776,0.271459,-1.73196,4,0.0182937,10,-0.000470156,-2.76146,-0.180913,-0.326123,22.12,0.271459,
2,0,0,1,0,7089.61,0.26428,0.263989,-1.87428,4,0.0181235,10,-0.000494789,-2.72717,-0.278471,-0.211872,15.4529,0.263989,
2,0,0,1,0,7089.7,0.256786,0.256477,-1.98419,4,0.0179419,10,-0.0005089,-2.70242,-0.300692,-0.196214,15.1922,0.256477,
2,0,0,1,0,7089.79,0.249296,0.248983,-2.07774,4,0.0177505,10,-0.000517321,-2.68241,-0.453553,-0.130084,10.5894,0.248983,
2,0,0,1,0,7089.89,0.241809,0.241468,-2.17367,4,0.0175501,10,-0.000524873,-2.66281,-0.484028,-0.121894,10.3534,0.241468,
2,0,0,1,0,7089.98,0.23432,0.234046,-2.2677,4,0.0173414,10,-0.000530747,-2.64441,-0.375432,-0.157152,13.8966,0.234046,
2,0,0,1,0,7090.07,0.226833,0.226565,-2.34324,4,0.0171246,10,-0.000530894,-2.63018,-0.452234,-0.130463,11.9392,0.2265646,
2,0,0,1,0,7090.17,0.219329,0.219021,-2.44468,4,0.0168995,10,-0.000535438,-2.61178,-0.491449,-0.120053,11.4009,0.219021,
2,0,0,1,0,7090.26,0.21184,0.21154,-2.52681,4,0.0166667,10,-0.000534521,-2.59743,-0.429451,-0.137385,13.4869,0.2115398,
2,0,0,1,0,7090.36,0.204353,0.204064,-2.6106,4,0.0164256,10,-0.00053273,-2.58326,-0.686121,-0.0859906,8.77612,0.204064,
2,0,0,1,0,7090.45,0.196863,0.196558,-2.71058,4,0.0161757,10,-0.000532786,-2.56694,-0.52238,-0.112944,11.9508,0.196558,
2,0,0,1,0,7090.54,0.189376,0.18903,-2.83154,4,0.0159158,10,-0.000535246,-2.54798,-0.406896,-0.145,16.0186,0.18903,
2,0,0,1,0,7090.64,0.18188,0.181589,-2.95888,4,0.0156439,10,-0.000537302,-2.52887,-0.304129,-0.193997,22.4305,0.181589,
2,0,0,1,0,7090.73,0.174385,0.174091,-3.14917,4,0.0153572,10,-0.000548242,-2.5018,-0.283766,-0.207918,25.5386,0.174091,
2,0,0,1,0,7090.82,0.166896,0.166564,-3.40089,4,0.0150511,10,-0.000566465,-2.46841,-0.202556,-0.291277,38.5374,0.166564,
2,0,0,1,0,7090.92,0.159409,0.159081,-3.74667,4,0.0147173,10,-0.000596024,-2.42635,-0.146213,-0.403522,59.029,0.159081,
2,0,0,1,0,7091.01,0.151919,0.151621,-4.29241,4,0.0143419,10,-0.00065082,-2.3673,-0.111394,-0.529651,88.9845,0.151621,
2,0,0,1,0,7091.1,0.144425,0.144093,-5.14148,4,0.0139017,10,-0.000740851,-2.28891,-0.0857627,-0.687944,138.27,0.144093,
2,0,0,1,0,7091.2,0.136929,0.136633,-6.30937,4,0.0133662,10,-0.000862065,-2.20001,-0.0827214,-0.713237,175.581,0.136633,
2,0,0,1,0,7091.29,0.129441,0.129115,-7.60483,4,0.012714,10,-0.000981895,-2.11891,-0.104952,-0.562162,166.512,0.129115,
2,0,0,1,0,7091.39,0.121952,0.121681,-8.70094,4,0.0119476,10,-0.00105874,-2.06043,-0.163609,-0.360615,122.082,0.121681,
2,0,0,1,0,7091.48,0.114465,0.114157,-9.41678,4,0.0110962,10,-0.001075,-2.0261,-0.305668,-0.19302,70.8293,0.114157,
2,0,0,1,0,7091.57,0.106976,0.106659,-9.71984,4,0.0101963,10,-0.00103671,-2.01234,-1.9259,-0.030635,11.6151,0.106659,
2,0,0,1,0,7091.67,0.0994721,0.0991786,-9.66102,4,0.00928321,10,-0.000958166,-2.01498,0.711527,0.0829202,-31.2235,0.0991786,
2,0,0,1,0,7091.76,0.0919847,0.0916841,-9.25306,4,0.00839469,10,-0.000848358,-2.03371,0.312168,0.189001,-68.2272,0.0916841,
2,0,0,1,0,7091.85,0.0844973,0.0841599,-8.67222,4,0.0075542,10,-0.000729853,-2.06187,0.257795,0.228864,-77.5055,0.0841599,
2,0,0,1,0,7091.95,0.0770082,0.0766869,-8.16969,4,0.0067666,10,-0.000626508,-2.08779,0.308458,0.191274,-60.9611,0.0766869,
2,0,0,1,0,7092.04,0.0695208,0.0692507,-7.80289,4,0.00601934,10,-0.000540355,-2.10774,0.494356,0.119347,-36.39,0.0692507,
2,0,0,1,0,7092.13,0.0620245,0.0616943,-7.54564,4,0.00529925,10,-0.000465523,-2.1223,0.492691,0.119751,-35.31,0.0616943,
2,0,0,1,0,7092.23,0.0545282,0.0541901,-7.32102,4,0.00460191,10,-0.000396727,-2.13543,0.583975,0.101032,-28.8429,0.0541901,
2,0,0,1,0,7092.32,0.0470408,0.0467345,-7.07586,4,0.00392716,10,-0.000330686,-2.15022,0.542038,0.108849,-30.055,0.0467345,
2,0,0,1,0,7092.42,0.0395517,0.0392379,-6.81898,4,0.00327593,10,-0.000267563,-2.16628,0.416863,0.141533,-37.6251,0.0392379,
2,0,0,1,0,7092.51,0.0320643,0.0317536,-6.50941,4,0.00265137,10,-0.000206697,-2.18646,0.316169,0.186609,-47.3447,0.0317536,
2,0,0,1,0,7092.6,0.0245751,0.0242383,-6.1575,4,0.0020578,10,-0.000149248,-2.2106,0.308968,0.190958,-45.9421,0.02423835,
2,0,0,1,0,7092.7,0.0170735,0.0167459,-5.82726,4,0.00149478,10,-9.75828e-05,-2.23454,0.335775,0.175713,-40.0509,0.0167459,
2,0,0,1,0,7092.79,0.00958429,0.00925787,-5.58679,4,0.00095997,10,-5.17218e-05,-2.25284,0.464013,0.127152,-27.7129,0.00925787,
2,0,0,1,0,7092.88,0.0020969,0.00178757,-5.47819,4,0.000444684,10,-9.79266e-06,-2.26136,2.22507,0.026516,-5.62612,0.00178757,
2,0,0,1,0,7092.91,0.000199195,-0.000206982,-5.42553,4,0.000315291,10,1.12299e-06,-2.26556, , , ,-0.000206982,