File: Figure_codes/Fig_3-5/rawdata_trumpetplot_data/after 10th/20221101_1-115_003_TrumpetPlot_ParaChange_from10_every3_06_CV_C01_2.csv
mode,ox/red,error,control changes,counter inc.,time/s,control/V,Ewe/V,<I>/mA,cycle number,(Q-Qo)/C,I Range,P/W,log(|I|),Tafel slope mV/dec,alpha_eff,dI/d(E-IR),E-IR/V,
2,0,0,0,0,5090.28,2.44065e-05,-0.000287149,-1.40199,3,0.0000000E+000,10,4.02579e-07,-2.85326, , , ,-0.0002871489,
2,1,0,1,0,5090.46,0.00729063,0.00700148,1.4202,3,0.000143405,10,9.94351e-06,-2.84765,0.0522894,1.12834,61.3893,0.00700148,
2,1,0,1,0,5090.65,0.014778,0.0144731,1.69568,3,0.000441405,10,2.45418e-05,-2.77066,0.142294,0.414635,27.3197,0.0144731,
2,1,0,1,0,5090.84,0.0222743,0.0219837,1.86947,3,0.000779254,10,4.10978e-05,-2.72828,0.183487,0.321548,23.5172,0.0219837,
2,1,0,1,0,5091.02,0.0297626,0.0294574,2.047,3,0.00114891,10,6.02992e-05,-2.68888,0.214694,0.27481,21.8954,0.02945737,
2,1,0,1,0,5091.21,0.0372544,0.0369602,2.2274,3,0.00155148,10,8.23253e-05,-2.6522,0.205132,0.28762,24.9357,0.03696024,
2,1,0,1,0,5091.4,0.0447472,0.0444537,2.41164,3,0.00198904,10,0.000107206,-2.61769,0.214641,0.274878,25.9376,0.0444537,
2,1,0,1,0,5091.58,0.0522345,0.0519248,2.60179,3,0.00246209,10,0.000135097,-2.58473,0.214187,0.27546,27.9951,0.0519248,
2,1,0,1,0,5091.77,0.0597309,0.0594026,2.79401,3,0.00297137,10,0.000165972,-2.55377,0.255934,0.230528,25.1066,0.0594026,
2,1,0,1,0,5091.96,0.0672182,0.0669312,2.96924,3,0.00351396,10,0.000198735,-2.52736,0.297078,0.198601,23.001,0.0669312,
2,1,0,1,0,5092.15,0.0747074,0.074395,3.13493,3,0.00408792,10,0.000233223,-2.50377,0.37704,0.156482,19.0778,0.074395,
2,1,0,1,0,5092.33,0.0822019,0.0819127,3.27881,3,0.00469172,10,0.000268576,-2.48428,0.409057,0.144234,18.4494,0.0819127,
2,1,0,1,0,5092.52,0.0896911,0.0893835,3.42793,3,0.00532291,10,0.000306401,-2.46497,0.365811,0.161286,21.6364,0.0893835,
2,1,0,1,0,5092.71,0.097182,0.0968501,3.63177,3,0.00598646,10,0.000351737,-2.43988,0.249767,0.23622,33.4666,0.0968501,
2,1,0,1,0,5092.9,0.104675,0.104378,3.91783,3,0.00669536,10,0.000408936,-2.40695,0.197644,0.298516,45.7077,0.104378,
2,1,0,1,0,5093.08,0.112162,0.111871,4.26386,3,0.00746454,10,0.000477001,-2.3702,0.21267,0.277425,46.1421,0.111871,
2,1,0,1,0,5093.27,0.119655,0.119367,4.59001,3,0.00829809,10,0.000547896,-2.33819,0.293064,0.201321,36.0134,0.119367,
2,1,0,1,0,5093.46,0.127146,0.126861,4.82491,3,0.0091848,10,0.000612093,-2.31651,0.374038,0.157738,29.7854,0.126861,
2,1,0,1,0,5093.64,0.134635,0.134319,5.04634,3,0.0101136,10,0.000677819,-2.29702,0.477647,0.123522,24.3204,0.134319,
2,1,0,1,0,5093.83,0.14213,0.14181,5.12749,3,0.0110745,10,0.00072713,-2.29009,-1.39774,-0.042211,-8.42167,0.14181,
2,1,0,1,0,5094.02,0.149619,0.149331,4.7819,3,0.0120147,10,0.000714088,-2.3204,-0.127366,-0.463232,-86.1322,0.149331,
2,1,0,1,0,5094.21,0.157106,0.156816,3.94399,3,0.0128385,10,0.000618479,-2.40406,-0.0735082,-0.802631,-123.243,0.156816,
2,1,0,1,0,5094.39,0.164602,0.164307,3.14965,3,0.0135009,10,0.00051751,-2.50174,-0.0857544,-0.688011,-84.8045,0.164307,
2,1,0,1,0,5094.58,0.172091,0.171772,2.65071,3,0.0140439,10,0.000455316,-2.57664,-0.116337,-0.507146,-52.7872,0.171772,
2,1,0,1,0,5094.77,0.179582,0.179251,2.35828,3,0.0145147,10,0.000422725,-2.6274,-0.164597,-0.35845,-33.0111,0.179251,
2,1,0,1,0,5094.96,0.187074,0.186751,2.15805,3,0.01494,10,0.000403017,-2.66594,-0.250254,-0.23576,-19.9087,0.186751,
2,1,0,1,0,5095.14,0.194563,0.194261,2.03779,3,0.0153355,10,0.000395861,-2.69084,-0.383807,-0.153723,-12.2413,0.194261,
2,1,0,1,0,5095.33,0.202059,0.201755,1.96187,3,0.0157124,10,0.000395816,-2.70733,-0.465618,-0.126713,-9.64411,0.201755,
2,1,0,1,0,5095.52,0.209546,0.209251,1.89609,3,0.0160763,10,0.00039676,-2.72214,-0.606009,-0.0973584,-7.23754,0.209251,
2,1,0,1,0,5095.7,0.217035,0.21673,1.85528,3,0.0164306,10,0.000402095,-2.73159,-1.02701,-0.0574486,-4.16391,0.21673,
2,1,0,1,0,5095.89,0.22453,0.224244,1.82019,3,0.0167783,10,0.000408168,-2.73988,-1.10504,-0.0533915,-3.79227,0.224244,
2,1,0,1,0,5096.08,0.232019,0.231767,1.79111,3,0.0171199,10,0.000415121,-2.74688,-1.15689,-0.0509988,-3.57761,0.231767,
2,1,0,1,0,5096.27,0.23951,0.23927,1.77611,3,0.017457,10,0.000424969,-2.75053,-1.4807,-0.0398461,-2.75038,0.23927,
2,1,0,1,0,5096.45,0.247003,0.246661,1.74935,3,0.01779,10,0.000431495,-2.75712,-1.2426,-0.047481,-3.24172,0.246661,
2,1,0,1,0,5096.64,0.25449,0.254206,1.72867,3,0.018119,10,0.000439438,-2.76229,-1.25574,-0.0469841,-3.17668,0.254206,
2,1,0,1,0,5096.83,0.261983,0.261715,1.71499,3,0.0184447,10,0.000448839,-2.76574,-1.3985,-0.0421881,-2.81783,0.261715,
2,1,0,1,0,5097.02,0.269474,0.269186,1.69072,3,0.018767,10,0.000455118,-2.77193,-3.21873,-0.0183302,-1.21502,0.269186,
2,1,0,1,0,5097.2,0.276963,0.276666,1.67859,3,0.0190857,10,0.000464408,-2.77506,-1.46518,-0.0402681,-2.63265,0.276666,
2,1,0,1,0,5097.39,0.284458,0.284162,1.66233,3,0.0194014,10,0.000472373,-2.77928,-1.43939,-0.0409895,-2.64786,0.284162,
2,1,0,1,0,5097.58,0.291947,0.291673,1.63847,3,0.0197134,10,0.000477897,-2.78556,-1.61873,-0.0364484,-2.33885,0.291673,
2,1,0,1,0,5097.76,0.299434,0.299148,1.62026,3,0.0200219,10,0.000484697,-2.79042,-0.0106874,-5.52051,-276.391,0.299148,
2,0,0,1,0,5097.92,0.294196,0.293904,-0.451874,3,0.0200305,10,-0.000132808,-3.34498,-0.0232167,-2.54128,42.9547,0.293904,
2,0,0,1,0,5098.11,0.286701,0.286391,-0.649154,3,0.019921,10,-0.000185912,-3.18765,-0.0782864,-0.753644,19.101,0.286391,
2,0,0,1,0,5098.3,0.279212,0.278897,-0.771079,3,0.0197836,10,-0.000215051,-3.1129,-0.133837,-0.440836,13.1498,0.2788969,
2,0,0,1,0,5098.49,0.271725,0.271485,-0.856914,3,0.0196273,10,-0.00023264,-3.06706,-0.17031,-0.346427,11.6371,0.271485,
2,0,0,1,0,5098.67,0.264228,0.263942,-0.931207,3,0.019456,10,-0.000245784,-3.03095,-0.262019,-0.225174,8.16567,0.263942,
2,0,0,1,0,5098.86,0.256741,0.256472,-0.995123,3,0.0192723,10,-0.000255221,-3.00212,-0.310879,-0.189785,7.30497,0.256472,
2,0,0,1,0,5099.05,0.249248,0.248927,-1.04554,3,0.0190775,10,-0.000260262,-2.98066,-0.345534,-0.17075,7.00944,0.248927,
2,0,0,1,0,5099.23,0.241756,0.241454,-1.09657,3,0.0188725,10,-0.000264772,-2.95996,-0.380949,-0.154876,6.65383,0.241454,
2,0,0,1,0,5099.42,0.234268,0.233964,-1.14964,3,0.0186582,10,-0.000268974,-2.93944,-0.347205,-0.169929,7.6477,0.233964,
2,0,0,1,0,5099.61,0.226772,0.22648,-1.19552,3,0.0184343,10,-0.000270761,-2.92244,-0.331172,-0.178155,8.35762,0.22648,
2,0,0,1,0,5099.8,0.219284,0.218992,-1.25125,3,0.0182016,10,-0.000274013,-2.90266,-0.484538,-0.121765,5.92304,0.218992,
2,0,0,1,0,5099.98,0.211796,0.211519,-1.30162,3,0.0179596,10,-0.000275318,-2.88551,-0.493594,-0.119531,6.04613,0.211519,
2,0,0,1,0,5100.17,0.204301,0.204019,-1.35124,3,0.0177073,10,-0.00027568,-2.86927,-0.536607,-0.10995,5.82499,0.204019,
2,0,0,1,0,5100.36,0.196812,0.196515,-1.41521,3,0.0174452,10,-0.00027811,-2.84918,-0.404293,-0.145934,8.03263,0.196515,
2,0,0,1,0,5100.55,0.189321,0.188986,-1.4822,3,0.0171706,10,-0.000280116,-2.82909,-0.337947,-0.174584,10.1195,0.188986,
2,0,0,1,0,5100.73,0.181828,0.181526,-1.57383,3,0.0168814,10,-0.000285692,-2.80304,-0.256152,-0.230332,14.1283,0.181526,
2,0,0,1,0,5100.92,0.174341,0.174039,-1.68843,3,0.0165736,10,-0.000293852,-2.77252,-0.208273,-0.283283,18.6463,0.174039,
2,0,0,1,0,5101.11,0.166848,0.166531,-1.85402,3,0.0162398,10,-0.000308751,-2.73189,-0.167733,-0.351749,25.4017,0.166531,
2,0,0,1,0,5101.29,0.159357,0.159099,-2.09717,3,0.0158683,10,-0.000333657,-2.67837,-0.120208,-0.490817,40.2553,0.1590991,
2,0,0,1,0,5101.48,0.151868,0.151564,-2.48873,3,0.0154382,10,-0.000377202,-2.60402,-0.0882914,-0.668242,65.1132,0.151564,
2,0,0,1,0,5101.67,0.144373,0.144035,-3.09454,3,0.0149144,10,-0.000445724,-2.5094,-0.0732773,-0.80516,97.6372,0.144035,
2,0,0,1,0,5101.86,0.136884,0.136567,-3.88165,3,0.0142582,10,-0.000530105,-2.41098,-0.0830305,-0.710583,107.38,0.136567,
2,0,0,1,0,5102.04,0.129393,0.129074,-4.60085,3,0.0134576,10,-0.000593852,-2.33716,-0.12726,-0.463617,83.0144,0.129074,
2,0,0,1,0,5102.23,0.1219,0.121581,-5.06383,3,0.012544,10,-0.000615665,-2.29552,-0.2916,-0.202332,39.9026,0.121581,
2,0,0,1,0,5102.42,0.114413,0.114096,-5.23302,3,0.0115724,10,-0.000597066,-2.28125,-2.33283,-0.0252912,5.15233,0.1140958,
2,0,0,1,0,5102.61,0.10692,0.106616,-5.15429,3,0.010593,10,-0.000549531,-2.28783,0.487243,0.121089,-24.3337,0.106616,
2,0,0,1,0,5102.79,0.0994284,0.0991109,-4.90487,3,0.00964494,10,-0.000486126,-2.30937,0.277844,0.212349,-40.6649,0.0991109,
2,0,0,1,0,5102.98,0.0919401,0.0916205,-4.58774,3,0.00875317,10,-0.000420331,-2.3384,0.251511,0.234582,-41.9359,0.0916205,
2,0,0,1,0,5103.17,0.0844447,0.0841086,-4.29932,3,0.00791883,10,-0.00036161,-2.3666,0.31237,0.188879,-31.7139,0.0841086,
2,0,0,1,0,5103.35,0.0769565,0.0766439,-4.10027,3,0.00713041,10,-0.000314261,-2.38719,0.390657,0.151028,-24.1818,0.0766439,
2,0,0,1,0,5103.54,0.0694682,0.0691704,-3.9521,3,0.00637391,10,-0.000273368,-2.40317,0.468965,0.125809,-19.3964,0.0691704,
2,0,0,1,0,5103.73,0.0619728,0.0616152,-3.81349,3,0.00564244,10,-0.000234969,-2.41868,0.480042,0.122906,-18.3263,0.0616152,
2,0,0,1,0,5103.92,0.0544836,0.0541076,-3.68054,3,0.00493684,10,-0.000199145,-2.43409,0.536968,0.109876,-15.7867,0.0541076,
2,0,0,1,0,5104.1,0.0469927,0.046679,-3.53951,3,0.00425714,10,-0.000165221,-2.45106,0.389182,0.1516,-20.8812,0.046679,
2,0,0,1,0,5104.29,0.0394999,0.0391767,-3.36681,3,0.00360743,10,-0.000131901,-2.47278,0.32536,0.181337,-23.8067,0.0391767,
2,0,0,1,0,5104.48,0.0320125,0.0317044,-3.18507,3,0.00299123,10,-0.000100981,-2.49688,0.297825,0.198103,-24.5858,0.0317044,
2,0,0,1,0,5104.67,0.0245198,0.0241729,-3.01356,3,0.00240753,10,-7.28466e-05,-2.52092,0.347362,0.169852,-19.9929,0.0241729,
2,0,0,1,0,5104.85,0.0170289,0.0167287,-2.8861,3,0.0018518,10,-4.82806e-05,-2.53969,0.502495,0.117414,-13.2864,0.0167287,
2,0,0,1,0,5105.04,0.0095397,0.00921169,-2.81158,3,0.00131572,10,-2.58994e-05,-2.55105,0.970937,0.0607661,-6.65727,0.00921169,
2,0,0,1,0,5105.23,0.00204518,0.00169538,-2.82021,3,0.00078981,10,-4.78131e-06,-2.54972,-7.18755,-0.00820864,0.889143,0.00169538,
2,0,0,1,0,5105.27,0.000177222,-0.000231032,-2.77723,3,0.000658328,10,6.4163e-07,-2.55639, , , ,-0.000231032,