File: Figure_codes/Fig_3-5/rawdata_trumpetplot_data/after 10th/20221101_1-115_003_TrumpetPlot_ParaChange_from10_every3_14_CV_C01_9.csv
mode,ox/red,error,control changes,counter inc.,time/s,control/V,Ewe/V,<I>/mA,cycle number,(Q-Qo)/C,I Range,P/W,log(|I|),Tafel slope mV/dec,alpha_eff,dI/d(E-IR),E-IR/V,
2,1,0,1,0,18930.3,2.44065e-05,-0.000287149,39.9922,10,0.0000000E+000,10,-1.14837e-05,-1.39802, , , ,-0.0002871489,
2,1,0,1,0,18930.3,0.0133084,0.0129732,43.7709,10,0.000553183,10,0.00056785,-1.35881,0.466633,0.126438,215.22,0.0129732,
2,1,0,1,0,18930.3,0.0273414,0.026995,46.3582,10,0.00118521,10,0.00125144,-1.33387,0.659991,0.0893951,161.275,0.026995,
2,1,0,1,0,18930.3,0.0413245,0.0409669,48.3491,10,0.00184869,10,0.00198071,-1.31561,0.850053,0.0694075,130.782,0.0409669,
2,1,0,1,0,18930.3,0.0553076,0.0549229,50.0271,10,0.0025377,10,0.00274763,-1.30079,0.967064,0.0610094,119.143,0.0549229,
2,1,0,1,0,18930.3,0.0693407,0.0689934,51.684,10,0.00324983,10,0.00356586,-1.28664,1.00935,0.0584533,117.844,0.0689934,
2,1,0,1,0,18930.4,0.0833238,0.0829696,53.3332,10,0.00398499,10,0.00442504,-1.273,1.01727,0.0579983,120.716,0.0829696,
2,1,0,1,0,18930.4,0.0973069,0.0969076,55.1802,10,0.00474414,10,0.00534738,-1.25822,0.850317,0.0693859,149.569,0.0969076,
2,1,0,1,0,18930.4,0.11134,0.110965,57.3382,10,0.0055321,10,0.00636256,-1.24156,0.84394,0.0699102,156.483,0.110965,
2,1,0,1,0,18930.4,0.125323,0.12499,59.636,10,0.00635084,10,0.00745392,-1.22449,0.798533,0.0738855,172.012,0.12499,
2,1,0,1,0,18930.4,0.139306,0.13891,62.1512,10,0.0072033,10,0.00863344,-1.20655,0.737372,0.0800139,194.32,0.13891,
2,1,0,1,0,18930.4,0.153339,0.152994,65.0343,10,0.00809378,10,0.00994983,-1.18686,0.70343,0.0838747,213.025,0.152994,
2,1,0,1,0,18930.4,0.167322,0.166967,68.158,10,0.00902624,10,0.0113801,-1.16648,0.698338,0.0844863,224.62,0.166967,
2,1,0,1,0,18930.5,0.181305,0.180944,71.231,10,0.0100024,10,0.0128888,-1.14733,0.776039,0.0760271,211.17,0.180944,
2,1,0,1,0,18930.5,0.195338,0.194999,73.9211,10,0.0110196,10,0.0144146,-1.13123,1.05965,0.0556789,160.315,0.194999,
2,1,0,1,0,18930.5,0.209322,0.20902,75.6561,10,0.0120682,10,0.0158136,-1.12116,2.56284,0.0230213,67.7012,0.20902,
2,1,0,1,0,18930.5,0.223305,0.223002,75.666,10,0.0131296,10,0.0168736,-1.1211,-2.41471,-0.0244336,-71.8218,0.223002,
2,1,0,1,0,18930.5,0.237338,0.236998,73.5246,10,0.0141766,10,0.0174252,-1.13357,-0.721376,-0.0817881,-233.603,0.236998,
2,1,0,1,0,18930.5,0.251321,0.251012,69.3078,10,0.0151781,10,0.0173971,-1.15922,-0.445232,-0.132515,-357.112,0.251012,
2,1,0,1,0,18930.5,0.265304,0.265024,63.7827,10,0.01611,10,0.016904,-1.1953,-0.359095,-0.164302,-408.435,0.265024,
2,1,0,1,0,18930.6,0.279337,0.27902,58.0094,10,0.0169619,10,0.0161858,-1.2365,-0.333115,-0.177116,-401.24,0.27902,
2,1,0,1,0,18930.6,0.29332,0.293013,52.7217,10,0.0177356,10,0.0154481,-1.27801,-0.348555,-0.16927,-350.588,0.2930128,
2,1,0,1,0,18930.6,0.298714,0.298587,47.1671,10,0.0181433,10,0.0140835,-1.32636,0.0411183,1.43488,2281.67,0.298587,
2,1,0,1,0,18930.6,0.28473,0.284549,23.9676,10,0.0186208,10,0.00681994,-1.62038,0.0445254,1.32509,1240.08,0.284549,
2,1,0,1,0,18930.6,0.270747,0.270522,10.206,10,0.018852,10,0.00276094,-1.99115,0.027197,2.16936,801.974,0.270522,
2,1,0,1,0,18930.6,0.256714,0.25648,0.879777,10,0.0189244,10,0.000225645,-3.05563,0.0605891,0.973773,556.209,0.25648,
2,0,0,1,0,18930.6,0.242731,0.242421,-5.70905,10,0.0188876,10,-0.00138399,-2.24344,-0.026813,-2.20042,404.192,0.242421,
2,0,0,1,0,18930.7,0.228748,0.228438,-10.5728,10,0.0187717,10,-0.00241524,-1.97581,-0.0767075,-0.769156,306.516,0.228438,
2,0,0,1,0,18930.7,0.214715,0.214435,-14.3501,10,0.0185955,10,-0.00307715,-1.84315,-0.135895,-0.434159,239.872,0.214435,
2,0,0,1,0,18930.7,0.200732,0.20045,-17.388,10,0.0183724,10,-0.00348543,-1.75975,-0.199148,-0.296262,199.561,0.2004499,
2,0,0,1,0,18930.7,0.186735,0.186461,-19.9941,10,0.0181103,10,-0.00372812,-1.6991,-0.258383,-0.228343,177.527,0.186461,
2,0,0,1,0,18930.7,0.172716,0.172451,-22.3789,10,0.0178131,10,-0.00385926,-1.65016,-0.305105,-0.193376,168.844,0.172451,
2,0,0,1,0,18930.7,0.158733,0.158427,-24.8123,10,0.0174827,10,-0.00393094,-1.60533,-0.310947,-0.189743,184.054,0.158427,
2,0,0,1,0,18930.7,0.144719,0.144394,-27.7028,10,0.0171158,10,-0.00400011,-1.55748,-0.273888,-0.215417,233.597,0.144394,
2,0,0,1,0,18930.7,0.130717,0.130432,-31.4383,10,0.0167026,10,-0.00410057,-1.50254,-0.234197,-0.251925,310.587,0.130432,
2,0,0,1,0,18930.8,0.116733,0.11645,-36.42,10,0.0162285,10,-0.0042411,-1.43866,-0.212493,-0.277656,395.454,0.11645,
2,0,0,1,0,18930.8,0.102703,0.102458,-42.4054,10,0.0156771,10,-0.00434476,-1.37258,-0.222098,-0.265649,438.599,0.102458,
2,0,0,1,0,18930.8,0.0887173,0.0884328,-48.4788,10,0.01504,10,-0.00428712,-1.31445,-0.265322,-0.222371,419.315,0.0884328,
2,0,0,1,0,18930.8,0.0747342,0.0745203,-53.9461,10,0.0143212,10,-0.00402008,-1.26804,-0.337789,-0.174665,366.937,0.07452029,
2,0,0,1,0,18930.8,0.0607011,0.0604869,-58.7884,10,0.0135308,10,-0.00355593,-1.23071,-0.447014,-0.131987,301.422,0.0604869,
2,0,0,1,0,18930.8,0.046718,0.0465065,-62.3743,10,0.0126811,10,-0.00290081,-1.20499,-0.652555,-0.0904138,219.44,0.0465065,
2,0,0,1,0,18930.8,0.0327349,0.0324688,-64.9032,10,0.0117887,10,-0.00210733,-1.18773,-1.0436,-0.0565352,142.81,0.0324688,
2,0,0,1,0,18930.9,0.0187018,0.0184205,-66.4682,10,0.0108681,10,-0.00122438,-1.17739,-1.86817,-0.0315818,81.7364,0.0184205,
2,0,0,1,0,18930.9,0.00471873,0.00443484,-67.2384,10,0.00993142,10,-0.000298192,-1.17238,-4.19893,-0.0140512,36.8338,0.00443484,
2,0,0,1,0,18930.9,-0.00926438,-0.00960176,-67.4821,10,0.00898745,10,0.000647947,-1.17081,54.3888,0.00108478,-2.85405,-0.00960176,
2,0,0,1,0,18930.9,-0.0232974,-0.0236638,-67.2405,10,0.0080439,10,0.00159117,-1.17237,3.91721,0.0150617,-39.4524,-0.0236638,
2,0,0,1,0,18930.9,-0.0372805,-0.0376686,-66.3619,10,0.00710819,10,0.00249976,-1.17808,1.84611,0.0319591,-82.6459,-0.0376686,
2,0,0,1,0,18930.9,-0.0512637,-0.0516257,-64.9807,10,0.00618865,10,0.00335467,-1.18722,1.37327,0.0429633,-108.871,-0.0516257,
2,0,0,1,0,18930.9,-0.0652967,-0.0656856,-63.431,10,0.00529009,10,0.0041665,-1.1977,1.33,0.0443611,-109.794,-0.0656856,
2,0,0,1,0,18931,-0.0792798,-0.0796385,-61.9486,10,0.0044129,10,0.00493349,-1.20797,1.48961,0.0396077,-95.839,-0.0796385,
2,0,0,1,0,18931,-0.0932629,-0.0935902,-60.8069,10,0.00355428,10,0.00569094,-1.21605,2.16086,0.0273039,-64.8642,-0.09359023,
2,0,0,1,0,18931,-0.107296,-0.107681,-60.1511,10,0.00270828,10,0.00647713,-1.22076,4.28825,0.0137585,-32.3226,-0.107681,
2,0,0,1,0,18931,-0.121279,-0.121667,-59.8531,10,0.00186874,10,0.00728213,-1.22291,16.7891,0.00351419,-8.21674,-0.121667,
2,0,0,1,0,18931,-0.135262,-0.135631,-59.9249,10,0.00103071,10,0.00812769,-1.22239,-8.49261,-0.00694722,16.2598,-0.135631,
2,0,0,1,0,18931,-0.149295,-0.149633,-60.3354,10,0.000189144,10,0.00902816,-1.21943,-3.69837,-0.015953,37.5759,-0.149633,
2,0,0,1,0,18931,-0.163278,-0.163629,-60.9217,10,-0.000659614,10,0.00996856,-1.21523,-2.91206,-0.0202606,48.1929,-0.163629,
2,0,0,1,0,18931.1,-0.177261,-0.177584,-61.6595,10,-0.00151761,10,0.0109497,-1.21,-2.53374,-0.0232857,56.0381,-0.177584,
2,0,0,1,0,18931.1,-0.191295,-0.191625,-62.5344,10,-0.00238677,10,0.0119831,-1.20388,-2.20711,-0.0267318,65.2085,-0.191625,
2,0,0,0,1,18931.1,-0.199984,-0.200551,-62.7482,10,-0.00297087,10,0.0125842,-1.2024,-0.0393011,-1.50123,3242.44,-0.200551,
2,0,0,1,1,18931.1,-0.186686,-0.187127,-40.0071,10,-0.00362103,10,0.00748639,-1.39786,-0.0717021,-0.822849,1296.65,-0.187127,
2,0,0,1,1,18931.1,-0.172667,-0.173067,-25.0035,10,-0.00406897,10,0.00432728,-1.602,-0.0617723,-0.955121,925.444,-0.173067,
2,0,0,1,1,18931.1,-0.158684,-0.159102,-13.5475,10,-0.00433477,10,0.00215544,-1.86814,-0.0402866,-1.46451,742.256,-0.159102,
2,0,0,1,1,18931.1,-0.14467,-0.14512,-4.1053,10,-0.00445562,10,0.00059576,-2.38666,-0.0133873,-4.40716,620.798,-0.14512,
2,1,0,1,1,18931.2,-0.130668,-0.131107,3.86669,10,-0.00445505,10,-0.000506952,-2.41266,0.0136282,4.32927,530.667,-0.131107,
2,1,0,1,1,18931.2,-0.116685,-0.117184,10.7763,10,-0.00435095,10,-0.00126281,-1.96753,0.0502984,1.173,467.329,-0.1171843,
2,1,0,1,1,18931.2,-0.102654,-0.103105,16.9962,10,-0.00415541,10,-0.0017524,-1.76965,0.0921988,0.639921,415.442,-0.103105,
2,1,0,1,1,18931.2,-0.0886685,-0.0890761,22.4705,10,-0.00387787,10,-0.00200159,-1.64839,0.138356,0.426436,370.146,-0.0890761,
2,1,0,1,1,18931.2,-0.0746854,-0.0750893,27.364,10,-0.00352799,10,-0.00205474,-1.56282,0.189063,0.312066,331.087,-0.0750893,
2,1,0,1,1,18931.2,-0.0606523,-0.0610729,31.8078,10,-0.00311317,10,-0.00194259,-1.49747,0.244365,0.241442,298.08,-0.0610729,
2,1,0,1,1,18931.2,-0.0466692,-0.0470967,35.7035,10,-0.00263972,10,-0.00168152,-1.44729,0.311709,0.189279,262.886,-0.0470967,
2,1,0,1,1,18931.2,-0.0326861,-0.0330686,39.1733,10,-0.00211481,10,-0.0012954,-1.40701,0.387819,0.152133,231.895,-0.0330686,
2,1,0,1,1,18931.3,-0.018653,-0.0190458,42.246,10,-0.00154443,10,-0.000804606,-1.37421,0.478172,0.123387,202.796,-0.01904575,
2,1,0,1,1,18931.3,-0.00466992,-0.00509715,44.8089,10,-0.000934332,10,-0.000228398,-1.34864, , , ,-0.005097155,
2,1,0,0,1,18931.3,-0.000175352,-0.000573459,45.5493,10,-0.000731006,10,-2.61206e-05,-1.34152, , , ,-0.000573459,