File: Figure_codes/Fig_3-5/rawdata_trumpetplot_data/after 10th/20221101_1-115_003_TrumpetPlot_ParaChange_from10_every3_02_CV_C01_9.csv
mode,ox/red,error,control changes,counter inc.,time/s,control/V,Ewe/V,<I>/mA,cycle number,(Q-Qo)/C,I Range,P/W,log(|I|),Tafel slope mV/dec,alpha_eff,dI/d(E-IR),E-IR/V,
2,0,0,1,0,18071.2,2.44065e-05,-0.000325324,-0.359531,10,0.0000000E+000,10,1.16964e-07,-3.44426, , , ,-0.000325324,
2,0,0,1,0,18078.5,0.00729061,0.00699358,-0.0923647,10,-0.000898987,10,-6.45959e-07,-4.03449,-0.0305466,-1.93147,7.04716,0.00699358,
2,0,0,1,0,18086,0.0147815,0.014497,-0.0578341,10,-0.00134615,10,-8.3842e-07,-4.23782,-0.0375285,-1.57214,3.53309,0.014497,
2,0,0,1,0,18093.5,0.0222725,0.021975,-0.0361661,10,-0.00159446,10,-7.94749e-07,-4.4417,-0.0375794,-1.57001,2.22819,0.021975,
2,0,0,1,0,18100.9,0.0297635,0.0294541,-0.0212773,10,-0.00171061,10,-6.26703e-07,-4.67208,-0.0247707,-2.38185,1.93082,0.0294541,
2,0,0,1,0,18108.4,0.0372544,0.036896,-0.00740012,10,-0.00171804,10,-2.73035e-07,-5.13076,-0.0109792,-5.37379,1.53218,0.03689599,
2,0,0,1,0,18115.9,0.0447454,0.0444027,0.00360925,10,-0.0016318,10,1.6026e-07,-5.44258,0.00378821,15.5746,1.49334,0.0444027,
2,1,0,1,0,18123.4,0.0522363,0.0519102,0.0134493,10,-0.00146474,10,6.98157e-07,-4.8713,0.0234162,2.51963,1.29177,0.05191024,
2,1,0,1,0,18130.9,0.0597273,0.0594127,0.0223917,10,-0.00122651,10,1.33035e-06,-4.64991,0.0440116,1.34055,1.16676,0.0594127,
2,1,0,1,0,18138.4,0.0672183,0.0669289,0.0309968,10,-0.000921783,10,2.07458e-06,-4.50868,0.0660664,0.893041,1.08746,0.0669289,
2,1,0,1,0,18145.9,0.0747092,0.0743994,0.038146,10,-0.000555821,10,2.83804e-06,-4.41855,0.0949934,0.621096,0.929102,0.0743994,
2,1,0,1,0,18153.4,0.0822001,0.081888,0.0457088,10,-0.000132441,10,3.743e-06,-4.34,0.0980321,0.601844,1.08306,0.081888,
2,1,0,1,0,18160.9,0.0896911,0.0893713,0.0546203,10,0.000350576,10,4.88148e-06,-4.26265,0.109083,0.540875,1.15792,0.0893713,
2,1,0,1,0,18168.4,0.0971821,0.0968874,0.0652067,10,0.000906171,10,6.31771e-06,-4.18571,0.0911292,0.647432,1.6455,0.0968874,
2,1,0,1,0,18175.9,0.104673,0.104355,0.0772506,10,0.00154518,10,8.06147e-06,-4.1121,0.122316,0.482357,1.43323,0.104355,
2,1,0,1,0,18183.3,0.112164,0.111853,0.087053,10,0.00226788,10,9.73713e-06,-4.06022,0.19729,0.299052,1.01089,0.111853,
2,1,0,1,0,18190.8,0.119655,0.119345,0.0963545,10,0.00306243,10,1.14994e-05,-4.01613,0.178549,0.330441,1.24286,0.119345,
2,1,0,1,0,18198.3,0.127146,0.126828,0.104709,10,0.00392976,10,1.328e-05,-3.98002,0.249587,0.236391,0.971112,0.126828,
2,1,0,1,0,18205.8,0.134637,0.134304,0.106193,10,0.00484266,10,1.42621e-05,-3.97391,-0.238444,-0.247437,-1.02363,0.134304,
2,1,0,1,0,18213.3,0.142128,0.141821,0.0905591,10,0.00569784,10,1.28432e-05,-4.04307,-0.0730296,-0.807891,-2.84423,0.141821,
2,1,0,1,0,18220.8,0.149619,0.149283,0.0692679,10,0.00639683,10,1.03405e-05,-4.15947,-0.0791,-0.745891,-2.03019,0.1492832,
2,1,0,1,0,18228.3,0.15711,0.156791,0.0580651,10,0.00696744,10,9.10408e-06,-4.23608,-0.13893,-0.424675,-0.965259,0.1567909,
2,1,0,1,0,18235.8,0.164601,0.164321,0.0528402,10,0.00747731,10,8.68274e-06,-4.27704,-0.338174,-0.174466,-0.359494,0.164321,
2,1,0,1,0,18243.3,0.172091,0.171752,0.0509394,10,0.00795855,10,8.74895e-06,-4.29295,-1.38875,-0.0424841,-0.0847489,0.171752,
2,1,0,1,0,18250.8,0.179582,0.179261,0.0496892,10,0.00842849,10,8.90733e-06,-4.30374,-1.19704,-0.0492881,-0.0965596,0.179261,
2,1,0,1,0,18258.3,0.187073,0.186716,0.0501747,10,0.00889501,10,9.36839e-06,-4.29952,1.5888,0.0371349,0.0728171,0.186716,
2,1,0,1,0,18265.7,0.194564,0.194235,0.0503992,10,0.00936208,10,9.78928e-06,-4.29758,0.958799,0.0615353,0.120517,0.194235,
2,1,0,1,0,18273.2,0.202055,0.201754,0.0505285,10,0.00983066,10,1.01943e-05,-4.29646,312.241,0.000188956,0.000374303,0.201754,
2,1,0,1,0,18280.7,0.209546,0.209236,0.0514424,10,0.0103045,10,1.07636e-05,-4.28868,1.65749,0.035596,0.0717221,0.209236,
2,1,0,1,0,18288.2,0.217037,0.21673,0.0521474,10,0.0107821,10,1.13019e-05,-4.28277,0.505992,0.116603,0.239133,0.21673,
2,1,0,1,0,18295.7,0.224528,0.224246,0.0528288,10,0.0112648,10,1.18466e-05,-4.27713,2.61398,0.0225709,0.0466058,0.224246,
2,1,0,1,0,18303.2,0.232019,0.231697,0.0541384,10,0.0117541,10,1.25437e-05,-4.26649,0.612347,0.0963506,0.204723,0.2316969,
2,1,0,1,0,18310.7,0.23951,0.239246,0.0551963,10,0.012251,10,1.32055e-05,-4.25809,1.26243,0.0467353,0.10007,0.239246,
2,1,0,1,0,18318.2,0.247001,0.246642,0.0565981,10,0.0127548,10,1.39595e-05,-4.2472,0.835274,0.0706355,0.155391,0.246642,
2,1,0,1,0,18325.7,0.254492,0.254171,0.056733,10,0.0132672,10,1.44199e-05,-4.24616,1.33256,0.0442755,0.099041,0.254171,
2,1,0,1,0,18333.2,0.261983,0.261695,0.0583134,10,0.013785,10,1.52603e-05,-4.23423,0.619266,0.0952741,0.217562,0.261695,
2,1,0,1,0,18340.7,0.269474,0.269178,0.0588933,10,0.0143107,10,1.58528e-05,-4.22993,1.83651,0.0321261,0.0739639,0.269178,
2,1,0,1,0,18348.1,0.276965,0.276667,0.0601132,10,0.0148417,10,1.66313e-05,-4.22103,1.06672,0.0553095,0.130255,0.276667,
2,1,0,1,0,18355.6,0.284456,0.284185,0.0606319,10,0.0153793,10,1.72307e-05,-4.2173,5.39144,0.0109433,0.0258841,0.284185,
2,1,0,1,0,18363.1,0.291947,0.291619,0.0620712,10,0.0159218,10,1.81012e-05,-4.20711,0.431607,0.136698,0.329672,0.291619,
2,1,0,1,0,18370.6,0.299438,0.299136,0.0624034,10,0.0164707,10,1.86671e-05,-4.20479,-0.00512673,-11.5083,-18.9944,0.299136,
2,1,0,1,0,18377.5,0.293745,0.293419,0.0117838,10,0.0165653,10,3.45759e-06,-4.92872,0.0168201,3.50771,1.63189,0.293419,
2,1,0,1,0,18385,0.286254,0.285935,0.00366318,10,0.0165374,10,1.04743e-06,-5.43614,0.00705795,8.35937,0.924509,0.285935,
2,0,0,1,0,18392.4,0.278763,0.278441,-0.00245042,10,0.0164572,10,-6.82298e-07,-5.61076,-0.00708446,-8.32809,0.615573,0.278441,
2,1,0,1,0,18399.9,0.271272,0.270943,-0.00742163,10,0.0163381,10,-2.01084e-06,-5.1295,-0.0301619,-1.95611,0.542575,0.270943,
2,0,0,1,0,18407.4,0.263781,0.26346,-0.0106018,10,0.0161864,10,-2.79315e-06,-4.97462,-0.045244,-1.30404,0.549996,0.26346,
2,0,0,1,0,18414.9,0.25629,0.255955,-0.0148935,10,0.0160064,10,-3.81205e-06,-4.827,-0.0640548,-0.921087,0.516989,0.255955,
2,0,0,1,0,18422.4,0.248799,0.248477,-0.0177464,10,0.0157999,10,-4.40958e-06,-4.75089,-0.0960656,-0.614164,0.432899,0.2484768,
2,0,0,1,0,18429.9,0.241308,0.241013,-0.0207735,10,0.0155698,10,-5.00667e-06,-4.68249,-0.102232,-0.577119,0.467483,0.241013,
2,0,0,1,0,18437.4,0.233817,0.233488,-0.0238301,10,0.0153152,10,-5.56404e-06,-4.62287,-0.119687,-0.492952,0.45796,0.233488,
2,0,0,1,0,18444.9,0.226326,0.22602,-0.0265662,10,0.0150384,10,-6.00449e-06,-4.57567,-0.333323,-0.177006,0.183001,0.22602,
2,0,0,1,0,18452.4,0.218835,0.218521,-0.0292869,10,0.0147424,10,-6.39982e-06,-4.53333,-0.146607,-0.402437,0.463969,0.218521,
2,0,0,1,0,18459.9,0.211344,0.211054,-0.0324014,10,0.0144232,10,-6.83846e-06,-4.48944,-0.137799,-0.42816,0.538413,0.211054,
2,0,0,1,0,18467.4,0.203853,0.203545,-0.0351713,10,0.0140813,10,-7.15896e-06,-4.45381,-0.187531,-0.314615,0.431657,0.203545,
2,0,0,1,0,18474.8,0.196362,0.196068,-0.0379168,10,0.0137173,10,-7.43429e-06,-4.42117,-0.161786,-0.364679,0.541813,0.196068,
2,0,0,1,0,18482.3,0.188871,0.188512,-0.0409809,10,0.013328,10,-7.72539e-06,-4.38742,-0.169332,-0.348429,0.562569,0.188512,
2,0,0,1,0,18489.8,0.18138,0.181064,-0.044797,10,0.0129116,10,-8.11111e-06,-4.34875,-0.144251,-0.409009,0.71781,0.181064,
2,0,0,1,0,18497.3,0.173889,0.173567,-0.0493407,10,0.012464,10,-8.5639e-06,-4.30679,-0.165706,-0.356052,0.687558,0.173567,
2,0,0,1,0,18504.8,0.166398,0.166085,-0.0554436,10,0.0119751,10,-9.20836e-06,-4.25615,-0.139412,-0.423205,0.920602,0.166085,
2,0,0,1,0,18512.3,0.158907,0.158553,-0.0628304,10,0.0114329,10,-9.96196e-06,-4.20183,-0.115882,-0.509137,1.26444,0.158553,
2,0,0,1,0,18519.8,0.151417,0.151112,-0.0752187,10,0.0108128,10,-1.13665e-05,-4.12367,-0.0901725,-0.654301,1.94392,0.151112,
2,0,0,1,0,18527.3,0.143926,0.143626,-0.0947993,10,0.0100737,10,-1.36157e-05,-4.02319,-0.0649088,-0.908967,3.36752,0.143626,
2,0,0,1,0,18534.8,0.136435,0.136138,-0.121943,10,0.00915565,10,-1.66011e-05,-3.91384,-0.0753021,-0.783511,3.70249,0.136138,
2,0,0,1,0,18542.3,0.128944,0.128637,-0.142931,10,0.00804854,10,-1.83862e-05,-3.84487,-0.183931,-0.320772,1.77745,0.128637,
2,0,0,1,0,18549.8,0.121453,0.121152,-0.150517,10,0.00683139,10,-1.82353e-05,-3.82242,-1.59075,-0.0370894,0.217737,0.121152,
2,0,0,1,0,18557.2,0.113962,0.113623,-0.148107,10,0.00559818,10,-1.68284e-05,-3.82942,1.18168,0.0499291,-0.290041,0.113623,
2,0,0,1,0,18564.7,0.106471,0.106135,-0.146315,10,0.00438519,10,-1.55292e-05,-3.83471,0.734912,0.0802817,-0.457609,0.106135,
2,0,0,1,0,18572.2,0.0989798,0.0986381,-0.141235,10,0.0032022,10,-1.39312e-05,-3.85006,0.55904,0.105538,-0.579219,0.09863814,
2,0,0,1,0,18579.7,0.0914889,0.0911782,-0.135014,10,0.00206139,10,-1.23104e-05,-3.86962,0.334648,0.176305,-0.926613,0.0911782,
2,0,0,1,0,18587.2,0.083998,0.0836971,-0.128762,10,0.000966749,10,-1.0777e-05,-3.89021,0.305794,0.19294,-0.973051,0.0836971,
2,0,0,1,0,18594.7,0.076507,0.0761395,-0.124954,10,-9.03985e-05,10,-9.51396e-06,-3.90325,0.424615,0.138949,-0.676332,0.0761395,
2,0,0,1,0,18602.2,0.069016,0.0687103,-0.121338,10,-0.00111598,10,-8.33717e-06,-3.916,0.798829,0.0738581,-0.349536,0.06871026,
2,0,0,1,0,18609.7,0.0615251,0.0611952,-0.118175,10,-0.00211807,10,-7.23174e-06,-3.92747,0.69072,0.0854181,-0.394435,0.0611952,
2,0,0,1,0,18617.2,0.0540342,0.0537195,-0.116105,10,-0.00309885,10,-6.23709e-06,-3.93515,0.828058,0.071251,-0.321833,0.05371945,
2,0,0,1,0,18624.7,0.0465432,0.0462202,-0.112345,10,-0.00405957,10,-5.19261e-06,-3.94945,1.60524,0.0367546,-0.162195,0.0462202,
2,0,0,1,0,18632.2,0.0390522,0.0387263,-0.110342,10,-0.00499828,10,-4.27314e-06,-3.95726,0.477783,0.123487,-0.529859,0.0387263,
2,0,0,1,0,18639.6,0.0315613,0.0312462,-0.107337,10,-0.00591497,10,-3.35388e-06,-3.96925,0.71692,0.0822965,-0.345898,0.0312462,
2,0,0,1,0,18647.1,0.0240703,0.0237904,-0.105031,10,-0.00681178,10,-2.49873e-06,-3.97868,2.04615,0.0288347,-0.118382,0.0237904,
2,0,0,1,0,18654.6,0.0165794,0.0162987,-0.10451,10,-0.00769552,10,-1.70338e-06,-3.98084,1.97255,0.0299106,-0.121966,0.0162987,
2,0,0,1,0,18662.1,0.00908843,0.00876341,-0.104996,10,-0.00857919,10,-9.20123e-07,-3.97883,-2.11185,-0.0279375,0.115111,0.00876341,
2,0,0,1,0,18669.6,0.00159744,0.00123448,-0.108379,10,-0.00947651,10,-1.33791e-07,-3.96505, , , ,0.00123448,
2,0,0,1,0,18671,0.000199235,-0.000172587,-0.108672,10,-0.00964643,10,1.87554e-08,-3.96388, , , ,-0.000172587,