File: Figure_codes/Fig_3-5/rawdata_trumpetplot_data/after 10th/20221101_1-115_003_TrumpetPlot_ParaChange_from10_every3_11_CV_C01_31.csv
mode,ox/red,error,control changes,counter inc.,time/s,control/V,Ewe/V,<I>/mA,cycle number,(Q-Qo)/C,I Range,P/W,log(|I|),Tafel slope mV/dec,alpha_eff,dI/d(E-IR),E-IR/V,
2,1,0,1,0,62268.6,2.44065e-05,-0.000344411,8.97551,32,0.0000000E+000,10,-3.09126e-06,-2.04694, , , ,-0.000344411,
2,1,0,1,0,62268.6,0.0101427,0.00979095,11.8122,32,0.000267608,10,0.000115652,-1.92767,0.140097,0.421135,193.438,0.00979095,
2,1,0,1,0,62268.6,0.0205441,0.020149,13.5151,32,0.000598138,10,0.000272315,-1.86918,0.220584,0.267472,140.763,0.020149,
2,1,0,1,0,62268.6,0.0309482,0.0306089,14.819,32,0.000967119,10,0.000453593,-1.82918,0.301582,0.195635,112.964,0.0306089,
2,1,0,1,0,62268.7,0.0413439,0.0409733,15.9041,32,0.00136687,10,0.000651642,-1.79849,0.37753,0.156279,96.9655,0.0409733,
2,1,0,1,0,62268.7,0.0517425,0.0514172,16.8832,32,0.0017934,10,0.000868084,-1.77255,0.416889,0.141525,93.2479,0.0514172,
2,1,0,1,0,62268.7,0.0621438,0.0618081,17.8282,32,0.00224472,10,0.00110193,-1.74889,0.460047,0.128248,89.1356,0.0618081,
2,1,0,1,0,62268.7,0.0725479,0.0721969,18.7415,32,0.00272012,10,0.00135308,-1.7272,0.484354,0.121812,89.1041,0.0721969,
2,1,0,1,0,62268.8,0.0829437,0.0825762,19.6673,32,0.00321963,10,0.00162405,-1.70626,0.498327,0.118396,90.9233,0.0825762,
2,1,0,1,0,62268.8,0.0933422,0.0929544,20.6229,32,0.00374353,10,0.00191699,-1.68565,0.513618,0.114871,92.422,0.0929544,
2,1,0,1,0,62268.8,0.103749,0.103392,21.564,32,0.00429208,10,0.00222955,-1.66627,0.550814,0.107114,90.1449,0.103392,
2,1,0,1,0,62268.8,0.114148,0.11373,22.505,32,0.00486489,10,0.00255949,-1.64772,0.526272,0.112109,98.4922,0.11373,
2,1,0,1,0,62268.9,0.124543,0.124149,23.563,32,0.00546381,10,0.00292534,-1.62777,0.521514,0.113132,104.014,0.124149,
2,1,0,1,0,62268.9,0.134942,0.134556,24.7028,32,0.00609117,10,0.00332391,-1.60725,0.502586,0.117393,113.2,0.134556,
2,1,0,1,0,62268.9,0.145349,0.144971,25.9107,32,0.00674911,10,0.00375628,-1.58652,0.522112,0.113003,114.2,0.144971,
2,1,0,1,0,62269,0.155747,0.155372,27.0395,32,0.00743762,10,0.00420118,-1.568,0.592761,0.0995341,104.983,0.155372,
2,1,0,1,0,62269,0.166143,0.165759,28.005,32,0.00815385,10,0.00464208,-1.55276,0.817185,0.0721991,78.8505,0.165759,
2,1,0,1,0,62269,0.176542,0.176164,28.5988,32,0.00889091,10,0.00503809,-1.54365,2.1304,0.0276943,30.8843,0.176164,
2,1,0,1,0,62269,0.186949,0.186567,28.5949,32,0.00963593,10,0.00533487,-1.54371,-1.95771,-0.0301372,-33.5939,0.186567,
2,1,0,1,0,62269.1,0.197347,0.196986,27.897,32,0.0103718,10,0.0054953,-1.55444,-0.662162,-0.089102,-96.8809,0.196986,
2,1,0,1,0,62269.1,0.207743,0.207372,26.5765,32,0.0110809,10,0.00551122,-1.5755,-0.404242,-0.145952,-151.209,0.207372,
2,1,0,1,0,62269.1,0.218141,0.217816,24.854,32,0.01175,10,0.00541361,-1.6046,-0.330497,-0.178519,-173.211,0.217816,
2,1,0,1,0,62269.1,0.228548,0.228182,23.0625,32,0.0123726,10,0.00526244,-1.63709,-0.313089,-0.188445,-169.548,0.228182,
2,1,0,1,0,62269.2,0.238947,0.238617,21.3837,32,0.0129497,10,0.00510252,-1.66992,-0.323244,-0.182524,-152.285,0.238617,
2,1,0,1,0,62269.2,0.249343,0.248987,19.9215,32,0.013486,10,0.00496019,-1.70068,-0.355648,-0.165894,-129.106,0.248987,
2,1,0,1,0,62269.2,0.259741,0.259369,18.7099,32,0.0139877,10,0.00485278,-1.72793,-0.403958,-0.146055,-106.71,0.259369,
2,1,0,1,0,62269.2,0.270148,0.26983,17.7153,32,0.0144607,10,0.00478012,-1.75165,-0.466169,-0.126564,-87.5059,0.2698302,
2,1,0,1,0,62269.3,0.280547,0.280206,16.8715,32,0.01491,10,0.0047275,-1.77285,-0.526534,-0.112054,-73.84,0.280206,
2,1,0,1,0,62269.3,0.290942,0.290625,16.177,32,0.0153393,10,0.00470144,-1.7911,-0.612026,-0.0964011,-60.8775,0.290625,
2,1,0,0,0,62269.3,0.300012,0.299632,15.6456,32,0.0157004,10,0.00468791,-1.80561,0.00208702,28.27,15737.5,0.299632,
2,1,0,1,0,62269.3,0.290704,0.290378,7.47172,32,0.0159529,10,0.00216962,-2.12658,0.029299,2.01372,587.139,0.290378,
2,1,0,1,0,62269.4,0.280305,0.28003,2.70639,32,0.0160798,10,0.000757871,-2.56761,0.0165286,3.56956,363.084,0.28003,
2,0,0,1,0,62269.4,0.269909,0.269532,-0.422746,32,0.0161067,10,-0.000113944,-3.37392,-0.0146433,-4.02916,249.623,0.2695322,
2,0,0,1,0,62269.4,0.2595,0.259139,-2.62373,32,0.0160655,10,-0.000679912,-2.58108,-0.0321819,-1.83333,182.997,0.259139,
2,0,0,1,0,62269.4,0.249104,0.248712,-4.27145,32,0.0159748,10,-0.00106236,-2.36943,-0.0700152,-0.842674,139.368,0.2487122,
2,0,0,1,0,62269.5,0.238705,0.238359,-5.55443,32,0.0158463,10,-0.00132395,-2.25536,-0.115178,-0.512252,110.557,0.238359,
2,0,0,1,0,62269.5,0.22831,0.227948,-6.58498,32,0.015688,10,-0.00150103,-2.18145,-0.169254,-0.348589,89.4314,0.227948,
2,0,0,1,0,62269.5,0.2179,0.217563,-7.44888,32,0.0155051,10,-0.0016206,-2.12791,-0.223134,-0.264415,76.8033,0.217563,
2,0,0,1,0,62269.5,0.207504,0.207174,-8.19276,32,0.0153015,10,-0.00169733,-2.08657,-0.28176,-0.209398,66.924,0.207174,
2,0,0,1,0,62269.6,0.197106,0.196742,-8.85646,32,0.0150796,10,-0.00174243,-2.05274,-0.335674,-0.175766,60.7733,0.196742,
2,0,0,1,0,62269.6,0.18671,0.186376,-9.46648,32,0.0148412,10,-0.00176433,-2.02381,-0.377678,-0.156218,57.7328,0.1863762,
2,0,0,1,0,62269.6,0.1763,0.175942,-10.0666,32,0.0145872,10,-0.00177114,-1.99712,-0.398116,-0.148198,58.1961,0.1759418,
2,0,0,1,0,62269.6,0.165905,0.165538,-10.6713,32,0.0143177,10,-0.0017665,-1.97178,-0.41168,-0.143315,59.6586,0.165538,
2,0,0,1,0,62269.7,0.155506,0.15512,-11.3395,32,0.0140318,10,-0.00175898,-1.94541,-0.372352,-0.158452,70.1906,0.15512,
2,0,0,1,0,62269.7,0.145105,0.144746,-12.1724,32,0.0137264,10,-0.00176191,-1.91462,-0.294392,-0.200413,95.3657,0.144746,
2,0,0,1,0,62269.7,0.134701,0.134318,-13.3362,32,0.0133955,10,-0.00179129,-1.87497,-0.229333,-0.257268,133.975,0.134318,
2,0,0,1,0,62269.8,0.124305,0.123949,-14.9899,32,0.0130283,10,-0.00185798,-1.8242,-0.189795,-0.310862,182.051,0.123949,
2,0,0,1,0,62269.8,0.113906,0.113543,-17.0518,32,0.0126121,10,-0.00193611,-1.76823,-0.187202,-0.315168,209.872,0.113543,
2,0,0,1,0,62269.8,0.103505,0.103192,-19.2621,32,0.0121397,10,-0.00198769,-1.7153,-0.215849,-0.273339,205.063,0.103192,
2,0,0,1,0,62269.8,0.0931008,0.0927837,-21.3404,32,0.0116117,10,-0.00198004,-1.6708,-0.258177,-0.228525,190.097,0.0927837,
2,0,0,1,0,62269.9,0.0827051,0.0823567,-23.1613,32,0.0110324,10,-0.00190749,-1.63524,-0.339375,-0.173849,157.003,0.0823567,
2,0,0,1,0,62269.9,0.0723065,0.0720135,-24.5885,32,0.0104106,10,-0.0017707,-1.60927,-0.47512,-0.124179,119.082,0.0720135,
2,0,0,1,0,62269.9,0.0618997,0.0615589,-25.6386,32,0.00975673,10,-0.00157829,-1.59111,-0.748347,-0.0788405,78.7906,0.0615589,
2,0,0,1,0,62269.9,0.0515011,0.0510991,-26.2706,32,0.00908124,10,-0.0013424,-1.58053,-1.31487,-0.0448713,45.966,0.0510991,
2,0,0,1,0,62270,0.0411053,0.0407559,-26.6026,32,0.00839331,10,-0.00108421,-1.57508,-2.76559,-0.0213336,22.1521,0.0407559,
2,0,0,1,0,62270,0.0307068,0.0303512,-26.7459,32,0.00769929,10,-0.000811771,-1.57274,-10.7215,-0.00550298,5.74226,0.0303512,
2,0,0,1,0,62270,0.0202999,0.0199528,-26.7329,32,0.00700388,10,-0.000533398,-1.57295,7.16697,0.00823221,-8.58439,0.0199528,
2,0,0,1,0,62270,0.00990136,0.00954918,-26.5731,32,0.00631064,10,-0.000253751,-1.57556,2.78981,0.0211484,-21.9299,0.009549181,
2,0,0,1,0,62270.1,-0.000494411,-0.000879916,-26.301,32,0.00562306,10,2.31427e-05,-1.58003,1.7444,0.0338225,-34.6794,-0.000879916,
2,0,0,1,0,62270.1,-0.010893,-0.0112942,-25.8282,32,0.00494533,10,0.000291708,-1.58791,1.16678,0.0505664,-50.9419,-0.0112942,
2,0,0,1,0,62270.1,-0.0212998,-0.021701,-25.2508,32,0.0042813,10,0.000547967,-1.59773,1.02098,0.0577876,-56.963,-0.021701,
2,0,0,1,0,62270.1,-0.0316984,-0.0320919,-24.676,32,0.00363241,10,0.000791899,-1.60773,1.10243,0.0535183,-51.5355,-0.0320919,
2,0,0,1,0,62270.2,-0.0420942,-0.0425019,-24.1759,32,0.00299772,10,0.00102752,-1.61662,1.26393,0.0466798,-44.0396,-0.0425019,
2,0,0,1,0,62270.2,-0.0524927,-0.052877,-23.7879,32,0.00237454,10,0.00125783,-1.62364,1.90872,0.0309108,-28.7166,-0.052877,
2,0,0,1,0,62270.2,-0.0628996,-0.0632732,-23.5752,32,0.00175923,10,0.00149168,-1.62754,3.95857,0.0149044,-13.7093,-0.0632732,
2,0,0,1,0,62270.2,-0.0732982,-0.0736641,-23.4905,32,0.0011479,10,0.0017304,-1.62911,38.0373,0.00155111,-1.42139,-0.0736641,
2,0,0,1,0,62270.3,-0.0836939,-0.08409,-23.5214,32,0.000537133,10,0.00197791,-1.62854,-5.6271,-0.010485,9.62918,-0.08409,
2,0,0,1,0,62270.3,-0.0940925,-0.0945128,-23.6868,32,-7.63603e-05,10,0.0022387,-1.62549,-2.38738,-0.0247133,22.8553,-0.0945128,
2,0,0,1,1,62270.3,-0.0978574,-0.098255,-20.4027,32,-0.000550784,10,0.00200467,-1.69031,-0.0368873,-1.59947,1261.56,-0.098255,
2,0,0,1,1,62270.3,-0.0874588,-0.0878959,-11.3971,32,-0.000951757,10,0.00100176,-1.94321,-0.0391606,-1.50662,669.037,-0.0878959,
2,0,0,1,1,62270.4,-0.077052,-0.0774477,-5.46556,32,-0.00116638,10,0.000423295,-2.26237,-0.0251766,-2.34345,491.669,-0.0774477,
2,0,0,1,1,62270.4,-0.0666562,-0.0670461,-0.93355,32,-0.00124682,10,6.25909e-05,-3.02986,-0.00663494,-8.89231,384.772,-0.0670461,
2,1,0,1,1,62270.4,-0.0562576,-0.0566775,2.66014,32,-0.00122236,10,-0.00015077,-2.5751,0.018546,3.18129,311.882,-0.0566775,
2,1,0,1,1,62270.4,-0.0458563,-0.046295,5.61245,32,-0.0011133,10,-0.000259829,-2.25085,0.0497856,1.18508,256.499,-0.046295,
2,1,0,1,1,62270.5,-0.0354522,-0.0358362,8.04337,32,-0.000934648,10,-0.000288244,-2.09456,0.087131,0.677141,211.077,-0.0358362,
2,1,0,1,1,62270.5,-0.0250564,-0.0254517,10.023,32,-0.00069876,10,-0.000255102,-1.999,0.135011,0.437001,170.559,-0.0254517,
2,1,0,1,1,62270.5,-0.0146579,-0.0150639,11.6412,32,-0.000416165,10,-0.000175361,-1.934,0.190316,0.310011,140.72,-0.0150639,
2,1,0,1,1,62270.6,-0.00425653,-0.00468996,12.9675,32,-9.55177e-05,10,-6.08172e-05,-1.88714,0.259753,0.227139,114.787,-0.00468996,
2,1,0,0,1,62270.6,-7.54729e-05,-0.000478022,13.4258,32,4.31398e-05,10,-6.41784e-06,-1.87206, , , ,-0.000478022,