File: Figure_codes/Fig_3-5/rawdata_trumpetplot_data/after 10th/20221101_1-115_003_TrumpetPlot_ParaChange_from10_every3_02_CV_C01_21.csv
mode,ox/red,error,control changes,counter inc.,time/s,control/V,Ewe/V,<I>/mA,cycle number,(Q-Qo)/C,I Range,P/W,log(|I|),Tafel slope mV/dec,alpha_eff,dI/d(E-IR),E-IR/V,
2,0,0,1,0,41712.8,2.44065e-05,-0.000401673,-0.400873,22,0.0000000E+000,10,1.6102e-07,-3.39699, , , ,-0.000401673,
2,0,0,1,0,41720,0.00729061,0.00695535,-0.0946794,22,-0.000956802,10,-6.58529e-07,-4.02374,-0.0299206,-1.97189,7.39185,0.00695535,
2,0,0,1,0,41727.5,0.0147815,0.0144503,-0.0587514,22,-0.00143672,10,-8.48976e-07,-4.23098,-0.0394385,-1.496,3.42562,0.0144503,
2,0,0,1,0,41735,0.0222725,0.0219612,-0.0379632,22,-0.0017164,10,-8.33719e-07,-4.42064,-0.0376544,-1.56688,2.29968,0.0219612,
2,0,0,1,0,41742.5,0.0297635,0.0294085,-0.0224192,22,-0.00186259,10,-6.59316e-07,-4.64938,-0.0287063,-2.0553,1.77818,0.0294085,
2,0,0,1,0,41750,0.0372544,0.0369416,-0.00982729,22,-0.00190513,10,-3.63036e-07,-5.00757,-0.0135057,-4.36852,1.58179,0.0369416,
2,0,0,1,0,41757.5,0.0447454,0.0444186,0.00152616,22,-0.00185494,10,6.77897e-08,-5.8164,0.00813883,7.2492,1.51189,0.0444186,
2,0,0,1,0,41765,0.0522363,0.0519081,0.0114967,22,-0.00172325,10,5.9677e-07,-4.93943,0.0203012,2.90624,1.34444,0.0519081,
2,1,0,1,0,41772.5,0.0597273,0.0594064,0.0212562,22,-0.00151549,10,1.26276e-06,-4.67251,0.0494261,1.1937,0.980432,0.05940637,
2,1,0,1,0,41780,0.0672183,0.0668748,0.0292511,22,-0.00124454,10,1.95616e-06,-4.53386,0.0666241,0.885566,1.00857,0.0668748,
2,1,0,1,0,41787.5,0.0747092,0.0743443,0.0366142,22,-0.000912946,10,2.72206e-06,-4.43635,0.0915078,0.644753,0.929445,0.0743443,
2,1,0,1,0,41794.9,0.0822001,0.0818656,0.0438448,22,-0.000527373,10,3.58938e-06,-4.35808,0.0887286,0.664949,1.14564,0.0818656,
2,1,0,1,0,41802.4,0.0896911,0.0893501,0.0530955,22,-8.06107e-05,10,4.74409e-06,-4.27494,0.106128,0.555933,1.15314,0.0893501,
2,1,0,1,0,41809.9,0.0971821,0.0968674,0.0621499,22,0.000435211,10,6.0203e-06,-4.20656,0.0885467,0.666315,1.62252,0.0968674,
2,1,0,1,0,41817.4,0.104673,0.104325,0.0734416,22,0.00103009,10,7.6618e-06,-4.13406,0.140124,0.421055,1.20093,0.104325,
2,1,0,1,0,41824.9,0.112164,0.111831,0.0819625,22,0.0016972,10,9.16592e-06,-4.08638,0.163082,0.361781,1.15578,0.111831,
2,1,0,1,0,41832.4,0.119655,0.119328,0.0907023,22,0.00243152,10,1.08233e-05,-4.04238,0.222335,0.265365,0.938483,0.119328,
2,1,0,1,0,41839.9,0.127146,0.126791,0.0959465,22,0.00322206,10,1.21651e-05,-4.01797,0.386412,0.152687,0.5754,0.126791,
2,1,0,1,0,41847.4,0.134637,0.134335,0.0953633,22,0.00403776,10,1.28106e-05,-4.02062,-0.175838,-0.335537,-1.2454,0.134335,
2,1,0,1,0,41854.9,0.142128,0.141827,0.0803114,22,0.0047869,10,1.13904e-05,-4.09522,-0.0818203,-0.721092,-2.25199,0.141827,
2,1,0,1,0,41862.4,0.149619,0.149272,0.0630812,22,0.00540289,10,9.41624e-06,-4.2001,-0.0801482,-0.736137,-1.83412,0.149272,
2,1,0,1,0,41869.9,0.15711,0.156765,0.0547038,22,0.00591727,10,8.57566e-06,-4.26198,-0.17906,-0.329498,-0.707343,0.156765,
2,1,0,1,0,41877.3,0.164601,0.164277,0.0516263,22,0.00639063,10,8.48102e-06,-4.28713,-0.886289,-0.0665697,-0.13444,0.164277,
2,1,0,1,0,41884.8,0.172091,0.171782,0.0512728,22,0.00684836,10,8.80774e-06,-4.29011,-1.84129,-0.0320427,-0.0639936,0.171782,
2,1,0,1,0,41892.3,0.179582,0.179221,0.0510203,22,0.00730477,10,9.14389e-06,-4.29226,-1.29685,-0.0454948,-0.0904264,0.179221,
2,1,0,1,0,41899.8,0.187073,0.18674,0.0514751,22,0.00776092,10,9.61246e-06,-4.2884,0.585093,0.100839,0.202572,0.18674,
2,1,0,1,0,41907.3,0.194564,0.194245,0.0517882,22,0.00822249,10,1.00596e-05,-4.28577,1.40728,0.0419248,0.0853833,0.194245,
2,1,0,1,0,41914.8,0.202055,0.201729,0.052025,22,0.0086847,10,1.04949e-05,-4.28379,0.548968,0.107474,0.220899,0.201729,
2,1,0,1,0,41922.3,0.209546,0.20922,0.052436,22,0.00915084,10,1.09707e-05,-4.28037,1.49417,0.0394868,0.0813989,0.20922,
2,1,0,1,0,41929.8,0.217037,0.216699,0.0529605,22,0.00961839,10,1.14765e-05,-4.27605,0.372545,0.15837,0.331453,0.216699,
2,1,0,1,0,41937.3,0.224528,0.224181,0.0547167,22,0.0100947,10,1.22664e-05,-4.26188,1.85587,0.031791,0.0674096,0.2241808,
2,1,0,1,0,41944.8,0.232019,0.23171,0.0559054,22,0.0105765,10,1.29538e-05,-4.25255,0.468456,0.125946,0.274452,0.23171,
2,1,0,1,0,41952.3,0.23951,0.23918,0.0568027,22,0.0110684,10,1.35861e-05,-4.24563,-1.84565,-0.031967,-0.0709396,0.23918,
2,1,0,1,0,41959.7,0.247001,0.246665,0.0580506,22,0.0115658,10,1.4319e-05,-4.23619,0.660874,0.0892757,0.201866,0.246665,
2,1,0,1,0,41967.2,0.254492,0.254179,0.0597349,22,0.0120731,10,1.51833e-05,-4.22377,0.886657,0.0665421,0.154343,0.254179,
2,1,0,1,0,41974.7,0.261983,0.26165,0.0599764,22,0.0125862,10,1.56928e-05,-4.22202,2.00589,0.0294134,0.0686163,0.26165,
2,1,0,1,0,41982.2,0.269474,0.26914,0.0606782,22,0.0131048,10,1.63309e-05,-4.21697,1.02344,0.0576487,0.136038,0.26914,
2,1,0,1,0,41989.7,0.276965,0.276679,0.0610824,22,0.0136275,10,1.69002e-05,-4.21408,0.584486,0.100943,0.242314,0.276679,
2,1,0,1,0,41997.2,0.284456,0.284183,0.0619864,22,0.0141562,10,1.76155e-05,-4.2077,1.7753,0.0332338,0.080652,0.284183,
2,1,0,1,0,42004.7,0.291947,0.291625,0.0632217,22,0.0146888,10,1.8437e-05,-4.19913,0.555413,0.106227,0.262986,0.291625,
2,1,0,1,0,42012.2,0.299438,0.299134,0.0645093,22,0.015232,10,1.9297e-05,-4.19038,-0.00424118,-13.9112,-22.3511,0.299134,
2,1,0,1,0,42019,0.293745,0.293404,0.00880745,22,0.0153257,10,2.58414e-06,-5.05515,0.0116823,5.05039,1.73526,0.293404,
2,1,0,1,0,42026.5,0.286254,0.285898,0.000392012,22,0.0152947,10,1.12076e-07,-6.4067,0.0189038,3.12106,0.937302,0.285898,
2,1,0,1,0,42034,0.278763,0.278426,-0.00598644,22,0.0152111,10,-1.66678e-06,-5.22283,-0.0180378,-3.27091,0.664028,0.278426,
2,0,0,1,0,42041.5,0.271272,0.27097,-0.00991804,22,0.0150866,10,-2.68749e-06,-5.00357,-0.0591673,-0.997172,0.400949,0.27097,
2,0,0,1,0,42049,0.263781,0.263401,-0.0141013,22,0.014931,10,-3.71429e-06,-4.85074,-0.0696575,-0.847002,0.470015,0.263401,
2,0,0,1,0,42056.5,0.25629,0.256,-0.0170897,22,0.0147474,10,-4.37497e-06,-4.76727,-0.0946902,-0.623085,0.430843,0.256,
2,0,0,1,0,42064,0.248799,0.248494,-0.0207203,22,0.0145383,10,-5.14886e-06,-4.6836,-0.124724,-0.473046,0.382074,0.248494,
2,0,0,1,0,42071.5,0.241308,0.240991,-0.0234551,22,0.0143054,10,-5.65248e-06,-4.62976,-0.142641,-0.413627,0.381393,0.240991,
2,0,0,1,0,42079,0.233817,0.233485,-0.0267239,22,0.0140512,10,-6.23962e-06,-4.5731,-0.147139,-0.400982,0.411046,0.233485,
2,0,0,1,0,42086.4,0.226326,0.225993,-0.0295627,22,0.0137736,10,-6.68097e-06,-4.52926,-0.175327,-0.336515,0.384159,0.225993,
2,0,0,1,0,42093.9,0.218835,0.218483,-0.0318842,22,0.0134748,10,-6.96617e-06,-4.49642,-0.154388,-0.382153,0.47713,0.218483,
2,0,0,1,0,42101.4,0.211344,0.211034,-0.0347028,22,0.0131551,10,-7.32346e-06,-4.45964,-0.228483,-0.258225,0.34853,0.211034,
2,0,0,1,0,42108.9,0.203853,0.203527,-0.0377248,22,0.0128141,10,-7.67803e-06,-4.42337,-0.208138,-0.283466,0.414664,0.203527,
2,0,0,1,0,42116.4,0.196362,0.196068,-0.0402041,22,0.0124504,10,-7.88276e-06,-4.39573,-0.226816,-0.260123,0.409099,0.196068,
2,0,0,1,0,42123.9,0.188871,0.188555,-0.0438637,22,0.0120641,10,-8.27073e-06,-4.35789,-0.220222,-0.267911,0.454707,0.1885553,
2,0,0,1,0,42131.4,0.18138,0.181059,-0.0473234,22,0.0116496,10,-8.56833e-06,-4.32492,-0.206578,-0.285607,0.525637,0.181059,
2,0,0,1,0,42138.9,0.173889,0.173558,-0.0515697,22,0.0112053,10,-8.95033e-06,-4.28761,-0.199083,-0.296358,0.59532,0.173558,
2,0,0,1,0,42146.4,0.166398,0.166065,-0.056862,22,0.0107238,10,-9.44281e-06,-4.24518,-0.275826,-0.213903,0.4743,0.166065,
2,0,0,1,0,42153.9,0.158907,0.15859,-0.0622788,22,0.0102004,10,-9.87682e-06,-4.20566,-0.124673,-0.473237,1.16392,0.15859,
2,0,0,1,0,42161.4,0.151417,0.151069,-0.0723214,22,0.00961544,10,-1.09255e-05,-4.14073,-0.114046,-0.517337,1.46567,0.151069,
2,0,0,1,0,42168.8,0.143926,0.143594,-0.0868338,22,0.00894128,10,-1.24688e-05,-4.06131,-0.0804585,-0.733297,2.48253,0.143594,
2,0,0,1,0,42176.3,0.136435,0.136075,-0.108965,22,0.00812626,10,-1.48274e-05,-3.96271,-0.079898,-0.738441,3.11949,0.136075,
2,0,0,1,0,42183.8,0.128944,0.128644,-0.129463,22,0.00714223,10,-1.66547e-05,-3.88785,-0.141532,-0.416866,2.101,0.128644,
2,0,0,1,0,42191.3,0.121453,0.121143,-0.140193,22,0.00603516,10,-1.69835e-05,-3.85327,-0.432717,-0.136348,0.745017,0.121143,
2,0,0,1,0,42198.8,0.113962,0.113662,-0.140879,22,0.00488749,10,-1.60125e-05,-3.85116,-3.11355,-0.0189494,0.104767,0.113662,
2,0,0,1,0,42206.3,0.106471,0.106173,-0.140869,22,0.00374122,10,-1.49565e-05,-3.85119,0.911845,0.064704,-0.356431,0.106173,
2,0,0,1,0,42213.8,0.0989798,0.0986784,-0.138616,22,0.00260763,10,-1.36784e-05,-3.85819,0.808644,0.0729617,-0.393234,0.0986784,
2,0,0,1,0,42221.3,0.0914889,0.0911368,-0.135119,22,0.00149524,10,-1.23143e-05,-3.86928,0.584982,0.100858,-0.530959,0.0911368,
2,0,0,1,0,42228.8,0.083998,0.0836695,-0.129505,22,0.000417156,10,-1.08356e-05,-3.88771,0.306919,0.192233,-0.971922,0.0836695,
2,0,0,1,0,42236.3,0.076507,0.0761459,-0.126085,22,-0.000626076,10,-9.60084e-06,-3.89934,0.520537,0.113344,-0.555966,0.0761459,
2,0,0,1,0,42243.8,0.069016,0.0686806,-0.121675,22,-0.00164151,10,-8.35671e-06,-3.9148,0.615236,0.0958982,-0.457936,0.0686806,
2,0,0,1,0,42251.2,0.0615251,0.0612133,-0.118919,22,-0.00262869,10,-7.27943e-06,-3.92475,0.7885,0.0748256,-0.347409,0.0612133,
2,0,0,1,0,42258.7,0.0540342,0.053712,-0.115828,22,-0.00359078,10,-6.22134e-06,-3.93619,0.915012,0.06448,-0.290328,0.053712,
2,0,0,1,0,42266.2,0.0465432,0.0462053,-0.112152,22,-0.00453038,10,-5.18202e-06,-3.95019,0.447106,0.13196,-0.581401,0.0462053,
2,0,0,1,0,42273.7,0.0390522,0.0387188,-0.109858,22,-0.00544678,10,-4.25357e-06,-3.95917,0.481656,0.122494,-0.524704,0.0387188,
2,0,0,1,0,42281.2,0.0315613,0.0312907,-0.107402,22,-0.00634265,10,-3.36069e-06,-3.96899,0.982881,0.0600276,-0.252015,0.03129071,
2,0,0,1,0,42288.7,0.0240703,0.0237618,-0.105294,22,-0.0072216,10,-2.50197e-06,-3.9776,1.24491,0.0473929,-0.195555,0.0237618,
2,0,0,1,0,42296.2,0.0165794,0.0162319,-0.105433,22,-0.00809078,10,-1.71138e-06,-3.97702,-1.03133,-0.0572079,0.235291,0.0162319,
2,0,0,1,0,42303.7,0.00908843,0.00876442,-0.106593,22,-0.00896398,10,-9.34224e-07,-3.97227,-1.1187,-0.0527398,0.219849,0.00876442,
2,0,0,1,0,42311.2,0.00159744,0.001208,-0.11027,22,-0.00985613,10,-1.33206e-07,-3.95754, , , ,0.001208,
2,0,0,1,0,42312.6,0.000199235,-0.000157358,-0.110997,22,-0.0100254,10,1.74662e-08,-3.95469, , , ,-0.000157358,