File: Figure_codes/Fig_3-5/rawdata_trumpetplot_data/after 10th/20221101_1-115_003_TrumpetPlot_ParaChange_from10_every3_13_CV_C01_14.csv
mode,ox/red,error,control changes,counter inc.,time/s,control/V,Ewe/V,<I>/mA,cycle number,(Q-Qo)/C,I Range,P/W,log(|I|),Tafel slope mV/dec,alpha_eff,dI/d(E-IR),E-IR/V,
2,1,0,1,0,28779.7,2.44065e-05,-0.000268062,18.8016,15,0.0000000E+000,10,-5.03998e-06,-1.72581, , , ,-0.000268062,
2,1,0,1,0,28779.7,0.0122624,0.0118895,22.827,15,0.000319243,10,0.000271402,-1.64155,0.20828,0.283273,250.521,0.0118895,
2,1,0,1,0,28779.7,0.0250636,0.0247109,25.6219,15,0.000708021,10,0.00063314,-1.59139,0.299421,0.197047,196.384,0.0247109,
2,1,0,1,0,28779.7,0.0378704,0.0374867,27.936,15,0.00113714,10,0.00104723,-1.55384,0.378526,0.155868,169.646,0.0374867,
2,1,0,1,0,28779.7,0.0506632,0.0502783,29.9853,15,0.00160101,10,0.00150761,-1.52309,0.440139,0.134049,156.809,0.05027834,
2,1,0,1,0,28779.8,0.0634672,0.0630859,31.9643,15,0.00209696,10,0.0020165,-1.49534,0.479827,0.122961,153.367,0.0630859,
2,1,0,1,0,28779.8,0.0762629,0.0758956,33.9459,15,0.00262449,10,0.00257635,-1.46921,0.498187,0.118429,156.905,0.07589563,
2,1,0,1,0,28779.8,0.0890668,0.0886937,36.0068,15,0.00318423,10,0.00319357,-1.44362,0.507483,0.11626,163.333,0.0886937,
2,1,0,1,0,28779.8,0.10186,0.101482,38.1091,15,0.00377734,10,0.00386739,-1.41897,0.524219,0.112548,167.409,0.101482,
2,1,0,1,0,28779.8,0.114666,0.114266,40.2729,15,0.00440469,10,0.00460185,-1.39499,0.532437,0.110811,174.265,0.114266,
2,1,0,1,0,28779.8,0.127462,0.127089,42.522,15,0.00506747,10,0.00540407,-1.37139,0.560791,0.105209,174.59,0.127089,
2,1,0,1,0,28779.9,0.140263,0.139848,44.923,15,0.00576672,10,0.00628238,-1.34753,0.516436,0.114245,200.305,0.139848,
2,1,0,1,0,28779.9,0.153064,0.152704,47.5457,15,0.00650674,10,0.00726042,-1.32289,0.533585,0.110573,205.111,0.152704,
2,1,0,1,0,28779.9,0.165866,0.165523,50.1414,15,0.00728867,10,0.00829957,-1.2998,0.583862,0.101051,197.607,0.165523,
2,1,0,1,0,28779.9,0.178667,0.178277,52.506,15,0.00811068,10,0.00936061,-1.27979,0.722958,0.0816091,167.03,0.178277,
2,1,0,1,0,28779.9,0.191463,0.191088,54.3483,15,0.00896681,10,0.0103853,-1.26481,1.13433,0.0520131,110.064,0.191088,
2,1,0,1,0,28779.9,0.204269,0.203915,55.1998,15,0.00984495,10,0.0112561,-1.25806,9.82576,0.00600462,12.8912,0.203915,
2,1,0,1,0,28780,0.217062,0.216725,54.636,15,0.0107255,10,0.011841,-1.26252,-1.23203,-0.0478885,-101.743,0.216725,
2,1,0,1,0,28780,0.229866,0.2296,52.5928,15,0.0115851,10,0.0120753,-1.27907,-0.568897,-0.103709,-212.181,0.2296,
2,1,0,1,0,28780,0.242662,0.242326,49.3164,15,0.0124014,10,0.0119507,-1.30701,-0.396737,-0.148713,-285.705,0.242326,
2,1,0,1,0,28780,0.255466,0.255118,45.448,15,0.0131596,10,0.0115946,-1.34249,-0.342535,-0.172245,-305.4,0.2551181,
2,1,0,1,0,28780,0.268259,0.267937,41.6132,15,0.0138554,10,0.0111497,-1.38077,-0.33652,-0.175324,-285,0.267937,
2,1,0,1,0,28780,0.281065,0.280718,38.2448,15,0.0144933,10,0.010736,-1.41743,-0.366874,-0.160818,-240.334,0.280718,
2,1,0,1,0,28780,0.293861,0.293585,35.4272,15,0.0150817,10,0.0104009,-1.45066,-0.411615,-0.143338,-198.865,0.293585,
2,1,0,1,0,28780.1,0.298983,0.298766,32.0349,15,0.0153922,10,0.00957094,-1.49438,0.0376731,1.5661,1707.62,0.298766,
2,1,0,1,0,28780.1,0.286187,0.285955,15.6528,15,0.015756,10,0.00447599,-1.80541,0.0382199,1.5437,940.496,0.285955,
2,1,0,1,0,28780.1,0.273386,0.273116,6.10863,15,0.0159237,10,0.00166837,-2.21406,0.0212824,2.77224,605.048,0.273116,
2,0,0,1,0,28780.1,0.260585,0.260346,-0.381085,15,0.0159658,10,-9.9214e-05,-3.41898,-0.265394,-0.222311,426.254,0.260346,
2,0,0,1,0,28780.1,0.247783,0.247479,-5.02931,15,0.0159201,10,-0.00124465,-2.29849,-0.0337321,-1.74908,313.26,0.247479,
2,0,0,1,0,28780.1,0.234982,0.234654,-8.51028,15,0.0158103,10,-0.00199697,-2.07006,-0.0803413,-0.734367,238.385,0.2346544,
2,0,0,1,0,28780.2,0.222187,0.221884,-11.2053,15,0.0156513,10,-0.00248628,-1.95058,-0.134408,-0.438962,190.305,0.221884,
2,0,0,1,0,28780.2,0.20938,0.209077,-13.3945,15,0.0154536,10,-0.0028005,-1.87307,-0.197285,-0.29906,155.704,0.209077,
2,0,0,1,0,28780.2,0.196587,0.19625,-15.2522,15,0.0152238,10,-0.00299324,-1.81667,-0.261573,-0.225558,133.859,0.19625,
2,0,0,1,0,28780.2,0.183783,0.183495,-16.8801,15,0.0149663,10,-0.00309742,-1.77262,-0.314824,-0.187406,123.301,0.183495,
2,0,0,1,0,28780.2,0.170987,0.170681,-18.4192,15,0.0146837,10,-0.00314382,-1.73473,-0.347602,-0.169734,122.073,0.170681,
2,0,0,1,0,28780.2,0.158183,0.157893,-20.039,15,0.014376,10,-0.003164,-1.69812,-0.341192,-0.172923,135.458,0.157893,
2,0,0,1,0,28780.2,0.145385,0.145075,-21.9542,15,0.0140403,10,-0.00318501,-1.65848,-0.298988,-0.197333,169.581,0.145075,
2,0,0,1,0,28780.3,0.132584,0.132254,-24.5051,15,0.0136694,10,-0.0032409,-1.61074,-0.243864,-0.241938,232.112,0.132254,
2,0,0,1,0,28780.3,0.119783,0.119509,-27.9455,15,0.0132508,10,-0.00333975,-1.55369,-0.211089,-0.279502,305.485,0.119509,
2,0,0,1,0,28780.3,0.106987,0.106678,-32.2015,15,0.0127699,10,-0.00343519,-1.49212,-0.213635,-0.276172,346.736,0.106678,
2,0,0,1,0,28780.3,0.0941801,0.0938897,-36.6421,15,0.0122185,10,-0.00344032,-1.43602,-0.249571,-0.236406,337.216,0.0938897,
2,0,0,1,0,28780.3,0.0813844,0.0811478,-40.7666,15,0.0115984,10,-0.00330812,-1.3897,-0.30398,-0.194092,308.084,0.08114782,
2,0,0,1,0,28780.3,0.0685832,0.0683074,-44.3969,15,0.0109157,10,-0.00303264,-1.35265,-0.405013,-0.145674,251.636,0.0683074,
2,0,0,1,0,28780.4,0.0557876,0.0555676,-47.2154,15,0.0101816,10,-0.00262365,-1.32592,-0.565452,-0.104341,191.863,0.0555676,
2,0,0,1,0,28780.4,0.0429808,0.0426763,-49.3115,15,0.00940805,10,-0.00210443,-1.30705,-0.852186,-0.0692337,132.95,0.0426763,
2,0,0,1,0,28780.4,0.030188,0.029839,-50.6254,15,0.00860746,10,-0.00151061,-1.29563,-1.46323,-0.0403218,79.5783,0.029839,
2,0,0,1,0,28780.4,0.017384,0.01706,-51.4054,15,0.00779033,10,-0.000876978,-1.28899,-2.79198,-0.021132,42.3518,0.01706,
2,0,0,1,0,28780.4,0.00458834,0.00425563,-51.7374,15,0.00696459,10,-0.000220175,-1.2862,-9.53678,-0.00618657,12.4839,0.00425563,
2,0,0,1,0,28780.4,-0.00821564,-0.00857529,-51.7168,15,0.00613618,10,0.000443487,-1.28637,6.5132,0.00905852,-18.2662,-0.00857529,
2,0,0,1,0,28780.5,-0.0210196,-0.0214073,-51.2783,15,0.00531166,10,0.00109773,-1.29007,2.31549,0.0254806,-50.9411,-0.0214073,
2,0,0,1,0,28780.5,-0.0338153,-0.0341247,-50.4217,15,0.00449754,10,0.00172063,-1.29738,1.4854,0.03972,-78.1281,-0.0341247,
2,0,0,1,0,28780.5,-0.0466193,-0.0469843,-49.3189,15,0.00369939,10,0.00231721,-1.30699,1.23321,0.0478426,-92.0665,-0.0469843,
2,0,0,1,0,28780.5,-0.0594121,-0.0597537,-48.1505,15,0.00291981,10,0.00287717,-1.3174,1.2817,0.0460325,-86.5299,-0.0597537,
2,0,0,1,0,28780.5,-0.0722189,-0.0725634,-47.1631,15,0.0021577,10,0.00342232,-1.3264,1.64864,0.0357871,-65.9081,-0.0725634,
2,0,0,1,0,28780.5,-0.0850145,-0.0853763,-46.4538,15,0.00140926,10,0.00396605,-1.33298,2.55442,0.0230973,-41.9152,-0.08537633,
2,0,0,1,0,28780.6,-0.0978158,-0.0981585,-46.0858,15,0.000669362,10,0.00452371,-1.33643,6.74314,0.00874964,-15.7527,-0.0981585,
2,0,0,1,0,28780.6,-0.110611,-0.110931,-46.0348,15,-6.73236e-05,10,0.00510669,-1.33691,-11.8739,-0.00496889,8.93743,-0.110931,
2,0,0,1,0,28780.6,-0.123418,-0.123756,-46.3216,15,-0.000805929,10,0.00573256,-1.33422,-3.33345,-0.0176994,32.016,-0.123756,
2,0,0,1,0,28780.6,-0.136214,-0.136547,-46.8502,15,-0.00155102,10,0.00639727,-1.32929,-2.18219,-0.0270371,49.4563,-0.136547,
2,0,0,1,0,28780.6,-0.149015,-0.149384,-47.5798,15,-0.00230641,10,0.00710765,-1.32258,-1.74241,-0.0338611,62.8897,-0.149384,
2,0,0,1,0,28780.6,-0.161816,-0.162143,-48.4116,15,-0.00307441,10,0.00784962,-1.31505,-1.69211,-0.0348676,65.879,-0.162143,
2,0,0,1,0,28780.6,-0.174615,-0.174964,-49.2376,15,-0.00385585,10,0.00861479,-1.3077,-1.79108,-0.032941,63.3009,-0.174964,
2,0,0,1,0,28780.7,-0.187419,-0.18775,-50.0393,15,-0.00465024,10,0.00939488,-1.30069,-1.96325,-0.0300522,58.667,-0.18775,
2,0,0,1,0,28780.7,-0.199647,-0.199979,-50.731,15,-0.00542128,10,0.0101451,-1.29473,0.271618,0.217217,-417.872,-0.199979,
2,0,0,1,1,28780.7,-0.192535,-0.192965,-38.4378,15,-0.00586775,10,0.00741716,-1.41524,-0.0694594,-0.849417,1300.25,-0.192965,
2,0,0,1,1,28780.7,-0.179739,-0.180112,-25.6897,15,-0.00637276,10,0.00462703,-1.59024,-0.070625,-0.835399,838.347,-0.180112,
2,0,0,1,1,28780.7,-0.166932,-0.167311,-16.3575,15,-0.00670512,10,0.00273678,-1.78628,-0.0574075,-1.02774,650.366,-0.167311,
2,0,0,1,1,28780.7,-0.154139,-0.15454,-8.813,15,-0.00690391,10,0.00136196,-2.05488,-0.0361396,-1.63256,540.81,-0.15454,
2,0,0,1,1,28780.8,-0.141335,-0.141789,-2.41024,15,-0.00699174,10,0.000341745,-2.61794,-0.0119423,-4.94043,464.391,-0.141789,
2,1,0,1,1,28780.8,-0.12854,-0.128974,3.15765,15,-0.00698429,10,-0.000407255,-2.50064,0.0116847,5.04935,410.977,-0.1289739,
2,1,0,1,1,28780.8,-0.115736,-0.11621,8.11118,15,-0.00689289,10,-0.000942598,-2.09092,0.0487697,1.20977,369.559,-0.11621,
2,1,0,1,1,28780.8,-0.102932,-0.103331,12.6181,15,-0.006726,10,-0.00130384,-1.89901,0.0860113,0.685957,333.081,-0.103331,
2,1,0,1,1,28780.8,-0.0901361,-0.090532,16.6886,15,-0.00649061,10,-0.00151085,-1.77758,0.126314,0.46709,301.952,-0.090532,
2,1,0,1,1,28780.8,-0.0773322,-0.0777552,20.3907,15,-0.00619317,10,-0.00158548,-1.69057,0.17048,0.346082,273.977,-0.0777552,
2,1,0,1,1,28780.9,-0.0645393,-0.0649221,23.7251,15,-0.00583953,10,-0.00154028,-1.62479,0.217678,0.271043,250.148,-0.0649221,
2,1,0,1,1,28780.9,-0.0517325,-0.0521432,26.758,15,-0.00543489,10,-0.00139525,-1.57255,0.273941,0.215375,224.371,-0.0521432,
2,1,0,1,1,28780.9,-0.0389369,-0.0393197,29.4599,15,-0.00498436,10,-0.00115835,-1.53077,0.339874,0.173594,199.287,-0.0393197,
2,1,0,1,1,28780.9,-0.0261357,-0.0265534,31.8608,15,-0.00449297,10,-0.000846013,-1.49674,0.41826,0.141061,175.162,-0.0265534,
2,1,0,1,1,28780.9,-0.01334,-0.0137236,33.9549,15,-0.00396577,10,-0.000465983,-1.4691,0.519071,0.113665,150.402,-0.0137236,
2,1,0,1,1,28780.9,-0.000774628,-0.0011429,35.7025,15,-0.00341845,10,-4.08043e-05,-1.4473, , , ,-0.0011429,
2,1,0,0,1,28780.9,-0.000125413,-0.000554371,35.7963,15,-0.00338986,10,-1.98445e-05,-1.44616, , , ,-0.000554371,