File: Figure_codes/Fig_3-5/rawdata_trumpetplot_data/after 10th/20221101_1-115_003_TrumpetPlot_ParaChange_from10_every3_09_CV_C01_1.csv
mode,ox/red,error,control changes,counter inc.,time/s,control/V,Ewe/V,<I>/mA,cycle number,(Q-Qo)/C,I Range,P/W,log(|I|),Tafel slope mV/dec,alpha_eff,dI/d(E-IR),E-IR/V,
2,0,0,0,0,3152.65,2.44065e-05,-0.00042076,-5.10051,2,0.0000000E+000,10,2.14609e-06,-2.29239, , , ,-0.00042076,
2,1,0,1,0,3152.75,0.00978761,0.00945953,2.81501,2,3.96772e-05,10,2.66286e-05,-2.55052,0.0284094,2.07678,218.852,0.00945953,
2,1,0,1,0,3152.85,0.0197755,0.0194574,3.92255,2,0.000387527,10,7.63228e-05,-2.40643,0.14406,0.40955,62.69,0.0194574,
2,1,0,1,0,3152.95,0.0297635,0.0294843,4.4748,2,0.000808258,10,0.000131936,-2.34923,0.209266,0.281938,49.1775,0.0294843,
2,1,0,1,0,3153.05,0.0397514,0.0394887,5.00905,2,0.00128177,10,0.000197801,-2.30024,0.186611,0.316166,61.899,0.03948874,
2,1,0,1,0,3153.15,0.0497484,0.0494318,5.61329,2,0.00181169,10,0.000277475,-2.25078,0.204576,0.288402,63.0169,0.0494318,
2,1,0,1,0,3153.25,0.0597273,0.0594418,6.21565,2,0.00240138,10,0.00036947,-2.20651,0.226047,0.261008,63.2411,0.0594418,
2,1,0,1,0,3153.35,0.0697152,0.069423,6.80865,2,0.00305256,10,0.000472677,-2.16694,0.28243,0.208901,55.5394,0.069423,
2,1,0,1,0,3153.45,0.0797031,0.0794297,7.36555,2,0.0037611,10,0.000585043,-2.1328,0.32837,0.179675,51.6298,0.0794297,
2,1,0,1,0,3153.55,0.0896911,0.0894012,7.86233,2,0.00452232,10,0.000702902,-2.10445,0.354528,0.166418,51.113,0.0894012,
2,1,0,1,0,3153.65,0.099679,0.0993341,8.43514,2,0.00533423,10,0.000837898,-2.07391,0.314022,0.187885,61.7885,0.0993341,
2,1,0,1,0,3153.75,0.109667,0.109322,9.22234,2,0.00621266,10,0.00100821,-2.03516,0.224073,0.263307,94.8041,0.109322,
2,1,0,1,0,3153.85,0.119655,0.119362,10.2541,2,0.00718418,10,0.00122395,-1.9891,0.232229,0.25406,101.6,0.1193621,
2,1,0,1,0,3153.95,0.129643,0.129317,11.2112,2,0.00825765,10,0.0014498,-1.95035,0.290742,0.202929,88.7663,0.129317,
2,1,0,1,0,3154.05,0.139631,0.139288,11.9825,2,0.00941838,10,0.00166902,-1.92145,0.41658,0.14163,66.2409,0.139288,
2,1,0,1,0,3154.15,0.149619,0.149311,12.3738,2,0.0106397,10,0.00184753,-1.9075,-3.79055,-0.015565,-7.49407,0.149311,
2,1,0,1,0,3154.25,0.159607,0.159294,11.3002,2,0.0118401,10,0.00180006,-1.94691,-0.114878,-0.513587,-225.697,0.159294,
2,1,0,1,0,3154.35,0.169595,0.169301,8.40699,2,0.01283,10,0.00142331,-2.07536,-0.0673674,-0.875794,-287.701,0.169301,
2,1,0,1,0,3154.45,0.179582,0.179285,6.29623,2,0.0135507,10,0.00112882,-2.20092,-0.107951,-0.546543,-134.838,0.179285,
2,1,0,1,0,3154.55,0.18957,0.189279,5.36123,2,0.0141274,10,0.00101477,-2.27074,-0.189771,-0.310902,-65.0838,0.189279,
2,1,0,1,0,3154.65,0.199558,0.199293,4.85592,2,0.0146346,10,0.000967751,-2.31373,-0.314361,-0.187682,-35.4953,0.199293,
2,1,0,1,0,3154.74,0.209546,0.209301,4.54265,2,0.0151021,10,0.000950782,-2.34269,-0.363061,-0.162507,-28.8129,0.209301,
2,1,0,1,0,3154.84,0.219534,0.219258,4.32311,2,0.0155438,10,0.000947878,-2.3642,-0.566191,-0.104205,-17.5934,0.219258,
2,1,0,1,0,3154.94,0.229522,0.229243,4.17864,2,0.0159684,10,0.000957923,-2.37897,-0.700729,-0.084198,-13.7422,0.229243,
2,1,0,1,0,3155.04,0.23951,0.239231,4.07748,2,0.0163808,10,0.000975461,-2.38961,-1.38333,-0.0426508,-6.79759,0.239231,
2,1,0,1,0,3155.14,0.249498,0.249223,4.00095,2,0.0167839,10,0.000997128,-2.39784,-1.15546,-0.051062,-7.96671,0.249223,
2,1,0,1,0,3155.24,0.259486,0.259205,3.93798,2,0.01718,10,0.00102074,-2.40473,-1.06119,-0.0555978,-8.53132,0.259205,
2,1,0,1,0,3155.34,0.269474,0.269182,3.86713,2,0.0175696,10,0.00104096,-2.41261,-1.63734,-0.036034,-5.44463,0.269182,
2,1,0,1,0,3155.44,0.279462,0.279183,3.80917,2,0.0179535,10,0.00106346,-2.41917,-2.08879,-0.028246,-4.20268,0.279183,
2,1,0,1,0,3155.54,0.28945,0.289173,3.75764,2,0.0183316,10,0.00108661,-2.42508,-3.86454,-0.015267,-2.23981,0.289173,
2,1,0,1,0,3155.64,0.299438,0.299143,3.70206,2,0.018704,10,0.00110745,-2.43156,-0.0230781,-2.55654,-331.466,0.299143,
2,0,0,1,0,3155.73,0.291747,0.291407,-1.38837,2,0.0187096,10,-0.000404582,-2.85749,-0.0320541,-1.84064,96.5525,0.291407,
2,0,0,1,0,3155.83,0.281759,0.281434,-1.8869,2,0.0185422,10,-0.000531039,-2.72425,-0.131857,-0.447454,32.8743,0.281434,
2,0,0,1,0,3155.93,0.271771,0.271454,-2.16521,2,0.0183396,10,-0.000587755,-2.6645,-0.192844,-0.305947,25.7904,0.271454,
2,0,0,1,0,3156.03,0.261783,0.261515,-2.37395,2,0.0181131,10,-0.000620824,-2.62453,-0.320121,-0.184305,17.0205,0.261515,
2,0,0,1,0,3156.13,0.251795,0.251485,-2.53642,2,0.017868,10,-0.000637871,-2.59578,-0.359687,-0.164031,16.2309,0.251485,
2,0,0,1,0,3156.23,0.241807,0.241461,-2.68615,2,0.0176067,10,-0.000648601,-2.57087,-0.394789,-0.149447,15.7232,0.241461,
2,0,0,1,0,3156.33,0.231815,0.231523,-2.84151,2,0.0173309,10,-0.000657874,-2.54645,-0.394724,-0.149472,16.545,0.231523,
2,0,0,1,0,3156.43,0.221831,0.221538,-2.97567,2,0.0170411,10,-0.000659226,-2.52641,-0.491388,-0.120068,13.928,0.221538,
2,0,0,1,0,3156.53,0.211843,0.211534,-3.12641,2,0.0167366,10,-0.00066134,-2.50495,-0.579207,-0.101863,12.4128,0.211534,
2,0,0,1,0,3156.63,0.201856,0.201527,-3.28472,2,0.0164167,10,-0.00066196,-2.4835,-0.438869,-0.134437,17.2589,0.201527,
2,0,0,1,0,3156.73,0.191868,0.191563,-3.48096,2,0.0160792,10,-0.000666823,-2.4583,-0.35675,-0.165382,22.5216,0.191563,
2,0,0,1,0,3156.83,0.18188,0.181592,-3.75183,2,0.0157198,10,-0.000681304,-2.42576,-0.259579,-0.227291,33.1785,0.181592,
2,0,0,1,0,3156.93,0.171892,0.171607,-4.12055,2,0.0153288,10,-0.000707115,-2.38504,-0.207084,-0.284909,45.7815,0.171607,
2,0,0,1,0,3157.03,0.161904,0.161586,-4.71699,2,0.0148903,10,-0.000762197,-2.32634,-0.142347,-0.41448,76.4109,0.161586,
2,0,0,1,0,3157.13,0.151916,0.151588,-5.74125,2,0.0143724,10,-0.000870307,-2.24099,-0.100918,-0.584635,131.453,0.151588,
2,0,0,1,0,3157.23,0.141928,0.141621,-7.4364,2,0.0137195,10,-0.00105315,-2.12864,-0.0843846,-0.699179,202.834,0.141621,
2,0,0,1,0,3157.33,0.13194,0.131636,-9.52694,2,0.0128744,10,-0.00125409,-2.02105,-0.104496,-0.564617,209.566,0.131636,
2,0,0,1,0,3157.43,0.121952,0.121638,-11.3099,2,0.0118284,10,-0.00137572,-1.94654,-0.189337,-0.311613,137.243,0.1216383,
2,0,0,1,0,3157.53,0.111964,0.111635,-12.3126,2,0.0106413,10,-0.00137452,-1.90965,-0.49927,-0.118173,56.7156,0.111635,
2,0,0,1,0,3157.63,0.101976,0.101689,-12.4574,2,0.00939697,10,-0.00126679,-1.90457,0.902723,0.0653578,-31.7207,0.101689,
2,0,0,1,0,3157.73,0.0919883,0.0916884,-11.787,2,0.00818013,10,-0.00108073,-1.9286,0.29268,0.201585,-92.765,0.0916884,
2,0,0,1,0,3157.83,0.0820004,0.0816883,-10.752,2,0.00705445,10,-0.000878311,-1.96851,0.248495,0.237429,-99.6738,0.0816883,
2,0,0,1,0,3157.93,0.0720124,0.0716495,-9.92762,2,0.0060245,10,-0.000711309,-2.00315,0.348305,0.169392,-65.668,0.0716495,
2,0,0,1,0,3158.03,0.0620245,0.0617105,-9.38233,2,0.0050615,10,-0.000578988,-2.02769,0.435915,0.135347,-49.5644,0.0617105,
2,0,0,1,0,3158.13,0.0520366,0.0516954,-8.92554,2,0.0041472,10,-0.000461409,-2.04937,0.420903,0.140175,-48.8069,0.0516954,
2,0,0,1,0,3158.23,0.0420486,0.0417672,-8.42405,2,0.00327963,10,-0.000351849,-2.07448,0.366952,0.160784,-52.8421,0.0417672,
2,0,0,1,0,3158.33,0.0320607,0.0317165,-7.81028,2,0.00246858,10,-0.000247714,-2.10733,0.264809,0.222802,-67.8797,0.0317165,
2,0,0,1,0,3158.43,0.0220728,0.0217396,-7.17453,2,0.00172103,10,-0.000155971,-2.14421,0.295652,0.199559,-55.8902,0.0217396,
2,0,0,1,0,3158.53,0.0120848,0.0117486,-6.72049,2,0.00102893,10,-7.89567e-05,-2.1726,0.414779,0.142245,-37.3298,0.0117486,
2,0,0,1,0,3158.63,0.0020969,0.00168709,-6.54856,2,0.000370828,10,-1.1048e-05,-2.18385,4.58482,0.0128685,-3.26907,0.00168709,
2,0,0,1,0,3158.73,-0.00789103,-0.00823909,-6.44362,2,-0.000276365,10,5.30896e-05,-2.19087,-8.27621,-0.00712887,1.79729,-0.00823909,
2,0,0,1,0,3158.83,-0.017879,-0.0182516,-6.55241,2,-0.000924541,10,0.000119592,-2.1836,-0.92113,-0.0640518,16.3559,-0.0182516,
2,0,0,1,0,3158.93,-0.0278669,-0.0282371,-6.72566,2,-0.00158733,10,0.000189913,-2.17227,-0.86386,-0.0682981,17.9442,-0.0282371,
2,0,0,1,0,3159.03,-0.0378548,-0.0382572,-6.97773,2,-0.00227172,10,0.000266949,-2.15629,-0.673643,-0.0875834,23.8386,-0.0382572,
2,0,0,1,0,3159.13,-0.0478428,-0.048205,-7.27149,2,-0.0029837,10,0.000350522,-2.13838,-0.445111,-0.132551,37.6834,-0.048205,
2,0,0,1,0,3159.23,-0.0578216,-0.0581812,-7.64857,2,-0.00372847,10,0.000445003,-2.11642,-0.428685,-0.13763,41.0718,-0.0581812,
2,0,0,1,0,3159.33,-0.0678187,-0.0682115,-8.10315,2,-0.00451485,10,0.000552728,-2.09135,-0.359913,-0.163929,51.8181,-0.0682115,
2,0,0,1,0,3159.43,-0.0778066,-0.0781773,-8.65118,2,-0.00535129,10,0.000676326,-2.06292,-0.340355,-0.173349,58.5756,-0.0781773,
2,0,0,1,0,3159.53,-0.0877945,-0.0881577,-9.29723,2,-0.00624776,10,0.000819623,-2.03165,-0.319316,-0.18477,67.026,-0.0881577,
2,0,0,1,0,3159.63,-0.0977825,-0.0981561,-9.93668,2,-0.00720963,10,0.000975345,-2.00276,-0.362613,-0.162708,63.1273,-0.0981561,
2,0,0,1,1,3159.72,-0.0927386,-0.093075,-0.77108,2,-0.00774261,10,7.17682e-05,-3.1129,-0.00495894,-11.8977,639.232,-0.093075,
2,1,0,1,1,3159.82,-0.0827529,-0.0831266,2.89281,2,-0.00760288,10,-0.000240469,-2.53868,0.0311763,1.89246,209.137,-0.0831266,
2,1,0,1,1,3159.92,-0.0727627,-0.0730866,4.28891,2,-0.00723497,10,-0.000313462,-2.36765,0.106071,0.556231,92.4635,-0.0730866,
2,1,0,1,1,3160.02,-0.0627748,-0.0630988,4.94138,2,-0.00677061,10,-0.000311795,-2.30615,0.247166,0.238706,45.9705,-0.0630988,
2,1,0,1,1,3160.12,-0.0527868,-0.0531404,5.27525,2,-0.006258,10,-0.000280329,-2.27776,0.590499,0.0999155,20.5624,-0.0531404,
2,1,0,1,1,3160.22,-0.0427989,-0.0431221,5.44176,2,-0.00572109,10,-0.00023466,-2.26426,1.02115,0.057778,12.2804,-0.0431221,
2,1,0,1,1,3160.32,-0.0328109,-0.0331304,5.51018,2,-0.00517414,10,-0.000182554,-2.25883,6.04593,0.00975863,2.09429,-0.0331304,
2,1,0,1,1,3160.42,-0.022823,-0.023133,5.5006,2,-0.00462451,10,-0.000127245,-2.25959,-10.8175,-0.0054541,-1.16928,-0.023133,
2,1,0,1,1,3160.52,-0.0128351,-0.0132127,5.4549,2,-0.00407705,10,-7.20742e-05,-2.26321,-3.36626,-0.0175269,-3.73544,-0.0132127,
2,1,0,1,1,3160.62,-0.00284713,-0.00320917,5.42133,2,-0.00353338,10,-1.7398e-05,-2.26589,-2.58534,-0.022821,-4.82828,-0.003209169,
2,1,0,1,1,3160.65,-2.55332e-05,-0.000363498,5.42518,2,-0.00338113,10,-1.97204e-06,-2.26559, , , ,-0.000363498,