File: Figure_codes/Fig_3-5/rawdata_trumpetplot_data/after 10th/20221101_1-115_003_TrumpetPlot_ParaChange_from10_every3_12_CV_C01_28.csv
mode,ox/red,error,control changes,counter inc.,time/s,control/V,Ewe/V,<I>/mA,cycle number,(Q-Qo)/C,I Range,P/W,log(|I|),Tafel slope mV/dec,alpha_eff,dI/d(E-IR),E-IR/V,
2,1,0,1,0,56360.2,2.44065e-05,-0.000401673,13.6115,29,0.0000000E+000,10,-5.46739e-06,-1.86609, , , ,-0.000401673,
2,1,0,1,0,56360.2,0.0104008,0.0100518,16.5497,29,0.000262335,10,0.000166355,-1.78121,0.182004,0.324169,208.249,0.0100518,
2,1,0,1,0,56360.2,0.0212099,0.0208096,18.5182,29,0.000578824,10,0.000385357,-1.7324,0.265001,0.222641,160.444,0.0208096,
2,1,0,1,0,56360.2,0.0320052,0.0316661,20.1169,29,0.000927052,10,0.000637023,-1.69644,0.33213,0.177641,139.27,0.0316661,
2,1,0,1,0,56360.2,0.0428033,0.0424271,21.5252,29,0.00130216,10,0.000913251,-1.66705,0.399003,0.147869,124.096,0.0424271,
2,1,0,1,0,56360.3,0.0535986,0.0532199,22.8063,29,0.00170136,10,0.00121375,-1.64195,0.450249,0.131039,116.583,0.0532199,
2,1,0,1,0,56360.3,0.0644077,0.0640986,24.0521,29,0.00212327,10,0.00154171,-1.61885,0.484896,0.121676,114.169,0.0640986,
2,1,0,1,0,56360.3,0.075203,0.0748554,25.2781,29,0.00256737,10,0.0018922,-1.59726,0.503851,0.117098,115.533,0.07485538,
2,1,0,1,0,56360.3,0.0860011,0.0856111,26.5197,29,0.0030337,10,0.00227038,-1.57643,0.531314,0.111045,114.953,0.0856111,
2,1,0,1,0,56360.3,0.0968075,0.0963933,27.7913,29,0.00352265,10,0.00267889,-1.55609,0.544868,0.108283,117.422,0.0963933,
2,1,0,1,0,56360.4,0.107606,0.107195,29.0638,29,0.00403445,10,0.00311549,-1.53665,0.556732,0.105976,120.232,0.1071946,
2,1,0,1,0,56360.4,0.118401,0.118047,30.3841,29,0.00456959,10,0.00358675,-1.51735,0.567469,0.10397,123.324,0.118047,
2,1,0,1,0,56360.4,0.129207,0.128781,31.7601,29,0.00512899,10,0.00409011,-1.49812,0.558972,0.105551,130.856,0.128781,
2,1,0,1,0,56360.4,0.140005,0.139642,33.2953,29,0.00571417,10,0.00464942,-1.47762,0.522144,0.112996,146.787,0.139642,
2,1,0,1,0,56360.4,0.150803,0.15039,34.867,29,0.00632778,10,0.00524366,-1.45759,0.557076,0.10591,144.058,0.15039,
2,1,0,1,0,56360.4,0.161604,0.161229,36.3712,29,0.00696917,10,0.00586408,-1.43924,0.629973,0.0936548,132.851,0.161229,
2,1,0,1,0,56360.5,0.172405,0.17209,37.7087,29,0.0076364,10,0.00648931,-1.42356,0.770988,0.0765251,112.516,0.17209,
2,1,0,1,0,56360.5,0.183203,0.182831,38.7248,29,0.00832508,10,0.0070801,-1.41201,1.23548,0.0477546,72.0681,0.182831,
2,1,0,1,0,56360.5,0.194001,0.193587,39.1836,29,0.00902729,10,0.00758544,-1.4069,7.12531,0.00828034,12.6439,0.193587,
2,1,0,1,0,56360.5,0.204808,0.204388,38.9975,29,0.00973201,10,0.00797063,-1.40896,-1.88761,-0.0312564,-47.4978,0.204388,
2,1,0,1,0,56360.5,0.215603,0.215231,38.1573,29,0.0104273,10,0.00821263,-1.41842,-0.828284,-0.0712316,-105.904,0.215231,
2,1,0,1,0,56360.5,0.226401,0.226071,36.7168,29,0.0111018,10,0.00830062,-1.43514,-0.538728,-0.109517,-156.755,0.226071,
2,1,0,1,0,56360.6,0.237207,0.236874,34.857,29,0.0117463,10,0.00825671,-1.45771,-0.43959,-0.134216,-182.457,0.236874,
2,1,0,1,0,56360.6,0.248005,0.24765,32.8177,29,0.0123553,10,0.0081273,-1.48389,-0.398798,-0.147945,-189.45,0.24765,
2,1,0,1,0,56360.6,0.258801,0.258433,30.7995,29,0.0129275,10,0.0079596,-1.51146,-0.394067,-0.149721,-180.008,0.258433,
2,1,0,1,0,56360.6,0.26961,0.269263,28.944,29,0.0134646,10,0.00779356,-1.53844,-0.410956,-0.143568,-162.223,0.269263,
2,1,0,1,0,56360.6,0.280405,0.280053,27.3024,29,0.0139703,10,0.00764611,-1.5638,-0.44129,-0.133699,-142.49,0.280053,
2,1,0,1,0,56360.7,0.291203,0.290852,25.8801,29,0.0144484,10,0.00752727,-1.58703,-0.488512,-0.120775,-122.057,0.290852,
2,1,0,0,0,56360.7,0.300012,0.299727,24.8655,29,0.0148212,10,0.00745287,-1.6044,0.00268962,21.9362,19391.9,0.299727,
2,1,0,1,0,56360.7,0.290842,0.290554,14.7606,29,0.0151121,10,0.00428874,-1.8309,0.042741,1.38041,800.722,0.290554,
2,1,0,1,0,56360.7,0.280047,0.279752,7.88849,29,0.0153112,10,0.00220683,-2.10301,0.0341442,1.72797,526.151,0.2797524,
2,1,0,1,0,56360.7,0.269244,0.268872,3.03483,29,0.0154067,10,0.000815979,-2.51787,0.0164961,3.57661,383.473,0.268872,
2,0,0,1,0,56360.7,0.258443,0.258085,-0.586453,29,0.0154269,10,-0.000151355,-3.23177,-0.0290838,-2.02862,293.204,0.258085,
2,0,0,1,0,56360.8,0.247645,0.24732,-3.39556,29,0.0153897,10,-0.000839789,-2.46909,-0.0321441,-1.83548,230.761,0.24732,
2,0,0,1,0,56360.8,0.236849,0.236471,-5.63181,29,0.0153074,10,-0.00133176,-2.24935,-0.0685376,-0.860842,186.457,0.236471,
2,0,0,1,0,56360.8,0.22604,0.225747,-7.46761,29,0.0151888,10,-0.00168579,-2.12682,-0.11078,-0.532589,153.962,0.225747,
2,0,0,1,0,56360.8,0.215245,0.214877,-8.99833,29,0.0150402,10,-0.00193353,-2.04584,-0.155199,-0.380157,132.901,0.214877,
2,0,0,1,0,56360.8,0.204447,0.204097,-10.3178,29,0.014866,10,-0.00210583,-1.98641,-0.206151,-0.286199,114.871,0.204097,
2,0,0,1,0,56360.8,0.19364,0.19325,-11.4819,29,0.0146697,10,-0.00221888,-1.93999,-0.256293,-0.230205,102.882,0.19325,
2,0,0,1,0,56360.9,0.182842,0.182506,-12.5176,29,0.0144534,10,-0.00228453,-1.90248,-0.300919,-0.196066,95.7668,0.182506,
2,0,0,1,0,56360.9,0.172047,0.171705,-13.5198,29,0.0142189,10,-0.00232143,-1.86903,-0.334744,-0.176254,93.0015,0.171705,
2,0,0,1,0,56360.9,0.161241,0.160881,-14.5281,29,0.0139664,10,-0.0023373,-1.83779,-0.354876,-0.166255,94.2921,0.160881,
2,0,0,1,0,56360.9,0.150443,0.150076,-15.6102,29,0.0136953,10,-0.00234272,-1.80659,-0.330764,-0.178375,108.814,0.150076,
2,0,0,1,0,56360.9,0.139645,0.139275,-16.932,29,0.0134027,10,-0.0023582,-1.77129,-0.280875,-0.210058,139.15,0.139275,
2,0,0,1,0,56361,0.128849,0.128537,-18.6695,29,0.0130828,10,-0.00239973,-1.72887,-0.233409,-0.252775,184.589,0.1285374,
2,0,0,1,0,56361,0.118043,0.117723,-20.9626,29,0.0127268,10,-0.00246779,-1.67856,-0.206519,-0.285687,233.783,0.117723,
2,0,0,1,0,56361,0.107245,0.106933,-23.6289,29,0.0123256,10,-0.00252671,-1.62656,-0.212422,-0.277749,255.958,0.106933,
2,0,0,1,0,56361,0.0964468,0.0960985,-26.3725,29,0.0118753,10,-0.00253436,-1.57885,-0.243508,-0.242292,248.968,0.0960985,
2,0,0,1,0,56361,0.0856404,0.085346,-28.9313,29,0.011377,10,-0.00246917,-1.53863,-0.290139,-0.203351,229.289,0.085346,
2,0,0,1,0,56361,0.0748451,0.0745733,-31.2301,29,0.0108346,10,-0.00232893,-1.50543,-0.370158,-0.159391,193.967,0.0745733,
2,0,0,1,0,56361.1,0.0640471,0.0638123,-33.0951,29,0.0102548,10,-0.00211187,-1.48024,-0.500293,-0.117931,152.125,0.0638123,
2,0,0,1,0,56361.1,0.0532407,0.0529357,-34.5407,29,0.0096453,10,-0.00182844,-1.46167,-0.677965,-0.0870251,117.196,0.0529357,
2,0,0,1,0,56361.1,0.0424426,0.0421079,-35.6215,29,0.00901312,10,-0.00149995,-1.44829,-0.983541,-0.0599873,83.3148,0.0421079,
2,0,0,1,0,56361.1,0.0316473,0.0312939,-36.3616,29,0.00836473,10,-0.0011379,-1.43936,-1.53532,-0.0384284,54.4992,0.0312939,
2,0,0,1,0,56361.1,0.0208437,0.0204639,-36.8315,29,0.00770564,10,-0.000753718,-1.43378,-2.74492,-0.0214942,30.8763,0.0204639,
2,0,0,1,0,56361.2,0.0100429,0.00968491,-37.0698,29,0.00704023,10,-0.000359018,-1.43098,-7.75837,-0.00760469,10.9933,0.00968491,
2,0,0,1,0,56361.2,-0.000755208,-0.00119804,-37.1194,29,0.00637237,10,4.44705e-05,-1.4304,17.0834,0.00345364,-4.99708,-0.00119804,
2,0,0,1,0,56361.2,-0.0115505,-0.0119665,-36.9149,29,0.00570587,10,0.000441741,-1.4328,3.06238,0.0192661,-27.7372,-0.0119665,
2,0,0,1,0,56361.2,-0.0223597,-0.0227614,-36.5226,29,0.00504474,10,0.000831307,-1.43744,1.8995,0.0310608,-44.2509,-0.0227614,
2,0,0,1,0,56361.2,-0.033155,-0.033586,-35.9916,29,0.00439206,10,0.00120882,-1.4438,1.67913,0.0351372,-49.3498,-0.033586,
2,0,0,1,0,56361.2,-0.043953,-0.0443555,-35.4117,29,0.00374947,10,0.00157071,-1.45085,1.5507,0.0380474,-52.5939,-0.0443555,
2,0,0,1,0,56361.3,-0.0547594,-0.0551569,-34.8691,29,0.00311709,10,0.00192327,-1.45756,1.69179,0.0348743,-47.4692,-0.0551569,
2,0,0,1,0,56361.3,-0.0655575,-0.0659624,-34.4135,29,0.00249371,10,0.00227,-1.46327,2.27069,0.0259833,-34.9155,-0.0659624,
2,0,0,1,0,56361.3,-0.0763528,-0.0767414,-34.0992,29,0.00187727,10,0.00261682,-1.46726,3.48202,0.0169442,-22.564,-0.0767414,
2,0,0,1,0,56361.3,-0.0871592,-0.0875639,-33.9413,29,0.00126518,10,0.00297204,-1.46927,7.56781,0.00779618,-10.3284,-0.0875639,
2,0,0,1,0,56361.3,-0.0979573,-0.098291,-33.9103,29,0.000654799,10,0.00333308,-1.46967,16.0824,0.00366861,-4.85095,-0.098291,
2,0,0,1,1,56361.3,-0.0955546,-0.0960101,-26.9341,29,0.000311486,10,0.00258594,-1.5697,-0.0499861,-1.18033,1261.45,-0.0960101,
2,0,0,1,1,56361.4,-0.0847538,-0.085213,-16.8081,29,-7.46377e-05,10,0.00143227,-1.77448,-0.0499465,-1.18126,775.166,-0.08521302,
2,0,0,1,1,56361.4,-0.0739557,-0.0743894,-9.59327,29,-0.000308869,10,0.000713638,-2.01803,-0.0367779,-1.60423,592.054,-0.0743894,
2,0,0,1,1,56361.4,-0.0631604,-0.0635807,-3.87711,29,-0.000427779,10,0.000246509,-2.41149,-0.0167249,-3.52768,479.191,-0.0635807,
2,1,0,1,1,56361.4,-0.0523512,-0.052789,0.842074,29,-0.000453301,10,-4.44522e-05,-3.07465,0.0262486,2.24774,398.664,-0.052789,
2,1,0,1,1,56361.4,-0.0415559,-0.0420364,4.77671,29,-0.000401437,10,-0.000200796,-2.32087,0.0307637,1.91784,339.02,-0.0420364,
2,1,0,1,1,56361.5,-0.0307579,-0.0311916,8.12047,29,-0.000284211,10,-0.000253291,-2.09042,0.0642292,0.918586,286.903,-0.0311916,
2,1,0,1,1,56361.5,-0.0199515,-0.020385,10.9766,29,-0.000111259,10,-0.000223759,-1.95953,0.103014,0.572736,243.607,-0.020385,
2,1,0,1,1,56361.5,-0.0091534,-0.00955511,13.4073,29,0.000109053,10,-0.000128108,-1.87266,0.148623,0.396977,206.7,-0.00955511,
2,1,0,0,1,56361.5,-7.54729e-05,-0.000401673,15.0922,29,0.000325093,10,-6.06214e-06,-1.82125, , , ,-0.000401673,