File: Figure_codes/Fig_3-5/rawdata_trumpetplot_data/after 10th/20221101_1-115_003_TrumpetPlot_ParaChange_from10_every3_06_CV_C01_23.csv
mode,ox/red,error,control changes,counter inc.,time/s,control/V,Ewe/V,<I>/mA,cycle number,(Q-Qo)/C,I Range,P/W,log(|I|),Tafel slope mV/dec,alpha_eff,dI/d(E-IR),E-IR/V,
2,0,0,0,0,46463,2.44065e-05,-0.000382585,-1.41344,24,0.0000000E+000,10,5.4076e-07,-2.84972, , , ,-0.000382585,
2,1,0,1,0,46463.2,0.00729063,0.00698086,1.06534,24,6.18851e-05,10,7.43702e-06,-2.97251,0.0233099,2.53111,99.625,0.00698086,
2,1,0,1,0,46463.4,0.014778,0.0144343,1.4832,24,0.000309901,10,2.1409e-05,-2.8288,0.0943732,0.625177,36.029,0.0144343,
2,1,0,1,0,46463.6,0.0222743,0.0219564,1.69094,24,0.000611875,10,3.7127e-05,-2.77187,0.162149,0.363862,24.0632,0.0219564,
2,1,0,1,0,46463.8,0.0297626,0.0294555,1.87014,24,0.000948416,10,5.50858e-05,-2.72813,0.183711,0.321156,23.3684,0.0294555,
2,1,0,1,0,46463.9,0.0372544,0.0369142,2.03367,24,0.00131712,10,7.50713e-05,-2.69172,0.222056,0.265699,21.1168,0.0369142,
2,1,0,1,0,46464.1,0.0447472,0.0444084,2.20581,24,0.00171731,10,9.79563e-05,-2.65643,0.221613,0.26623,22.9221,0.0444084,
2,1,0,1,0,46464.3,0.0522345,0.0518795,2.37262,24,0.00214853,10,0.000123091,-2.62477,0.240305,0.245521,22.6648,0.05187951,
2,1,0,1,0,46464.5,0.0597309,0.0593684,2.5223,24,0.00261023,10,0.000149745,-2.5982,0.292031,0.202033,19.8947,0.0593684,
2,1,0,1,0,46464.7,0.0672182,0.0668994,2.66428,24,0.0030989,10,0.000178238,-2.57442,0.340014,0.173522,18.0242,0.0668994,
2,1,0,1,0,46464.9,0.0747074,0.0744037,2.79299,24,0.00361254,10,0.000207809,-2.55393,0.446651,0.132094,14.3496,0.0744037,
2,1,0,1,0,46465.1,0.0822019,0.0818812,2.8865,24,0.00414773,10,0.00023635,-2.53963,0.51709,0.1141,12.8728,0.0818812,
2,1,0,1,0,46465.3,0.0896911,0.0893994,2.98306,24,0.00470024,10,0.000266684,-2.52534,0.489186,0.120608,14.0544,0.0893994,
2,1,0,1,0,46465.4,0.097182,0.0968601,3.11698,24,0.00527401,10,0.000301911,-2.50627,0.309782,0.190457,23.1682,0.0968601,
2,1,0,1,0,46465.6,0.104675,0.104373,3.32994,24,0.00587935,10,0.000347556,-2.47756,0.226387,0.260616,33.9192,0.104373,
2,1,0,1,0,46465.8,0.112162,0.111896,3.60188,24,0.00653084,10,0.000403038,-2.44347,0.227694,0.259119,36.3606,0.1118965,
2,1,0,1,0,46466,0.119655,0.119334,3.85521,24,0.007233,10,0.000460057,-2.41395,0.324231,0.181969,27.3288,0.119334,
2,1,0,1,0,46466.2,0.127146,0.126851,4.00623,24,0.00797394,10,0.000508196,-2.39726,0.606882,0.0972183,15.2273,0.126851,
2,1,0,1,0,46466.4,0.134635,0.134352,4.10303,24,0.0087374,10,0.00055125,-2.3869,1.37994,0.0427553,6.83988,0.134352,
2,1,0,1,0,46466.6,0.14213,0.141819,4.08246,24,0.00951054,10,0.000578969,-2.38908,-0.551819,-0.106919,-16.989,0.141819,
2,1,0,1,0,46466.8,0.149619,0.149313,3.75327,24,0.0102535,10,0.00056041,-2.42559,-0.124771,-0.472866,-69.0817,0.149313,
2,1,0,1,0,46466.9,0.157106,0.156764,3.13533,24,0.010903,10,0.000491506,-2.50372,-0.0828433,-0.712188,-86.8733,0.156764,
2,1,0,1,0,46467.1,0.164602,0.164309,2.56915,24,0.0114371,10,0.000422134,-2.59021,-0.0991827,-0.594862,-59.9287,0.164309,
2,1,0,1,0,46467.3,0.172091,0.171778,2.22837,24,0.0118869,10,0.000382785,-2.65201,-0.146595,-0.402469,-35.1364,0.171778,
2,1,0,1,0,46467.5,0.179582,0.179272,2.03362,24,0.012287,10,0.000364572,-2.69173,-0.234018,-0.252118,-19.9851,0.179272,
2,1,0,1,0,46467.7,0.187074,0.186763,1.91478,24,0.0126587,10,0.000357612,-2.71788,-0.40016,-0.147441,-11.0295,0.186763,
2,1,0,1,0,46467.9,0.194563,0.194275,1.84604,24,0.0130133,10,0.000358641,-2.73376,-0.650521,-0.0906965,-6.52944,0.194275,
2,1,0,1,0,46468.1,0.202059,0.201733,1.80135,24,0.0133575,10,0.000363391,-2.7444,-0.811347,-0.0727186,-5.09549,0.201733,
2,1,0,1,0,46468.3,0.209546,0.209198,1.76701,24,0.0136941,10,0.000369655,-2.75276,-0.889692,-0.0663151,-4.58312,0.209198,
2,1,0,1,0,46468.4,0.217035,0.216739,1.73907,24,0.0140254,10,0.000376925,-2.75968,-1.66289,-0.0354803,-2.41114,0.216739,
2,1,0,1,0,46468.6,0.22453,0.224197,1.72377,24,0.0143528,10,0.000386464,-2.76352,-1.94828,-0.0302831,-2.0378,0.224197,
2,1,0,1,0,46468.8,0.232019,0.231739,1.70305,24,0.0146765,10,0.000394664,-2.76877,-5.50992,-0.010708,-0.714047,0.231739,
2,1,0,1,0,46469,0.23951,0.239189,1.69394,24,0.0149977,10,0.000405172,-2.7711,-3.08029,-0.019154,-1.26363,0.239189,
2,1,0,1,0,46469.2,0.247003,0.246674,1.67919,24,0.0153163,10,0.000414214,-2.7749,-1.88015,-0.0313804,-2.05607,0.246674,
2,1,0,1,0,46469.4,0.25449,0.254203,1.66626,24,0.0156326,10,0.000423569,-2.77826,-1.56984,-0.0375834,-2.45159,0.254203,
2,1,0,1,0,46469.6,0.261983,0.261687,1.65685,24,0.0159468,10,0.000433576,-2.78072,-2.76476,-0.02134,-1.3793,0.261687,
2,1,0,1,0,46469.8,0.269474,0.269219,1.64317,24,0.0162589,10,0.000442374,-2.78432,-4.13753,-0.0142597,-0.916294,0.269219,
2,1,0,1,0,46469.9,0.276963,0.276705,1.63572,24,0.0165689,10,0.00045261,-2.78629,-1.84131,-0.0320424,-2.04395,0.276705,
2,1,0,1,0,46470.1,0.284458,0.284218,1.62598,24,0.0168767,10,0.000462134,-2.78888,-4.53732,-0.0130033,-0.821794,0.284218,
2,1,0,1,0,46470.3,0.291947,0.291664,1.6037,24,0.0171818,10,0.000467742,-2.79488,-1.05027,-0.0561758,-3.52417,0.291664,
2,1,0,1,0,46470.5,0.299434,0.299102,1.59232,24,0.0174843,10,0.000476264,-2.79797,-0.0178706,-3.30151,-178.669,0.299102,
2,0,0,1,0,46470.7,0.294196,0.293927,-0.271269,24,0.0175358,10,-7.97335e-05,-3.5666,-0.0060341,-9.77776,75.5487,0.293927,
2,0,0,1,0,46470.8,0.286701,0.286371,-0.55447,24,0.0174494,10,-0.000158784,-3.25612,-0.0538065,-1.09652,23.7767,0.286371,
2,0,0,1,0,46471,0.279212,0.278871,-0.695442,24,0.017328,10,-0.000193939,-3.15774,-0.115646,-0.510176,13.7416,0.278871,
2,0,0,1,0,46471.2,0.271725,0.271436,-0.784194,24,0.0171859,10,-0.000212859,-3.10558,-0.140653,-0.419472,12.8723,0.2714363,
2,0,0,1,0,46471.4,0.264228,0.263921,-0.864537,24,0.0170277,10,-0.00022817,-3.06322,-0.229108,-0.257521,8.66557,0.263921,
2,0,0,1,0,46471.6,0.256741,0.256484,-0.929037,24,0.016857,10,-0.000238283,-3.03197,-0.252626,-0.233547,8.41797,0.256484,
2,0,0,1,0,46471.8,0.249248,0.248928,-0.981241,24,0.0166748,10,-0.000244258,-3.00822,-0.33215,-0.177631,6.80938,0.248928,
2,0,0,1,0,46472,0.241756,0.24143,-1.03105,24,0.0164826,10,-0.000248926,-2.98672,-0.369215,-0.159799,6.45261,0.24143,
2,0,0,1,0,46472.2,0.234268,0.233933,-1.08187,24,0.0162812,10,-0.000253085,-2.96582,-0.373381,-0.158016,6.67121,0.233933,
2,0,0,1,0,46472.3,0.226772,0.226468,-1.12642,24,0.0160706,10,-0.000255099,-2.9483,-0.38192,-0.154482,6.8042,0.226468,
2,0,0,1,0,46472.5,0.219284,0.218972,-1.17423,24,0.0158519,10,-0.000257124,-2.93025,-0.397222,-0.148532,6.79297,0.218972,
2,0,0,1,0,46472.7,0.211796,0.21154,-1.21762,24,0.0156249,10,-0.000257576,-2.91449,-0.49127,-0.120097,5.6891,0.21154,
2,0,0,1,0,46472.9,0.204301,0.203972,-1.25975,24,0.015389,10,-0.000256953,-2.89972,-0.64444,-0.0915523,4.52591,0.203972,
2,0,0,1,0,46473.1,0.196812,0.196535,-1.30958,24,0.0151452,10,-0.000257378,-2.88287,-0.425642,-0.138614,7.07141,0.196535,
2,0,0,1,0,46473.3,0.189321,0.188985,-1.35907,24,0.0148922,10,-0.000256844,-2.86676,-0.439204,-0.134334,7.12744,0.188985,
2,0,0,1,0,46473.5,0.181828,0.181496,-1.41085,24,0.0146295,10,-0.000256063,-2.85052,-0.400862,-0.147183,8.11817,0.181496,
2,0,0,1,0,46473.7,0.174341,0.174016,-1.48055,24,0.014356,10,-0.000257639,-2.82958,-0.330615,-0.178455,10.2759,0.174016,
2,0,0,1,0,46473.8,0.166848,0.166521,-1.55871,24,0.0140687,10,-0.000259557,-2.80724,-0.298293,-0.197792,12.0153,0.166521,
2,0,0,1,0,46474,0.159357,0.159033,-1.66788,24,0.0137638,10,-0.000265248,-2.77783,-0.210719,-0.279994,18.2743,0.159033,
2,0,0,1,0,46474.2,0.151868,0.151544,-1.83451,24,0.0134336,10,-0.000278009,-2.73648,-0.154513,-0.381844,27.3414,0.151544,
2,0,0,1,0,46474.4,0.144373,0.144051,-2.10512,24,0.0130632,10,-0.000303246,-2.67672,-0.100651,-0.586182,48.2776,0.1440513,
2,0,0,1,0,46474.6,0.136884,0.136546,-2.53403,24,0.0126277,10,-0.000346012,-2.59619,-0.0889309,-0.663437,65.6628,0.136546,
2,0,0,1,0,46474.8,0.129393,0.1291,-3.05458,24,0.0121015,10,-0.000394345,-2.51505,-0.0995618,-0.592597,70.4209,0.1291,
2,0,0,1,0,46475,0.1219,0.121595,-3.52558,24,0.0114807,10,-0.000428692,-2.45277,-0.147613,-0.399693,54.9474,0.121595,
2,0,0,1,0,46475.2,0.114413,0.114077,-3.89453,24,0.0107809,10,-0.000444276,-2.40954,-0.240282,-0.245545,37.2164,0.114077,
2,0,0,1,0,46475.3,0.10692,0.106628,-4.08859,24,0.0100274,10,-0.000435958,-2.38843,-0.697805,-0.0845508,13.4655,0.106628,
2,0,0,1,0,46475.5,0.0994284,0.0990523,-4.10791,24,0.00925347,10,-0.000406897,-2.38638,1.34159,0.0439776,-7.05183,0.09905228,
2,0,0,1,0,46475.7,0.0919401,0.0915946,-4.0052,24,0.00848944,10,-0.000366855,-2.39738,0.565935,0.104252,-16.3014,0.0915946,
2,0,0,1,0,46475.9,0.0844447,0.08411,-3.87712,24,0.00774792,10,-0.000326105,-2.41149,0.562025,0.104978,-15.8701,0.08411,
2,0,0,1,0,46476.1,0.0769565,0.0766184,-3.76849,24,0.00702954,10,-0.000288735,-2.42383,0.644519,0.0915412,-13.4705,0.0766184,
2,0,0,1,0,46476.3,0.0694682,0.0691036,-3.68298,24,0.00632898,10,-0.000254507,-2.4338,0.686035,0.0860015,-12.3466,0.0691036,
2,0,0,1,0,46476.5,0.0619728,0.0616193,-3.59181,24,0.0056441,10,-0.000221325,-2.44469,0.66742,0.0884001,-12.3896,0.0616193,
2,0,0,1,0,46476.7,0.0544836,0.0541558,-3.48969,24,0.00497767,10,-0.000188987,-2.45721,0.690756,0.0854136,-11.6434,0.0541558,
2,0,0,1,0,46476.8,0.0469927,0.046634,-3.39025,24,0.00432983,10,-0.000158101,-2.46977,0.535356,0.110207,-14.5652,0.046634,
2,0,0,1,0,46477,0.0394999,0.0391939,-3.27637,24,0.00370263,10,-0.000128414,-2.48461,0.470419,0.12542,-16.0165,0.0391939,
2,0,0,1,0,46477.2,0.0320125,0.0316853,-3.14713,24,0.00309826,10,-9.97179e-05,-2.50208,0.409423,0.144105,-17.6983,0.0316853,
2,0,0,1,0,46477.4,0.0245198,0.0242017,-3.01681,24,0.00251767,10,-7.3012e-05,-2.52045,0.434998,0.135633,-15.9665,0.0242017,
2,0,0,1,0,46477.6,0.0170289,0.0167379,-2.90004,24,0.00195989,10,-4.85406e-05,-2.5376,0.456119,0.129352,-14.6897,0.0167379,
2,0,0,1,0,46477.8,0.0095397,0.0092514,-2.81959,24,0.00142115,10,-2.60851e-05,-2.54981,0.77812,0.0758238,-8.33966,0.009251398,
2,0,0,1,0,46478,0.00204518,0.0016872,-2.80066,24,0.000895048,10,-4.72527e-06,-2.55274,3.73977,0.0157764,-1.70359,0.0016872,
2,0,0,1,0,46478,0.000177222,-0.000242103,-2.76353,24,0.000764381,10,6.69059e-07,-2.55854, , , ,-0.000242103,