File: Figure_codes/Fig_3-5/rawdata_trumpetplot_data/after 10th/20221101_1-115_003_TrumpetPlot_ParaChange_from10_every3_12_CV_C01_10.csv
mode,ox/red,error,control changes,counter inc.,time/s,control/V,Ewe/V,<I>/mA,cycle number,(Q-Qo)/C,I Range,P/W,log(|I|),Tafel slope mV/dec,alpha_eff,dI/d(E-IR),E-IR/V,
2,1,0,1,0,20897.8,2.44065e-05,-0.000325324,17.0366,11,0.0000000E+000,10,-5.5424e-06,-1.76862, , , ,-0.000325324,
2,1,0,1,0,20897.8,0.0104008,0.0100295,20.447,11,0.000325843,10,0.000205074,-1.68937,0.198574,0.297118,235.887,0.0100295,
2,1,0,1,0,20897.9,0.0212099,0.0208637,22.5935,11,0.000714447,10,0.000471384,-1.64602,0.30645,0.192527,169.364,0.0208637,
2,1,0,1,0,20897.9,0.0320052,0.0316491,24.2573,11,0.0011368,10,0.000767721,-1.61516,0.393511,0.149932,141.803,0.0316491,
2,1,0,1,0,20897.9,0.0428033,0.0424928,25.7255,11,0.00158696,10,0.00109315,-1.58964,0.457011,0.1291,129.522,0.0424928,
2,1,0,1,0,20897.9,0.0535986,0.0533005,27.1099,11,0.00206253,10,0.00144497,-1.56687,0.48059,0.122766,129.855,0.0533005,
2,1,0,1,0,20897.9,0.0644077,0.064035,28.5424,11,0.00256343,10,0.00182771,-1.54451,0.485801,0.121449,135.232,0.064035,
2,1,0,1,0,20898,0.075203,0.0748193,30.0327,11,0.00309057,10,0.00224703,-1.52241,0.487227,0.121093,141.907,0.0748193,
2,1,0,1,0,20898,0.0860011,0.0855867,31.587,11,0.00364509,10,0.00270343,-1.50049,0.49251,0.119794,147.683,0.0855867,
2,1,0,1,0,20898,0.0968075,0.0964484,33.218,11,0.00422843,10,0.00320383,-1.47863,0.505714,0.116667,151.199,0.0964484,
2,1,0,1,0,20898,0.107606,0.107183,34.8042,11,0.00484098,10,0.00373042,-1.45837,0.514174,0.114747,156.052,0.107183,
2,1,0,1,0,20898,0.118401,0.118012,36.5478,11,0.00548334,10,0.00431307,-1.43714,0.526744,0.112009,159.793,0.118012,
2,1,0,1,0,20898,0.129207,0.128819,38.3499,11,0.00615738,10,0.00494022,-1.41624,0.505082,0.116813,174.912,0.128819,
2,1,0,1,0,20898.1,0.140005,0.139678,40.3546,11,0.00686572,10,0.00563665,-1.39411,0.479867,0.122951,193.7,0.139678,
2,1,0,1,0,20898.1,0.150803,0.15045,42.5072,11,0.00761166,10,0.00639519,-1.37154,0.497662,0.118554,196.602,0.15045,
2,1,0,1,0,20898.1,0.161604,0.161234,44.587,11,0.00839588,10,0.00718894,-1.35079,0.567809,0.103908,180.626,0.161234,
2,1,0,1,0,20898.1,0.172405,0.172067,46.3811,11,0.00921524,10,0.00798066,-1.33366,0.731468,0.0806597,145.762,0.172067,
2,1,0,1,0,20898.1,0.183203,0.182885,47.5965,11,0.0100623,10,0.00870471,-1.32242,1.55501,0.037942,70.3046,0.182885,
2,1,0,1,0,20898.1,0.194001,0.19366,47.7071,11,0.010922,10,0.00923897,-1.32142,-1.86745,-0.0315939,-58.6345,0.19366,
2,1,0,1,0,20898.2,0.204808,0.204504,46.2468,11,0.0117701,10,0.00945764,-1.33492,-0.5033,-0.117226,-210.841,0.204504,
2,1,0,1,0,20898.2,0.215603,0.215291,43.1964,11,0.012577,10,0.0092998,-1.36455,-0.294382,-0.20042,-337.01,0.215291,
2,1,0,1,0,20898.2,0.226401,0.226121,39.173,11,0.0133186,10,0.00885786,-1.40701,-0.230731,-0.255709,-390.695,0.226121,
2,1,0,1,0,20898.2,0.237207,0.236847,35.1028,11,0.0139862,10,0.00831401,-1.45466,-0.228388,-0.258333,-354.23,0.236847,
2,1,0,1,0,20898.2,0.248005,0.247713,31.622,11,0.0145853,10,0.0078332,-1.50001,-0.254232,-0.232072,-286.835,0.2477133,
2,1,0,1,0,20898.3,0.258801,0.258512,28.8597,11,0.0151283,10,0.00746059,-1.53971,-0.295804,-0.199456,-225.07,0.2585125,
2,1,0,1,0,20898.3,0.26961,0.269268,26.7615,11,0.0156277,10,0.00720602,-1.57249,-0.36156,-0.163182,-170.607,0.269268,
2,1,0,1,0,20898.3,0.280405,0.280089,25.1436,11,0.016094,10,0.00704244,-1.59957,-0.443586,-0.133007,-130.592,0.280089,
2,1,0,1,0,20898.3,0.291203,0.290853,23.8912,11,0.0165346,10,0.00694881,-1.62176,-0.534726,-0.110337,-102.953,0.290853,
2,1,0,0,0,20898.3,0.300012,0.299746,23.0522,11,0.0168794,10,0.00690981,-1.63729,0.00183161,32.2122,25126.3,0.299746,
2,1,0,1,0,20898.3,0.290842,0.290567,9.73129,11,0.0171135,10,0.0028276,-2.01183,0.0223529,2.63948,995.836,0.290567,
2,1,0,1,0,20898.4,0.280047,0.279709,1.77672,11,0.0172097,10,0.000496965,-2.75038,0.0110946,5.31791,558.036,0.279709,
2,0,0,1,0,20898.4,0.269244,0.26895,-3.02631,11,0.0171947,10,-0.000813925,-2.51909,-0.016026,-3.68151,356.88,0.26895,
2,0,0,1,0,20898.4,0.258443,0.258123,-6.17806,11,0.0171098,10,-0.0015947,-2.20915,-0.0566109,-1.0422,244.717,0.258123,
2,0,0,1,0,20898.4,0.247645,0.247318,-8.40844,11,0.0169771,10,-0.00207956,-2.07528,-0.108153,-0.545524,177.472,0.247318,
2,0,0,1,0,20898.4,0.236849,0.236524,-10.0784,11,0.0168098,10,-0.00238379,-1.99661,-0.169263,-0.34857,136.575,0.236524,
2,0,0,1,0,20898.4,0.22604,0.225764,-11.4086,11,0.0166158,10,-0.00257564,-1.94277,-0.23633,-0.249651,110.871,0.225764,
2,0,0,1,0,20898.5,0.215245,0.214984,-12.5086,11,0.0164001,10,-0.00268914,-1.90279,-0.30465,-0.193665,94.4317,0.214984,
2,0,0,1,0,20898.5,0.204447,0.204116,-13.4892,11,0.016166,10,-0.00275337,-1.87001,-0.362093,-0.162942,85.6027,0.204116,
2,0,0,1,0,20898.5,0.19364,0.193278,-14.3845,11,0.0159152,10,-0.00278022,-1.8421,-0.410908,-0.143584,80.4355,0.1932784,
2,0,0,1,0,20898.5,0.182842,0.182526,-15.2342,11,0.0156488,10,-0.00278063,-1.81718,-0.424868,-0.138867,82.5539,0.182526,
2,0,0,1,0,20898.5,0.172047,0.171707,-16.1551,11,0.0153663,10,-0.00277394,-1.79169,-0.408187,-0.144541,91.1627,0.171707,
2,0,0,1,0,20898.6,0.161241,0.160885,-17.2118,11,0.0150663,10,-0.00276912,-1.76417,-0.360651,-0.163593,110.037,0.1608851,
2,0,0,1,0,20898.6,0.150443,0.150148,-18.5635,11,0.0147448,10,-0.00278729,-1.73134,-0.292576,-0.201657,146.456,0.150148,
2,0,0,1,0,20898.6,0.139645,0.139348,-20.4399,11,0.0143944,10,-0.00284827,-1.68952,-0.228514,-0.25819,206.706,0.139348,
2,0,0,1,0,20898.6,0.128849,0.128568,-23.0676,11,0.0140036,10,-0.00296576,-1.637,-0.187476,-0.314707,284.36,0.128568,
2,0,0,1,0,20898.6,0.118043,0.117741,-26.5461,11,0.0135576,10,-0.00312557,-1.576,-0.178026,-0.331412,343.334,0.117741,
2,0,0,1,0,20898.6,0.107245,0.106945,-30.3824,11,0.013045,10,-0.00324926,-1.51738,-0.195487,-0.30181,357.433,0.106945,
2,0,0,1,0,20898.7,0.0964468,0.0962236,-34.0868,11,0.0124639,10,-0.00327995,-1.46741,-0.236971,-0.248976,330.939,0.09622363,
2,0,0,1,0,20898.7,0.0856404,0.0853534,-37.4872,11,0.0118186,10,-0.00319966,-1.42612,-0.301721,-0.195545,285.313,0.0853534,
2,0,0,1,0,20898.7,0.0748451,0.0746125,-40.2356,11,0.011118,10,-0.00300208,-1.39539,-0.410096,-0.143869,225.443,0.0746125,
2,0,0,1,0,20898.7,0.0640471,0.063754,-42.3312,11,0.0103737,10,-0.00269879,-1.37334,-0.613231,-0.0962118,158.587,0.063754,
2,0,0,1,0,20898.7,0.0532407,0.0529378,-43.5996,11,0.00959903,10,-0.00230807,-1.36052,-1.23974,-0.0475906,80.8288,0.0529378,
2,0,0,1,0,20898.8,0.0424426,0.0421397,-44.1253,11,0.00880852,10,-0.00185943,-1.35531,-4.01761,-0.0146854,25.265,0.0421397,
2,0,0,1,0,20898.8,0.0316473,0.0312843,-44.1809,11,0.00801309,10,-0.00138217,-1.35477,9.41567,0.00626615,-10.8009,0.0312843,
2,0,0,1,0,20898.8,0.0208437,0.0205106,-43.9485,11,0.00721963,10,-0.00090141,-1.35706,3.12631,0.0188721,-32.3586,0.0205106,
2,0,0,1,0,20898.8,0.0100429,0.00969446,-43.5345,11,0.00643204,10,-0.000422044,-1.36117,2.09217,0.0282004,-47.8851,0.00969446,
2,0,0,1,0,20898.8,-0.000755208,-0.00114502,-42.9619,11,0.00565349,10,4.91922e-05,-1.36692,1.51162,0.039031,-65.3487,-0.00114502,
2,0,0,1,0,20898.8,-0.0115505,-0.0119347,-42.0462,11,0.00488816,10,0.000501806,-1.37627,0.972961,0.0606396,-99.4163,-0.0119347,
2,0,0,1,0,20898.9,-0.0223597,-0.0227031,-40.8374,11,0.00414196,10,0.000927135,-1.38894,0.760656,0.0775646,-123.535,-0.0227031,
2,0,0,1,0,20898.9,-0.033155,-0.0335383,-39.4521,11,0.00341939,10,0.00132316,-1.40393,0.727713,0.0810759,-124.863,-0.03353833,
2,0,0,1,0,20898.9,-0.043953,-0.0443407,-38.1499,11,0.00272137,10,0.00169159,-1.41851,0.789093,0.0747694,-111.398,-0.0443407,
2,0,0,1,0,20898.9,-0.0547594,-0.05516,-37.1138,11,0.00204466,10,0.0020472,-1.43046,1.04576,0.0564185,-81.7729,-0.05516,
2,0,0,1,0,20898.9,-0.0655575,-0.0659751,-36.4006,11,0.0013836,10,0.00240153,-1.43889,1.79958,0.0327854,-46.6268,-0.0659751,
2,0,0,1,0,20899,-0.0763528,-0.0767149,-36.042,11,0.000732043,10,0.00276496,-1.44319,4.35315,0.0135534,-19.0839,-0.0767149,
2,0,0,1,0,20899,-0.0871592,-0.0875237,-35.9863,11,8.42521e-05,10,0.00314965,-1.44386,-13.4789,-0.00437722,6.15094,-0.0875237,
2,0,0,1,0,20899,-0.0979573,-0.0983154,-36.1726,11,-0.000564827,10,0.00355633,-1.44162,-4.83429,-0.0122045,17.2013,-0.0983154,
2,0,0,1,1,20899,-0.0955546,-0.0960186,-27.3412,11,-0.000926081,10,0.00262526,-1.56318,-0.0380125,-1.55212,1673.69,-0.0960186,
2,0,0,1,1,20899,-0.0847538,-0.0851865,-13.9908,11,-0.00128755,10,0.00119182,-1.85416,-0.0318131,-1.85458,1000.07,-0.0851865,
2,0,0,1,1,20899,-0.0739557,-0.0743226,-4.79016,11,-0.00145148,10,0.000356018,-2.31965,-0.0125762,-4.6914,737.519,-0.0743226,
2,1,0,1,1,20899.1,-0.0631604,-0.063621,2.15272,11,-0.00147185,10,-0.000136958,-2.66701,0.0116509,5.064,565.036,-0.063621,
2,1,0,1,1,20899.1,-0.0523512,-0.0528335,7.58903,11,-0.00138178,10,-0.000400955,-2.11981,0.0373033,1.58163,448.162,-0.05283349,
2,1,0,1,1,20899.1,-0.0415559,-0.0420216,11.9392,11,-0.00120429,10,-0.000501706,-1.92302,0.0752295,0.784266,359.901,-0.0420216,
2,1,0,1,1,20899.1,-0.0307579,-0.0311598,15.4012,11,-0.000956789,10,-0.000479898,-1.81245,0.123683,0.477025,284.568,-0.0311598,
2,1,0,1,1,20899.1,-0.0199515,-0.0203522,18.1364,11,-0.000653732,10,-0.000369115,-1.74145,0.184478,0.319821,225.324,-0.02035217,
2,1,0,1,1,20899.1,-0.0091534,-0.00955086,20.2866,11,-0.00030691,10,-0.000193755,-1.69279,0.263165,0.224194,177.025,-0.00955086,
2,1,0,0,1,20899.2,-7.54729e-05,-0.000401673,21.6802,11,1.0951e-05,10,-8.70837e-06,-1.66394, , , ,-0.000401673,