File: Figure_codes/Fig_3-5/rawdata_trumpetplot_data/after 10th/20221101_1-115_003_TrumpetPlot_ParaChange_from10_every3_13_CV_C01_26.csv
mode,ox/red,error,control changes,counter inc.,time/s,control/V,Ewe/V,<I>/mA,cycle number,(Q-Qo)/C,I Range,P/W,log(|I|),Tafel slope mV/dec,alpha_eff,dI/d(E-IR),E-IR/V,
2,1,0,1,0,52421.2,2.44065e-05,-0.000268062,16.0603,27,0.0000000E+000,10,-4.30514e-06,-1.79425, , , ,-0.000268062,
2,1,0,1,0,52421.3,0.0122624,0.011934,20.0269,27,0.000277502,10,0.000239002,-1.69839,0.185849,0.317462,246.266,0.011934,
2,1,0,1,0,52421.3,0.0250636,0.0247066,22.8365,27,0.000621549,10,0.000564214,-1.64137,0.262522,0.224743,199.543,0.02470663,
2,1,0,1,0,52421.3,0.0378704,0.037493,25.2005,27,0.00100646,10,0.000944842,-1.59859,0.334793,0.176228,172.908,0.037493,
2,1,0,1,0,52421.3,0.0506632,0.050325,27.287,27,0.00142687,10,0.00137322,-1.56404,0.396611,0.14876,158.288,0.050325,
2,1,0,1,0,52421.3,0.0634672,0.0631305,29.2523,27,0.00187962,10,0.00184671,-1.53384,0.448547,0.131536,150.092,0.0631305,
2,1,0,1,0,52421.3,0.0762628,0.0759285,31.1567,27,0.00236321,10,0.00236568,-1.50645,0.483746,0.121965,148.263,0.0759285,
2,1,0,1,0,52421.4,0.0890668,0.0886396,33.0763,27,0.00287723,10,0.00293187,-1.48048,0.506021,0.116596,150.439,0.0886396,
2,1,0,1,0,52421.4,0.10186,0.101515,34.9942,27,0.00342198,10,0.00355244,-1.456,0.531209,0.111067,151.687,0.101515,
2,1,0,1,0,52421.4,0.114666,0.114271,36.9414,27,0.00399777,10,0.00422132,-1.43249,0.550582,0.107159,154.545,0.114271,
2,1,0,1,0,52421.4,0.127462,0.12708,38.9705,27,0.00460522,10,0.00495238,-1.40926,0.549151,0.107439,163.464,0.1270804,
2,1,0,1,0,52421.4,0.140263,0.13985,41.11,27,0.00524612,10,0.00574922,-1.38605,0.552166,0.106852,171.473,0.13985,
2,1,0,1,0,52421.4,0.153064,0.152669,43.4284,27,0.00592219,10,0.00663018,-1.36223,0.547482,0.107766,182.463,0.152669,
2,1,0,1,0,52421.5,0.165866,0.165502,45.6739,27,0.00663546,10,0.00755912,-1.34033,0.629288,0.0937568,166.96,0.1655021,
2,1,0,1,0,52421.5,0.178667,0.178274,47.6647,27,0.00738276,10,0.00849736,-1.3218,0.775762,0.0760542,141.309,0.178274,
2,1,0,1,0,52421.5,0.191463,0.191126,49.2121,27,0.00815888,10,0.00940569,-1.30793,1.19398,0.0494144,94.7341,0.191126,
2,1,0,1,0,52421.5,0.204269,0.203926,50.0254,27,0.00895408,10,0.0102015,-1.30081,4.14414,0.014237,27.7315,0.203926,
2,1,0,1,0,52421.5,0.217062,0.216722,49.9273,27,0.00975493,10,0.0108203,-1.30166,-2.65673,-0.0222077,-43.1703,0.216722,
2,1,0,1,0,52421.5,0.229866,0.229487,48.9242,27,0.0105468,10,0.0112275,-1.31048,-1.00911,-0.0584676,-111.386,0.229487,
2,1,0,1,0,52421.5,0.242662,0.242309,47.0849,27,0.0113158,10,0.0114091,-1.32712,-0.636886,-0.0926382,-169.967,0.242309,
2,1,0,1,0,52421.6,0.255466,0.255156,44.6661,27,0.0120503,10,0.0113968,-1.35002,-0.50567,-0.116677,-203.19,0.255156,
2,1,0,1,0,52421.6,0.268259,0.267919,41.9491,27,0.0127432,10,0.011239,-1.37728,-0.450034,-0.131101,-214.607,0.267919,
2,1,0,1,0,52421.6,0.281065,0.280709,39.269,27,0.0133926,10,0.0110232,-1.40595,-0.445696,-0.132377,-202.913,0.280709,
2,1,0,1,0,52421.6,0.293861,0.293495,36.7856,27,0.0140004,10,0.0107964,-1.43432,-0.464741,-0.126952,-182.697,0.2934953,
2,1,0,1,0,52421.6,0.298983,0.298788,33.6435,27,0.0143237,10,0.0100523,-1.4731,0.0456989,1.29106,1521.34,0.298788,
2,1,0,1,0,52421.6,0.286187,0.28592,19.2427,27,0.0147319,10,0.00550186,-1.71573,0.0525237,1.1233,845.667,0.28592,
2,1,0,1,0,52421.7,0.273386,0.27311,10.2891,27,0.014963,10,0.00281006,-1.98762,0.039066,1.51026,595.688,0.27311,
2,1,0,1,0,52421.7,0.260585,0.2603,3.75916,27,0.0150722,10,0.000978511,-2.42491,0.0164618,3.58404,440.931,0.2603,
2,0,0,1,0,52421.7,0.247783,0.24747,-1.20386,27,0.0150905,10,-0.000297921,-2.91942,-0.0279183,-2.11331,340.836,0.24747,
2,0,0,1,0,52421.7,0.234982,0.234652,-5.10864,27,0.0150384,10,-0.00119875,-2.29169,-0.0404836,-1.45738,272.869,0.234652,
2,0,0,1,0,52421.7,0.222187,0.221863,-8.22954,27,0.0149305,10,-0.00182583,-2.08462,-0.0837324,-0.704626,222.384,0.2218627,
2,0,0,1,0,52421.7,0.20938,0.209047,-10.8261,27,0.0147771,10,-0.00226317,-1.96553,-0.133272,-0.442702,185.522,0.209047,
2,0,0,1,0,52421.8,0.196587,0.196244,-13.0186,27,0.0145856,10,-0.00255483,-1.88544,-0.187853,-0.314075,158.864,0.196244,
2,0,0,1,0,52421.8,0.183783,0.183461,-14.9455,27,0.0143613,10,-0.00274193,-1.82549,-0.240743,-0.245075,142.491,0.183461,
2,0,0,1,0,52421.8,0.170987,0.170692,-16.691,27,0.0141079,10,-0.00284902,-1.77752,-0.285357,-0.206758,134.568,0.170692,
2,0,0,1,0,52421.8,0.158183,0.157848,-18.4115,27,0.0138268,10,-0.00290622,-1.73491,-0.305351,-0.19322,138.938,0.157848,
2,0,0,1,0,52421.8,0.145385,0.145064,-20.2836,27,0.0135173,10,-0.00294241,-1.69286,-0.294729,-0.200184,158.788,0.145064,
2,0,0,1,0,52421.8,0.132584,0.132272,-22.5764,27,0.0131749,10,-0.00298623,-1.64635,-0.255765,-0.230681,203.821,0.132272,
2,0,0,1,0,52421.8,0.119782,0.119482,-25.5618,27,0.0127905,10,-0.00305416,-1.59241,-0.225884,-0.261196,260.938,0.119482,
2,0,0,1,0,52421.9,0.106987,0.106706,-29.1962,27,0.0123528,10,-0.0031154,-1.53467,-0.224236,-0.263115,299.572,0.106706,
2,0,0,1,0,52421.9,0.0941801,0.0938621,-33.0521,27,0.0118543,10,-0.00310234,-1.4808,-0.257097,-0.229486,295.477,0.0938621,
2,0,0,1,0,52421.9,0.0813844,0.0811192,-36.656,27,0.0112955,10,-0.00297351,-1.43585,-0.314578,-0.187553,267.903,0.0811192,
2,0,0,1,0,52421.9,0.0685832,0.068336,-39.8736,27,0.0106823,10,-0.00272481,-1.39931,-0.403842,-0.146097,226.78,0.068336,
2,0,0,1,0,52421.9,0.0557876,0.0554955,-42.4555,27,0.0100224,10,-0.00235609,-1.37207,-0.552112,-0.106862,176.696,0.0554955,
2,0,0,1,0,52421.9,0.0429808,0.0427569,-44.4484,27,0.00932633,10,-0.00190047,-1.35214,-0.743903,-0.0793114,137.368,0.0427569,
2,0,0,1,0,52422,0.030188,0.0299228,-45.9378,27,0.00860231,10,-0.00137459,-1.33783,-1.08139,-0.0545594,97.7109,0.0299228,
2,0,0,1,0,52422,0.017384,0.0170378,-46.9745,27,0.00785814,10,-0.000800341,-1.32814,-1.65905,-0.0355624,65.1379,0.0170378,
2,0,0,1,0,52422,0.00458834,0.00424397,-47.6184,27,0.00710072,10,-0.000202091,-1.32223,-2.9604,-0.0199298,37.0155,0.00424397,
2,0,0,1,0,52422,-0.00821564,-0.00860286,-47.9208,27,0.00633567,10,0.000412256,-1.31948,-18.7134,-0.00315283,5.88976,-0.00860286,
2,0,0,1,0,52422,-0.0210196,-0.0214052,-47.8224,27,0.00556937,10,0.00102365,-1.32037,5.33411,0.0110609,-20.622,-0.0214052,
2,0,0,1,0,52422,-0.0338153,-0.0342149,-47.4029,27,0.00480721,10,0.00162188,-1.3242,2.71816,0.0217059,-40.1385,-0.0342149,
2,0,0,1,0,52422.1,-0.0466193,-0.0469885,-46.8068,27,0.00405336,10,0.00219938,-1.32969,2.11823,0.0278534,-50.8718,-0.0469885,
2,0,0,1,0,52422.1,-0.0594121,-0.0597898,-46.1352,27,0.0033098,10,0.00275842,-1.33597,2.07296,0.0284617,-51.2574,-0.0597898,
2,0,0,1,0,52422.1,-0.0722189,-0.0725687,-45.546,27,0.00257652,10,0.00330521,-1.34155,2.52761,0.0233422,-41.4982,-0.07256873,
2,0,0,1,0,52422.1,-0.0850146,-0.0854039,-45.0762,27,0.00185183,10,0.00384969,-1.34605,3.58858,0.0164411,-28.9401,-0.0854039,
2,0,0,1,0,52422.1,-0.0978158,-0.0981648,-44.7994,27,0.00113299,10,0.00439772,-1.34873,8.09671,0.00728691,-12.7508,-0.0981648,
2,0,0,1,0,52422.1,-0.110611,-0.110946,-44.7383,27,0.000416782,10,0.00496354,-1.34932,-30.2313,-0.00195162,3.41043,-0.110946,
2,0,0,1,0,52422.2,-0.123418,-0.123813,-44.9141,27,-0.000300256,10,0.00556095,-1.34762,-4.61474,-0.0127851,22.4242,-0.1238129,
2,0,0,1,0,52422.2,-0.136214,-0.136601,-45.2711,27,-0.0010215,10,0.00618409,-1.34418,-3.15692,-0.0186891,33.0382,-0.1366014,
2,0,0,1,0,52422.2,-0.149015,-0.149392,-45.8031,27,-0.00175001,10,0.00684262,-1.3391,-2.24959,-0.026227,46.8873,-0.149392,
2,0,0,1,0,52422.2,-0.161816,-0.162206,-46.4065,27,-0.00248779,10,0.00752741,-1.33342,-2.22421,-0.0265263,48.0503,-0.162206,
2,0,0,1,0,52422.2,-0.174615,-0.174951,-47.0003,27,-0.00323537,10,0.00822275,-1.3279,-2.51634,-0.0234467,43.0042,-0.174951,
2,0,0,1,0,52422.2,-0.187419,-0.187741,-47.515,27,-0.00399173,10,0.0089205,-1.32317,-3.16353,-0.0186501,34.568,-0.187741,
2,0,0,1,0,52422.2,-0.199647,-0.199993,-47.8783,27,-0.00472179,10,0.00957532,-1.31986,0.246312,0.239534,-435.235,-0.199993,
2,0,0,1,1,52422.3,-0.192535,-0.192933,-36.6104,27,-0.00514392,10,0.00706337,-1.4364,-0.0743822,-0.793201,1159.69,-0.1929334,
2,0,0,1,1,52422.3,-0.179739,-0.180162,-25.5293,27,-0.00563379,10,0.0045994,-1.59296,-0.0815317,-0.723645,722.714,-0.180162,
2,0,0,1,1,52422.3,-0.166932,-0.167309,-17.4649,27,-0.00597426,10,0.00292203,-1.75783,-0.0707802,-0.833566,565.557,-0.167309,
2,0,0,1,1,52422.3,-0.154139,-0.154576,-10.8931,27,-0.00619888,10,0.00168382,-1.96285,-0.0522062,-1.13013,472.553,-0.154576,
2,0,0,1,1,52422.3,-0.141335,-0.141751,-5.23549,27,-0.00632629,10,0.000742135,-2.28104,-0.0270526,-2.18094,412.64,-0.141751,
2,0,0,1,1,52422.3,-0.12854,-0.128986,-0.244727,27,-0.00636893,10,3.15663e-05,-3.61132,-0.111941,-0.527063,371.691,-0.128986,
2,1,0,1,1,52422.4,-0.115736,-0.116193,4.26304,27,-0.00633577,10,-0.000495335,-2.37028,0.0260572,2.26425,337.329,-0.116193,
2,1,0,1,1,52422.4,-0.102932,-0.103413,8.40145,27,-0.00623359,10,-0.000868818,-2.07565,0.0607228,0.971628,311.247,-0.103413,
2,1,0,1,1,52422.4,-0.0901362,-0.0906084,12.2304,27,-0.00606763,10,-0.00110817,-1.91256,0.0972978,0.606386,286.696,-0.0906084,
2,1,0,1,1,52422.4,-0.0773322,-0.0777806,15.8024,27,-0.00584257,10,-0.00122912,-1.80128,0.135512,0.435386,266.696,-0.0777806,
2,1,0,1,1,52422.4,-0.0645393,-0.0649539,19.0677,27,-0.00556297,10,-0.00123852,-1.7197,0.177793,0.331847,245.915,-0.0649539,
2,1,0,1,1,52422.4,-0.0517325,-0.0521262,22.0879,27,-0.00523307,10,-0.00115136,-1.65585,0.223705,0.26374,226.67,-0.0521262,
2,1,0,1,1,52422.4,-0.0389369,-0.0393716,24.8463,27,-0.00485692,10,-0.000978238,-1.60474,0.277692,0.212466,205.65,-0.0393716,
2,1,0,1,1,52422.5,-0.0261357,-0.0265715,27.3627,27,-0.00443853,10,-0.000727066,-1.56284,0.337205,0.174968,186.566,-0.0265715,
2,1,0,1,1,52422.5,-0.01334,-0.0137257,29.625,27,-0.00398201,10,-0.000406623,-1.52834,0.412029,0.143194,165.304,-0.0137257,
2,1,0,1,1,52422.5,-0.000774628,-0.00120175,31.5949,27,-0.00350096,10,-3.79691e-05,-1.50038, , , ,-0.00120175,
2,1,0,0,1,52422.5,-0.000125413,-0.000516197,31.6965,27,-0.00347566,10,-1.63616e-05,-1.49899, , , ,-0.000516197,