File: Figure_codes/Fig_3-5/rawdata_trumpetplot_data/after 10th/20221101_1-115_003_TrumpetPlot_ParaChange_from10_every3_03_CV_C01_26.csv
mode,ox/red,error,control changes,counter inc.,time/s,control/V,Ewe/V,<I>/mA,cycle number,(Q-Qo)/C,I Range,P/W,log(|I|),Tafel slope mV/dec,alpha_eff,dI/d(E-IR),E-IR/V,
2,0,0,1,0,52163.4,2.44065e-05,-0.000401673,-0.098758,27,0.0000000E+000,10,3.96684e-08,-4.00543, , , ,-0.000401673,
2,1,0,1,0,52164.9,0.00729041,0.00700408,0.198545,27,0.000245889,10,1.39062e-06,-3.70214,0.0809031,0.729268,5.58226,0.00700408,
2,1,0,1,0,52166.4,0.0147815,0.0144153,0.22946,27,0.000588334,10,3.30774e-06,-3.63929,0.144971,0.406979,3.65219,0.0144153,
2,1,0,1,0,52167.9,0.0222725,0.0219262,0.25653,27,0.000972384,10,5.62473e-06,-3.59086,0.176368,0.334529,3.33399,0.0219262,
2,1,0,1,0,52169.4,0.0297635,0.0294308,0.281787,27,0.00139498,10,8.29323e-06,-3.55008,0.20785,0.283858,3.11244,0.0294308,
2,1,0,1,0,52170.9,0.0372545,0.0368918,0.306171,27,0.00185565,10,1.12952e-05,-3.51404,0.216348,0.272708,3.27029,0.0368918,
2,1,0,1,0,52172.3,0.0447456,0.044404,0.332347,27,0.00235448,10,1.47575e-05,-3.47841,0.246971,0.238894,3.09025,0.044404,
2,1,0,1,0,52173.8,0.0522367,0.0518736,0.356044,27,0.00288894,10,1.84693e-05,-3.4485,0.257209,0.229385,3.17289,0.0518736,
2,1,0,1,0,52175.3,0.0597277,0.0594248,0.375902,27,0.00345656,10,2.23379e-05,-3.42492,0.320763,0.183937,2.69144,0.0594248,
2,1,0,1,0,52176.8,0.0672187,0.0668825,0.395203,27,0.00405451,10,2.64322e-05,-3.40318,0.449132,0.131365,2.02063,0.0668825,
2,1,0,1,0,52178.3,0.0747092,0.0743644,0.409678,27,0.004678,10,3.04655e-05,-3.38756,0.548943,0.107479,1.72239,0.0743644,
2,1,0,0,0,52179.8,0.0822001,0.0818795,0.423985,27,0.00532363,10,3.47157e-05,-3.37265,0.45473,0.129747,2.15255,0.0818795,
2,1,0,1,0,52181.3,0.0896911,0.0893448,0.443568,27,0.0059938,10,3.96305e-05,-3.35304,0.337118,0.175013,3.04161,0.08934477,
2,1,0,0,0,52182.8,0.097182,0.0968291,0.473663,27,0.00670106,10,4.58644e-05,-3.32453,0.207713,0.284045,5.25209,0.0968291,
2,1,0,1,0,52184.3,0.104673,0.104378,0.515263,27,0.00746158,10,5.37822e-05,-3.28797,0.214523,0.275029,5.50685,0.104378,
2,1,0,0,0,52185.8,0.112164,0.111836,0.549548,27,0.00828071,10,6.14593e-05,-3.25999,0.317954,0.185562,3.97755,0.111836,
2,1,0,1,0,52187.3,0.119655,0.11932,0.574992,27,0.00914647,10,6.86083e-05,-3.24034,0.664751,0.088755,1.99483,0.11932,
2,1,0,0,0,52188.8,0.127146,0.126789,0.588723,27,0.010042,10,7.46435e-05,-3.23009,0.791688,0.0745243,1.71666,0.126789,
2,1,0,1,0,52190.3,0.134637,0.134321,0.585795,27,0.0109491,10,7.86844e-05,-3.23225,-0.357673,-0.164955,-3.76047,0.134321,
2,1,0,1,0,52191.8,0.142127,0.141813,0.524068,27,0.0118085,10,7.43199e-05,-3.28061,-0.100371,-0.587817,-11.9673,0.141813,
2,1,0,1,0,52193.3,0.149618,0.149299,0.421254,27,0.0125372,10,6.28928e-05,-3.37546,-0.0807678,-0.730489,-12.0507,0.149299,
2,1,0,1,0,52194.8,0.157109,0.156748,0.355079,27,0.0131322,10,5.56581e-05,-3.44967,-0.126717,-0.465604,-6.44862,0.156748,
2,1,0,1,0,52196.3,0.1646,0.164274,0.324331,27,0.0136569,10,5.32793e-05,-3.48901,-0.255579,-0.230849,-2.92068,0.164274,
2,1,0,1,0,52197.8,0.172091,0.17175,0.307853,27,0.0141495,10,5.28737e-05,-3.51166,-0.542913,-0.108673,-1.3122,0.17175,
2,1,0,1,0,52199.3,0.179582,0.179257,0.301024,27,0.0146252,10,5.39606e-05,-3.5214,-0.836792,-0.0705073,-0.831494,0.179257,
2,1,0,1,0,52200.8,0.187074,0.186759,0.29662,27,0.0150915,10,5.53964e-05,-3.5278,-8.00625,-0.00736925,-0.0850978,0.186759,
2,1,0,1,0,52202.3,0.194564,0.194213,0.292689,27,0.0155517,10,5.68439e-05,-3.53359,-1.53548,-0.0384246,-0.439566,0.194213,
2,1,0,1,0,52203.8,0.202056,0.201744,0.289859,27,0.0160068,10,5.84772e-05,-3.53781,-1.0939,-0.0539354,-0.60938,0.201744,
2,1,0,1,0,52205.3,0.209547,0.209235,0.28712,27,0.016458,10,6.00755e-05,-3.54194,-1.38726,-0.0425299,-0.47788,0.209235,
2,1,0,1,0,52206.8,0.217038,0.216679,0.285524,27,0.0169055,10,6.1867e-05,-3.54436,-2.56754,-0.0229792,-0.256215,0.216679,
2,1,0,1,0,52208.3,0.224529,0.224196,0.283794,27,0.0173503,10,6.36254e-05,-3.547,-2.39232,-0.0246622,-0.272951,0.224196,
2,1,0,1,0,52209.8,0.232019,0.231699,0.281454,27,0.017792,10,6.52127e-05,-3.55059,-1.98668,-0.0296978,-0.326694,0.231699,
2,1,0,0,0,52211.3,0.23951,0.239197,0.280046,27,0.0182312,10,6.69862e-05,-3.55277,-3.57481,-0.0165044,-0.180123,0.239197,
2,1,0,1,0,52212.8,0.247001,0.246716,0.278187,27,0.0186679,10,6.86332e-05,-3.55566,-1.55193,-0.0380171,-0.412024,0.246716,
2,1,0,0,0,52214.3,0.254492,0.254155,0.27658,27,0.0191025,10,7.02943e-05,-3.55818,-1.31564,-0.0448451,-0.484974,0.254155,
2,1,0,1,0,52215.8,0.261983,0.261661,0.275,27,0.0195342,10,7.19568e-05,-3.56067,-21.9394,-0.00268922,-0.0288987,0.261661,
2,1,0,0,0,52217.3,0.269474,0.269097,0.273011,27,0.0199638,10,7.34667e-05,-3.56382,-4.75532,-0.0124072,-0.132596,0.269097,
2,1,0,1,0,52218.8,0.276965,0.276638,0.270651,27,0.0203902,10,7.48724e-05,-3.56759,-1.62566,-0.0362929,-0.385605,0.276638,
2,1,0,0,0,52220.3,0.284456,0.284104,0.269936,27,0.0208136,10,7.66899e-05,-3.56874,-2.23029,-0.0264539,-0.278373,0.284104,
2,1,0,1,0,52221.8,0.291947,0.291643,0.268098,27,0.0212344,10,7.81889e-05,-3.57171,-1.67823,-0.0351561,-0.367378,0.291643,
2,1,0,1,0,52223.3,0.299437,0.299119,0.265348,27,0.0216523,10,7.93708e-05,-3.57618,-0.00279088,-21.1403,-114.98,0.299119,
2,0,0,1,0,52224.7,0.293744,0.29342,-0.0168706,27,0.0216957,10,-4.95017e-06,-4.77287,-0.00402991,-14.6405,6.02097,0.29342,
2,0,0,1,0,52226.2,0.286253,0.285937,-0.0453754,27,0.0216296,10,-1.29745e-05,-4.34318,-0.033689,-1.75131,3.1774,0.285937,
2,0,0,0,0,52227.7,0.278763,0.278411,-0.0679955,27,0.0215255,10,-1.89307e-05,-4.16752,-0.0596015,-0.989908,2.59839,0.278411,
2,0,0,1,0,52229.2,0.271272,0.270958,-0.0845739,27,0.0213933,10,-2.2916e-05,-4.07276,-0.107724,-0.547696,1.79739,0.270958,
2,0,0,0,0,52230.6,0.263781,0.263454,-0.098253,27,0.0212378,10,-2.58851e-05,-4.00765,-0.128173,-0.460317,1.77116,0.263454,
2,0,0,1,0,52232.1,0.25629,0.255957,-0.109964,27,0.0210635,10,-2.8146e-05,-3.95875,-0.18839,-0.313179,1.33922,0.255957,
2,0,0,0,0,52233.6,0.248799,0.248481,-0.120981,27,0.0208724,10,-3.00614e-05,-3.91728,-0.208722,-0.282673,1.33263,0.248481,
2,0,0,1,0,52235.1,0.241308,0.240993,-0.130549,27,0.0206661,10,-3.14615e-05,-3.88423,-0.20253,-0.291315,1.48447,0.2409935,
2,0,0,0,0,52236.6,0.233817,0.233469,-0.139825,27,0.0204455,10,-3.26447e-05,-3.85442,-0.243509,-0.242291,1.31821,0.233469,
2,0,0,1,0,52238.1,0.226326,0.226025,-0.148525,27,0.0202114,10,-3.35702e-05,-3.8282,-0.236983,-0.248963,1.44159,0.226025,
2,0,0,0,0,52239.6,0.218835,0.218514,-0.156716,27,0.019964,10,-3.42447e-05,-3.80489,-0.290584,-0.203039,1.24247,0.218514,
2,0,0,1,0,52241.1,0.211344,0.210957,-0.165571,27,0.0197036,10,-3.49284e-05,-3.78102,-0.35327,-0.167011,1.08235,0.210957,
2,0,0,1,0,52242.6,0.203854,0.203525,-0.174067,27,0.0194298,10,-3.5427e-05,-3.75928,-0.518523,-0.113785,0.775156,0.203525,
2,0,0,1,0,52244.1,0.196363,0.196044,-0.183467,27,0.0191429,10,-3.59676e-05,-3.73644,-0.284839,-0.207134,1.47972,0.196044,
2,0,0,1,0,52245.6,0.188871,0.188493,-0.193302,27,0.0188409,10,-3.6436e-05,-3.71376,-0.241136,-0.244675,1.83851,0.188493,
2,0,0,1,0,52247.1,0.181381,0.181047,-0.204879,27,0.0185232,10,-3.70927e-05,-3.6885,-0.319945,-0.184407,1.47658,0.181047,
2,0,0,1,0,52248.6,0.173889,0.173554,-0.218197,27,0.0181875,10,-3.7869e-05,-3.66115,-0.253573,-0.232674,1.96885,0.173554,
2,0,0,1,0,52250.1,0.166398,0.166042,-0.233905,27,0.0178305,10,-3.88379e-05,-3.63096,-0.255591,-0.230838,2.11198,0.166042,
2,0,0,1,0,52251.6,0.158907,0.158602,-0.252592,27,0.017446,10,-4.00615e-05,-3.59758,-0.17373,-0.339607,3.37519,0.158602,
2,0,0,1,0,52253.1,0.151416,0.15109,-0.285016,27,0.0170233,10,-4.30631e-05,-3.54513,-0.123597,-0.477359,5.33072,0.15109,
2,0,0,1,0,52254.6,0.143925,0.143594,-0.337291,27,0.0165398,10,-4.84329e-05,-3.47199,-0.0828123,-0.712454,9.37725,0.1435937,
2,0,0,1,0,52256.1,0.136434,0.136084,-0.416175,27,0.0159578,10,-5.66347e-05,-3.38072,-0.0826706,-0.713676,11.5699,0.136084,
2,0,0,1,0,52257.6,0.128943,0.128642,-0.504198,27,0.0152477,10,-6.4861e-05,-3.2974,-0.111806,-0.527702,10.3374,0.128642,
2,0,0,0,0,52259.1,0.121453,0.121133,-0.569015,27,0.0144192,10,-6.89262e-05,-3.24488,-0.221433,-0.266446,5.89238,0.121133,
2,0,0,1,0,52260.6,0.113962,0.113614,-0.591908,27,0.0135221,10,-6.72492e-05,-3.22775,-1.26219,-0.0467443,1.08064,0.113614,
2,0,0,0,0,52262.1,0.106471,0.106133,-0.591518,27,0.0126103,10,-6.27796e-05,-3.22803,1.44939,0.0407068,-0.941869,0.106133,
2,0,0,1,0,52263.6,0.0989798,0.0986201,-0.583871,27,0.0117072,10,-5.75814e-05,-3.23368,1.16275,0.0507417,-1.15143,0.0986201,
2,0,0,0,0,52265.1,0.0914889,0.0911379,-0.570265,27,0.0108214,10,-5.19728e-05,-3.24392,0.622887,0.0947202,-2.10338,0.0911379,
2,0,0,1,0,52266.6,0.083998,0.0836652,-0.553982,27,0.00995794,10,-4.6349e-05,-3.2565,0.408281,0.144508,-3.11852,0.0836652,
2,0,0,0,0,52268.1,0.076507,0.0761597,-0.535999,27,0.00912074,10,-4.08215e-05,-3.27084,0.491765,0.119976,-2.5091,0.0761597,
2,0,0,1,0,52269.6,0.069016,0.0686976,-0.518174,27,0.00830961,10,-3.55973e-05,-3.28552,0.539426,0.109375,-2.22078,0.0686976,
2,0,0,0,0,52271.1,0.0615251,0.061209,-0.503781,27,0.00752217,10,-3.08359e-05,-3.29776,0.515253,0.114507,-2.25406,0.061209,
2,0,0,1,0,52272.6,0.0540342,0.0536769,-0.487697,27,0.00675916,10,-2.61781e-05,-3.31185,0.627307,0.0940529,-1.78747,0.0536769,
2,0,0,1,0,52274.1,0.0465436,0.0461941,-0.470295,27,0.0060203,10,-2.17249e-05,-3.32763,0.502824,0.117337,-2.15886,0.0461941,
2,0,0,1,0,52275.6,0.0390526,0.0387087,-0.453603,27,0.00530726,10,-1.75584e-05,-3.34332,0.440627,0.1339,-2.36502,0.0387087,
2,0,0,1,0,52277.1,0.0315615,0.0312305,-0.437548,27,0.00461995,10,-1.36648e-05,-3.35897,0.461215,0.127923,-2.18545,0.0312305,
2,0,0,1,0,52278.6,0.0240706,0.023743,-0.422224,27,0.0039557,10,-1.00248e-05,-3.37446,0.529206,0.111488,-1.84308,0.023743,
2,0,0,1,0,52280.1,0.0165795,0.0162268,-0.413625,27,0.00330983,10,-6.71179e-06,-3.38339,1.23212,0.0478848,-0.773905,0.0162268,
2,0,0,1,0,52281.6,0.00908846,0.0087495,-0.409148,27,0.00267412,10,-3.57984e-06,-3.38812,4.97038,0.0118703,-0.189836,0.0087495,
2,0,0,1,0,52283.1,0.00159739,0.00124183,-0.415542,27,0.00203903,10,-5.16035e-07,-3.38138, , , ,0.00124183,
2,0,0,0,0,52283.4,0.000199195,-0.000199347,-0.413408,27,0.00191971,10,8.24118e-08,-3.38362, , , ,-0.000199347,