File: Figure_codes/Fig_3-5/rawdata_trumpetplot_data/after 10th/20221101_1-115_003_TrumpetPlot_ParaChange_from10_every3_06_CV_C01_8.csv
mode,ox/red,error,control changes,counter inc.,time/s,control/V,Ewe/V,<I>/mA,cycle number,(Q-Qo)/C,I Range,P/W,log(|I|),Tafel slope mV/dec,alpha_eff,dI/d(E-IR),E-IR/V,
2,0,0,0,0,16911.1,2.44065e-05,-0.000439847,-1.41662,9,0.0000000E+000,10,6.23095e-07,-2.84875, , , ,-0.000439847,
2,1,0,1,0,16911.2,0.00729063,0.00703437,1.40827,9,0.000131536,10,9.90626e-06,-2.85132,0.0429156,1.37479,73.2133,0.00703437,
2,1,0,1,0,16911.4,0.014778,0.0144495,1.71933,9,0.00043202,10,2.48434e-05,-2.76464,0.129986,0.453896,30.4398,0.0144495,
2,1,0,1,0,16911.6,0.0222743,0.0219635,1.91572,9,0.000776908,10,4.20761e-05,-2.71767,0.174696,0.337729,25.2648,0.02196355,
2,1,0,1,0,16911.8,0.0297626,0.029455,2.10404,9,0.00115617,10,6.19746e-05,-2.67695,0.206003,0.286404,23.3993,0.029455,
2,1,0,1,0,16912,0.0372544,0.0369258,2.28068,9,0.00156984,10,8.42157e-05,-2.64194,0.226134,0.260908,23.2637,0.0369258,
2,1,0,1,0,16912.2,0.0447472,0.0444242,2.46036,9,0.00201771,10,0.0001093,-2.609,0.248582,0.237346,22.845,0.0444242,
2,1,0,1,0,16912.4,0.0522345,0.0519167,2.63394,9,0.00249847,10,0.000136746,-2.57939,0.25805,0.228637,23.4895,0.0519167,
2,1,0,1,0,16912.6,0.0597309,0.0594585,2.79457,9,0.00301128,10,0.000166161,-2.55368,0.28994,0.20349,22.2252,0.0594585,
2,1,0,1,0,16912.7,0.0672182,0.0669128,2.94566,9,0.00355235,10,0.000197103,-2.53082,0.369875,0.159513,18.3231,0.0669128,
2,1,0,1,0,16912.9,0.0747074,0.0743896,3.07982,9,0.00411935,10,0.000229107,-2.51147,0.429355,0.137415,16.4632,0.0743896,
2,1,0,1,0,16913.1,0.0822019,0.0819269,3.17818,9,0.00470958,10,0.000260378,-2.49782,0.493228,0.11962,14.9078,0.0819269,
2,1,0,1,0,16913.3,0.0896911,0.089346,3.31324,9,0.005321,10,0.000296025,-2.47975,0.420944,0.140161,18.1282,0.089346,
2,1,0,1,0,16913.5,0.097182,0.0968906,3.49081,9,0.00596017,10,0.000338227,-2.45707,0.250836,0.235213,32.0613,0.0968906,
2,1,0,1,0,16913.7,0.104675,0.104368,3.77257,9,0.00664223,10,0.000393737,-2.42336,0.198045,0.297913,43.9193,0.104368,
2,1,0,1,0,16913.9,0.112162,0.11183,4.1018,9,0.00738259,10,0.000458704,-2.38703,0.227756,0.259049,41.3775,0.11183,
2,1,0,1,0,16914.1,0.119655,0.119344,4.36423,9,0.00817967,10,0.000520846,-2.36009,0.379703,0.155385,26.4088,0.119344,
2,1,0,1,0,16914.2,0.127146,0.126823,4.52008,9,0.00901616,10,0.00057325,-2.34485,0.551124,0.107054,18.927,0.1268228,
2,1,0,1,0,16914.4,0.134635,0.134345,4.6665,9,0.00988064,10,0.000626923,-2.33101,0.926834,0.0636576,11.5787,0.134345,
2,1,0,1,0,16914.6,0.14213,0.141833,4.64007,9,0.0107611,10,0.000658113,-2.33348,-0.398663,-0.147995,-26.7044,0.141833,
2,1,0,1,0,16914.8,0.149619,0.149298,4.14819,9,0.0115959,10,0.000619318,-2.38214,-0.0974371,-0.605519,-97.6402,0.149298,
2,1,0,1,0,16915,0.157106,0.156802,3.32405,9,0.0122989,10,0.000521218,-2.47833,-0.0722214,-0.816932,-105.768,0.156802,
2,1,0,1,0,16915.2,0.164602,0.16427,2.68724,9,0.0128597,10,0.000441431,-2.57069,-0.0972448,-0.606716,-63.8045,0.16427,
2,1,0,1,0,16915.4,0.172091,0.171764,2.32151,9,0.0133288,10,0.000398752,-2.63423,-0.148222,-0.398052,-36.2329,0.171764,
2,1,0,1,0,16915.6,0.179582,0.17927,2.12496,9,0.0137466,10,0.000380943,-2.67265,-0.218654,-0.269833,-22.3346,0.17927,
2,1,0,1,0,16915.7,0.187074,0.186794,1.99529,9,0.0141345,10,0.000372709,-2.69999,-0.392722,-0.150233,-11.7251,0.1867943,
2,1,0,1,0,16915.9,0.194563,0.194261,1.92367,9,0.0145038,10,0.000373694,-2.71587,-0.55735,-0.105858,-7.93298,0.194261,
2,1,0,1,0,16916.1,0.202059,0.201725,1.86786,9,0.0148615,10,0.000376793,-2.72866,-0.707154,-0.083433,-6.06889,0.201725,
2,1,0,1,0,16916.3,0.209546,0.209283,1.82777,9,0.0152109,10,0.000382521,-2.73808,-0.635895,-0.0927826,-6.64699,0.209283,
2,1,0,1,0,16916.5,0.217035,0.216734,1.7968,9,0.0155537,10,0.000389429,-2.7455,-1.61924,-0.0364368,-2.56128,0.216734,
2,1,0,1,0,16916.7,0.22453,0.224222,1.77451,9,0.0158921,10,0.000397885,-2.75092,-1.25571,-0.0469852,-3.25814,0.224222,
2,1,0,1,0,16916.9,0.232019,0.231704,1.75579,9,0.0162263,10,0.000406824,-2.75553,-2.27609,-0.0259217,-1.78129,0.2317035,
2,1,0,1,0,16917,0.23951,0.239243,1.74093,9,0.0165571,10,0.000416504,-2.75922,-1.23625,-0.047725,-3.23022,0.239243,
2,1,0,1,0,16917.2,0.247003,0.246721,1.7263,9,0.0168847,10,0.000425915,-2.76288,-1.34507,-0.043864,-2.94726,0.246721,
2,1,0,1,0,16917.4,0.25449,0.25419,1.70458,9,0.0172091,10,0.000433289,-2.76838,-1.29192,-0.0456686,-3.04727,0.25419,
2,1,0,1,0,16917.6,0.261983,0.261653,1.69716,9,0.0175308,10,0.000444066,-2.77028,-1.66185,-0.0355026,-2.3403,0.261653,
2,1,0,1,0,16917.8,0.269474,0.269203,1.67417,9,0.0178496,10,0.000450694,-2.7762,-1.65672,-0.0356124,-2.33255,0.269203,
2,1,0,1,0,16918,0.276963,0.276663,1.6615,9,0.0181655,10,0.000459676,-2.7795,-2.0583,-0.0286644,-1.86109,0.276663,
2,1,0,1,0,16918.2,0.284458,0.284131,1.6497,9,0.0184787,10,0.000468731,-2.7826,-1.93018,-0.030567,-1.95901,0.284131,
2,1,0,1,0,16918.4,0.291947,0.291635,1.62665,9,0.0187884,10,0.000474387,-2.78871,-1.11945,-0.0527044,-3.35176,0.291635,
2,1,0,1,0,16918.5,0.299434,0.299142,1.60955,9,0.0190949,10,0.000481484,-2.7933,-0.0111739,-5.28016,-268.197,0.299142,
2,0,0,1,0,16918.7,0.294196,0.293918,-0.4453,9,0.0191092,10,-0.000130882,-3.35135,-0.020726,-2.84667,46.2891,0.293918,
2,0,0,1,0,16918.9,0.286701,0.286355,-0.643986,9,0.0190002,10,-0.000184409,-3.19112,-0.0765805,-0.770431,19.5982,0.286355,
2,0,0,1,0,16919.1,0.279212,0.278886,-0.768702,9,0.0188633,10,-0.00021438,-3.11424,-0.15541,-0.379642,11.3303,0.278886,
2,0,0,1,0,16919.3,0.271725,0.271421,-0.855616,9,0.0187075,10,-0.000232232,-3.06772,-0.160094,-0.368533,12.2436,0.271421,
2,0,0,1,0,16919.5,0.264228,0.263917,-0.920542,9,0.0185367,10,-0.000242947,-3.03596,-0.246618,-0.239236,8.65824,0.263917,
2,0,0,1,0,16919.6,0.256741,0.256418,-0.994657,9,0.0183537,10,-0.000255048,-3.00233,-0.318737,-0.185105,7.09705,0.256418,
2,0,0,1,0,16919.8,0.249248,0.248932,-1.04424,9,0.0181596,10,-0.000259944,-2.9812,-0.36595,-0.161224,6.56203,0.248932,
2,0,0,1,0,16920,0.241756,0.241475,-1.09006,9,0.0179556,10,-0.000263223,-2.96255,-0.413545,-0.142669,6.11349,0.241475,
2,0,0,1,0,16920.2,0.234268,0.233987,-1.14629,9,0.0177425,10,-0.000268217,-2.9407,-0.392569,-0.150292,6.69683,0.233987,
2,0,0,1,0,16920.4,0.226772,0.226492,-1.18834,9,0.0175204,10,-0.000269149,-2.92506,-0.388504,-0.151865,7.04933,0.2264922,
2,0,0,1,0,16920.6,0.219284,0.219001,-1.23472,9,0.0172898,10,-0.000270404,-2.90843,-0.448623,-0.131514,6.34454,0.219001,
2,0,0,1,0,16920.8,0.211796,0.211521,-1.28487,9,0.0170507,10,-0.000271776,-2.89114,-0.662146,-0.0891043,4.44233,0.211521,
2,0,0,1,0,16921,0.204301,0.203998,-1.33167,9,0.0168023,10,-0.000271658,-2.8756,-0.725054,-0.0813732,4.23144,0.203998,
2,0,0,1,0,16921.1,0.196812,0.196488,-1.37747,9,0.0165453,10,-0.000270656,-2.86092,-0.449898,-0.131141,7.05823,0.1964881,
2,0,0,1,0,16921.3,0.189321,0.189008,-1.43434,9,0.0162781,10,-0.000271102,-2.84335,-0.410644,-0.143677,8.04895,0.189008,
2,0,0,1,0,16921.5,0.181828,0.181505,-1.49915,9,0.0159994,10,-0.000272102,-2.82416,-0.318262,-0.185382,10.8989,0.181505,
2,0,0,1,0,16921.7,0.174341,0.174013,-1.58952,9,0.0157067,10,-0.000276598,-2.79873,-0.298094,-0.197924,12.2692,0.174013,
2,0,0,1,0,16921.9,0.166848,0.166518,-1.70714,9,0.0153955,10,-0.00028427,-2.76773,-0.230431,-0.256042,16.973,0.166518,
2,0,0,1,0,16922.1,0.159357,0.159052,-1.86671,9,0.0150585,10,-0.000296904,-2.72892,-0.162631,-0.362785,26.5359,0.159052,
2,0,0,1,0,16922.3,0.151868,0.151558,-2.12955,9,0.0146826,10,-0.00032275,-2.67171,-0.11249,-0.524492,43.7163,0.1515581,
2,0,0,1,0,16922.5,0.144373,0.144063,-2.56016,9,0.0142427,10,-0.000368823,-2.59173,-0.080047,-0.737067,73.8391,0.144063,
2,0,0,1,0,16922.6,0.136884,0.136545,-3.1968,9,0.0137019,10,-0.000436509,-2.49528,-0.0780299,-0.75612,94.4507,0.136545,
2,0,0,1,0,16922.8,0.129393,0.129083,-3.88918,9,0.0130332,10,-0.000502026,-2.41014,-0.101523,-0.581151,87.9974,0.129083,
2,0,0,1,0,16923,0.1219,0.121549,-4.42736,9,0.0122477,10,-0.00053814,-2.35386,-0.182842,-0.322682,55.5382,0.121549,
2,0,0,1,0,16923.2,0.114413,0.114043,-4.71466,9,0.0113843,10,-0.000537677,-2.32655,-0.473536,-0.124595,22.9313,0.114043,
2,0,0,1,0,16923.4,0.10692,0.106607,-4.7803,9,0.0104879,10,-0.000509615,-2.32054,1.8175,0.0324621,-6.04,0.106607,
2,0,0,1,0,16923.6,0.0994284,0.0991245,-4.63931,9,0.00959937,10,-0.00045987,-2.33355,0.394791,0.149446,-27.055,0.0991245,
2,0,0,1,0,16923.8,0.0919401,0.0916282,-4.38524,9,0.00874989,10,-0.000401811,-2.35801,0.303431,0.194443,-33.3216,0.0916282,
2,0,0,1,0,16923.9,0.0844447,0.0841488,-4.15833,9,0.00794695,10,-0.000349919,-2.38108,0.387667,0.152193,-24.6512,0.0841488,
2,0,0,1,0,16924.1,0.0769565,0.0766145,-3.98545,9,0.00718248,10,-0.000305343,-2.39952,0.444221,0.132817,-20.683,0.0766145,
2,0,0,1,0,16924.3,0.0694682,0.0691286,-3.8677,9,0.006444,10,-0.000267369,-2.41255,0.667595,0.0883769,-13.3431,0.0691286,
2,0,0,1,0,16924.5,0.0619728,0.0616113,-3.76113,9,0.00572538,10,-0.000231728,-2.42468,0.572576,0.103043,-15.121,0.0616113,
2,0,0,1,0,16924.7,0.0544836,0.0541668,-3.64442,9,0.00502812,10,-0.000197406,-2.43837,0.588222,0.100302,-14.2918,0.0541668,
2,0,0,1,0,16924.9,0.0469927,0.0466725,-3.53214,9,0.00435174,10,-0.000164854,-2.45196,0.508619,0.116,-15.9697,0.0466725,
2,0,0,1,0,16925.1,0.0394999,0.0391704,-3.40689,9,0.00369875,10,-0.000133449,-2.46764,0.422336,0.139699,-18.5155,0.0391704,
2,0,0,1,0,16925.3,0.0320125,0.0317061,-3.25056,9,0.00307189,10,-0.000103062,-2.48804,0.348997,0.169056,-21.5057,0.0317061,
2,0,0,1,0,16925.4,0.0245198,0.0241957,-3.10424,9,0.00247238,10,-7.51091e-05,-2.50805,0.357377,0.165092,-20.0292,0.02419568,
2,0,0,1,0,16925.6,0.0170289,0.0166868,-2.97858,9,0.00189922,10,-4.97029e-05,-2.52599,0.439608,0.134211,-15.617,0.01668676,
2,0,0,1,0,16925.8,0.0095397,0.00921578,-2.87573,9,0.00134761,10,-2.65021e-05,-2.54125,0.821896,0.0717853,-8.08206,0.00921578,
2,0,0,1,0,16926,0.00204518,0.00167424,-2.87135,9,0.000809889,10,-4.80733e-06,-2.54191,3.06632,0.0192413,-2.1231,0.00167424,
2,0,0,1,0,16926.1,0.000177222,-0.000223779,-2.82307,9,0.000676203,10,6.31745e-07,-2.54928, , , ,-0.000223779,