File: Figure_codes/Fig_3-5/rawdata_trumpetplot_data/after 10th/20221101_1-115_003_TrumpetPlot_ParaChange_from10_every3_06_CV_C01_17.csv
mode,ox/red,error,control changes,counter inc.,time/s,control/V,Ewe/V,<I>/mA,cycle number,(Q-Qo)/C,I Range,P/W,log(|I|),Tafel slope mV/dec,alpha_eff,dI/d(E-IR),E-IR/V,
2,0,0,0,0,34642.2,2.44065e-05,-0.000401673,-1.42298,18,0.0000000E+000,10,5.71571e-07,-2.8468, , , ,-0.000401673,
2,1,0,1,0,34642.4,0.00729063,0.00695018,1.09645,18,7.00866e-05,10,7.62051e-06,-2.96001,0.0249263,2.36698,96.487,0.00695018,
2,1,0,1,0,34642.6,0.014778,0.0144527,1.49493,18,0.000322133,10,2.16057e-05,-2.82538,0.0968313,0.609307,35.5545,0.0144527,
2,1,0,1,0,34642.8,0.0222743,0.0219659,1.71253,18,0.000627031,10,3.76173e-05,-2.76636,0.156145,0.377853,25.2114,0.0219659,
2,1,0,1,0,34643,0.0297626,0.0294303,1.89468,18,0.000967583,10,5.5761e-05,-2.72246,0.190747,0.30931,22.7932,0.02943027,
2,1,0,1,0,34643.2,0.0372544,0.0369149,2.06514,18,0.00134152,10,7.62345e-05,-2.68505,0.206121,0.286239,23.1357,0.0369149,
2,1,0,1,0,34643.4,0.0447472,0.0444157,2.24218,18,0.00174822,10,9.9588e-05,-2.64933,0.223284,0.264237,23.1013,0.04441569,
2,1,0,1,0,34643.5,0.0522345,0.0519434,2.40753,18,0.00218659,10,0.000125055,-2.61843,0.247093,0.238777,22.4392,0.0519434,
2,1,0,1,0,34643.7,0.0597309,0.0594089,2.56445,18,0.00265586,10,0.000152351,-2.59101,0.287873,0.204951,20.5159,0.0594089,
2,1,0,1,0,34643.9,0.0672182,0.066911,2.71285,18,0.00315239,10,0.000181519,-2.56657,0.330549,0.178491,18.8243,0.066911,
2,1,0,1,0,34644.1,0.0747074,0.0744366,2.8326,18,0.00367408,10,0.000210849,-2.54781,0.459345,0.128444,14.1819,0.07443662,
2,1,0,1,0,34644.3,0.0822019,0.0818912,2.93278,18,0.00421751,10,0.000240169,-2.53272,0.508306,0.116072,13.2978,0.0818912,
2,1,0,1,0,34644.5,0.0896911,0.0894292,3.03774,18,0.0047792,10,0.000271663,-2.51745,0.466015,0.126605,15.0138,0.0894292,
2,1,0,1,0,34644.7,0.097182,0.0968377,3.17866,18,0.0053634,10,0.000307814,-2.49776,0.295352,0.199761,24.8271,0.0968377,
2,1,0,1,0,34644.9,0.104675,0.104348,3.40919,18,0.00598176,10,0.000355741,-2.46735,0.207532,0.284293,37.7852,0.104348,
2,1,0,1,0,34645,0.112162,0.111881,3.69023,18,0.00664829,10,0.000412866,-2.43295,0.23119,0.255201,36.6718,0.111881,
2,1,0,1,0,34645.2,0.119655,0.119308,3.9327,18,0.00736647,10,0.000469201,-2.40531,0.351344,0.167927,25.7961,0.119308,
2,1,0,1,0,34645.4,0.127146,0.126881,4.09469,18,0.00812286,10,0.000519539,-2.38778,0.622862,0.0947241,15.1232,0.126881,
2,1,0,1,0,34645.6,0.134635,0.134307,4.19063,18,0.00890222,10,0.00056283,-2.37772,1.17954,0.0500196,8.18218,0.134307,
2,1,0,1,0,34645.8,0.14213,0.141786,4.18084,18,0.0096931,10,0.000592784,-2.37874,-0.56016,-0.105327,-17.1353,0.141786,
2,1,0,1,0,34646,0.149619,0.149322,3.84037,18,0.0104532,10,0.000573452,-2.41563,-0.12156,-0.485358,-72.3766,0.149322,
2,1,0,1,0,34646.2,0.157106,0.1568,3.18412,18,0.0111154,10,0.000499271,-2.49701,-0.0813908,-0.724898,-90.1954,0.1568,
2,1,0,1,0,34646.3,0.164602,0.16431,2.62136,18,0.0116586,10,0.000430715,-2.58147,-0.099226,-0.594602,-60.9163,0.16431,
2,1,0,1,0,34646.5,0.172091,0.171799,2.2705,18,0.0121166,10,0.00039007,-2.64388,-0.149332,-0.395093,-35.1161,0.171799,
2,1,0,1,0,34646.7,0.179582,0.17927,2.06396,18,0.0125242,10,0.000370006,-2.6853,-0.2319,-0.25442,-20.6146,0.17927,
2,1,0,1,0,34646.9,0.187074,0.186755,1.94702,18,0.0129022,10,0.000363615,-2.71063,-0.405534,-0.145487,-11.0542,0.186755,
2,1,0,1,0,34647.1,0.194563,0.194233,1.87359,18,0.0132623,10,0.000363915,-2.72732,-0.540202,-0.109218,-7.99274,0.1942334,
2,1,0,1,0,34647.3,0.202059,0.201734,1.82055,18,0.0136115,10,0.000367266,-2.7398,-0.755819,-0.078061,-5.5519,0.201734,
2,1,0,1,0,34647.5,0.209546,0.209291,1.79577,18,0.0139525,10,0.000375838,-2.74575,-0.58611,-0.100664,-7.02101,0.209291,
2,1,0,1,0,34647.7,0.217035,0.216717,1.75815,18,0.0142877,10,0.000381021,-2.75494,-1.31652,-0.0448152,-3.08927,0.216717,
2,1,0,1,0,34647.8,0.22453,0.224189,1.74231,18,0.0146191,10,0.000390605,-2.75888,-1.57761,-0.0373984,-2.54385,0.224189,
2,1,0,1,0,34648,0.232019,0.231663,1.72632,18,0.0149465,10,0.000399926,-2.76288,-2.46315,-0.0239531,-1.6103,0.231663,
2,1,0,1,0,34648.2,0.23951,0.239207,1.70905,18,0.0152711,10,0.000408816,-2.76725,-2.18945,-0.0269473,-1.80066,0.239207,
2,1,0,1,0,34648.4,0.247003,0.246701,1.69702,18,0.015593,10,0.000418658,-2.77031,-1.74585,-0.0337944,-2.23182,0.246701,
2,1,0,1,0,34648.6,0.25449,0.254196,1.68212,18,0.015912,10,0.000427588,-2.77414,-1.9184,-0.0307548,-2.01987,0.254196,
2,1,0,1,0,34648.8,0.261983,0.261636,1.66676,18,0.016229,10,0.000436084,-2.77813,-1.5102,-0.0390678,-2.55184,0.2616359,
2,1,0,1,0,34649,0.269474,0.269181,1.66024,18,0.0165436,10,0.000446904,-2.77983,-12.5636,-0.0046961,-0.303456,0.269181,
2,1,0,1,0,34649.2,0.276963,0.27665,1.64355,18,0.0168557,10,0.000454687,-2.78422,-3.41163,-0.0172938,-1.1116,0.27665,
2,1,0,1,0,34649.3,0.284458,0.284175,1.63118,18,0.0171656,10,0.000463541,-2.7875,-2.14756,-0.027473,-1.75006,0.284175,
2,1,0,1,0,34649.5,0.291947,0.291639,1.61736,18,0.0174724,10,0.000471684,-2.79119,-1.34452,-0.043882,-2.76157,0.291639,
2,1,0,1,0,34649.7,0.299434,0.299159,1.59689,18,0.0177764,10,0.000477725,-2.79672,-0.0164823,-3.57959,-192.543,0.299159,
2,0,0,1,0,34649.9,0.294196,0.293853,-0.291299,18,0.0178225,10,-8.5599e-05,-3.53566,-0.00771254,-7.64988,67.8439,0.293853,
2,0,0,1,0,34650.1,0.286701,0.286375,-0.549708,18,0.0177361,10,-0.000157423,-3.25987,-0.057266,-1.03028,22.055,0.286375,
2,0,0,1,0,34650.3,0.279212,0.278911,-0.682992,18,0.017616,10,-0.000190494,-3.16558,-0.112945,-0.522377,13.9943,0.278911,
2,0,0,1,0,34650.4,0.271725,0.271406,-0.779327,18,0.0174752,10,-0.000211514,-3.10828,-0.137085,-0.43039,13.0185,0.271406,
2,0,0,1,0,34650.6,0.264228,0.263892,-0.858378,18,0.0173182,10,-0.000226519,-3.06632,-0.222491,-0.26518,8.86874,0.263892,
2,0,0,1,0,34650.8,0.256741,0.256452,-0.922336,18,0.0171485,10,-0.000236535,-3.03511,-0.268237,-0.219955,7.89817,0.256452,
2,0,0,1,0,34651,0.249248,0.248913,-0.9815,18,0.0169673,10,-0.000244308,-3.00811,-0.302933,-0.194762,7.41374,0.248913,
2,0,0,1,0,34651.2,0.241756,0.241389,-1.02505,18,0.0167757,10,-0.000247435,-2.98926,-0.360943,-0.163461,6.59294,0.241389,
2,0,0,1,0,34651.4,0.234268,0.233931,-1.0791,18,0.0165749,10,-0.000252435,-2.96694,-0.381693,-0.154575,6.50922,0.2339308,
2,0,0,1,0,34651.6,0.226772,0.226454,-1.12844,18,0.0163648,10,-0.00025554,-2.94752,-0.400552,-0.147297,6.45696,0.226454,
2,0,0,1,0,34651.8,0.219284,0.21899,-1.17123,18,0.0161464,10,-0.000256488,-2.93136,-0.535848,-0.110106,5.03742,0.21899,
2,0,0,1,0,34651.9,0.211796,0.211465,-1.21864,18,0.0159195,10,-0.0002577,-2.91412,-0.516092,-0.114321,5.40758,0.211465,
2,0,0,1,0,34652.1,0.204301,0.203955,-1.26234,18,0.0156837,10,-0.00025746,-2.89882,-0.653494,-0.0902839,4.45691,0.203955,
2,0,0,1,0,34652.3,0.196812,0.196511,-1.30715,18,0.0154398,10,-0.00025687,-2.88367,-0.532072,-0.110887,5.68707,0.196511,
2,0,0,1,0,34652.5,0.189321,0.188987,-1.36273,18,0.0151864,10,-0.000257538,-2.86559,-0.463512,-0.127289,6.76544,0.188987,
2,0,0,1,0,34652.7,0.181828,0.181519,-1.41652,18,0.0149231,10,-0.000257125,-2.84878,-0.37457,-0.157514,8.72291,0.181519,
2,0,0,1,0,34652.9,0.174341,0.173976,-1.48527,18,0.0146482,10,-0.000258402,-2.82819,-0.319887,-0.18444,10.7019,0.173976,
2,0,0,1,0,34653.1,0.166848,0.166529,-1.57516,18,0.0143587,10,-0.00026231,-2.80268,-0.290581,-0.203041,12.4591,0.1665293,
2,0,0,1,0,34653.2,0.159357,0.159032,-1.68983,18,0.0140502,10,-0.000268736,-2.77216,-0.207854,-0.283852,18.7856,0.159032,
2,0,0,1,0,34653.4,0.151868,0.151539,-1.87582,18,0.0137141,10,-0.00028426,-2.72681,-0.143824,-0.410224,30.0763,0.151539,
2,0,0,1,0,34653.6,0.144373,0.14407,-2.17877,18,0.0133333,10,-0.000313895,-2.66179,-0.095865,-0.615449,52.4754,0.14407,
2,0,0,1,0,34653.8,0.136884,0.136576,-2.64411,18,0.0128804,10,-0.000361122,-2.57772,-0.0858384,-0.687338,71.0445,0.136576,
2,0,0,1,0,34654,0.129393,0.129086,-3.19835,18,0.0123296,10,-0.000412861,-2.49507,-0.100001,-0.589995,73.56,0.129086,
2,0,0,1,0,34654.2,0.1219,0.121609,-3.69307,18,0.011679,10,-0.000449108,-2.43261,-0.155036,-0.380556,54.73,0.121609,
2,0,0,1,0,34654.4,0.114413,0.114077,-4.04242,18,0.0109489,10,-0.000461148,-2.39336,-0.265483,-0.222237,35.0354,0.114077,
2,0,0,1,0,34654.6,0.10692,0.106624,-4.22052,18,0.0101688,10,-0.000450008,-2.37463,-0.949083,-0.0621653,10.2172,0.106624,
2,0,0,1,0,34654.7,0.0994284,0.0991184,-4.20868,18,0.00937299,10,-0.000417158,-2.37585,0.950678,0.062061,-10.1995,0.0991184,
2,0,0,1,0,34654.9,0.0919401,0.0916135,-4.08186,18,0.00859216,10,-0.000373954,-2.38914,0.470999,0.125266,-19.9456,0.0916135,
2,0,0,1,0,34655.1,0.0844447,0.0840984,-3.92981,18,0.00783858,10,-0.00033049,-2.40563,0.510258,0.115628,-17.7273,0.0840984,
2,0,0,1,0,34655.3,0.0769565,0.0766213,-3.80807,18,0.0071115,10,-0.000291779,-2.41929,0.584275,0.10098,-15.0247,0.0766213,
2,0,0,1,0,34655.5,0.0694682,0.0691491,-3.72067,18,0.00640346,10,-0.000257281,-2.42938,0.6677,0.088363,-12.8104,0.0691491,
2,0,0,1,0,34655.7,0.0619728,0.0616974,-3.6238,18,0.00571179,10,-0.000223579,-2.44084,0.665491,0.0886563,-12.5538,0.0616974,
2,0,0,1,0,34655.9,0.0544836,0.0541366,-3.52832,18,0.00503856,10,-0.000191011,-2.45243,0.661232,0.0892274,-12.2961,0.0541366,
2,0,0,1,0,34656.1,0.0469927,0.0466425,-3.42681,18,0.00438367,10,-0.000159835,-2.46511,0.608984,0.0968826,-12.936,0.0466425,
2,0,0,1,0,34656.2,0.0394999,0.0391452,-3.31428,18,0.00374908,10,-0.000129738,-2.47961,0.48762,0.120996,-15.6403,0.0391452,
2,0,0,1,0,34656.4,0.0320125,0.0316933,-3.18919,18,0.00313699,10,-0.000101076,-2.49632,0.411121,0.14351,-17.8582,0.03169331,
2,0,0,1,0,34656.6,0.0245198,0.0242044,-3.05892,18,0.00254878,10,-7.40394e-05,-2.51443,0.404103,0.146002,-17.4351,0.0242044,
2,0,0,1,0,34656.8,0.0170289,0.0166864,-2.94063,18,0.00198369,10,-4.90685e-05,-2.53156,0.509319,0.115841,-13.3221,0.0166864,
2,0,0,1,0,34657,0.0095397,0.009188,-2.85559,18,0.00143807,10,-2.62371e-05,-2.5443,0.745645,0.0791261,-8.80005,0.009188001,
2,0,0,1,0,34657.2,0.00204518,0.00166913,-2.83145,18,0.000905699,10,-4.72607e-06,-2.54799,1.84045,0.0320574,-3.50547,0.00166913,
2,0,0,1,0,34657.2,0.000177222,-0.000272261,-2.7949,18,0.000773631,10,7.60941e-07,-2.55363, , , ,-0.0002722608,