File: Figure_codes/Fig_3-5/rawdata_trumpetplot_data/after 10th/20221101_1-115_003_TrumpetPlot_ParaChange_from10_every3_10_CV_C01_6.csv
mode,ox/red,error,control changes,counter inc.,time/s,control/V,Ewe/V,<I>/mA,cycle number,(Q-Qo)/C,I Range,P/W,log(|I|),Tafel slope mV/dec,alpha_eff,dI/d(E-IR),E-IR/V,
2,1,0,0,0,13011.3,-2.44065e-05,-0.000478022,5.23373,7,0.0000000E+000,10,-2.50184e-06,-2.28119, , , ,-0.000478022,
2,1,0,1,0,13011.4,0.00977853,0.00947081,8.24497,7,0.000344783,10,7.80865e-05,-2.08381,0.112309,0.525337,168.388,0.00947081,
2,1,0,1,0,13011.4,0.0197755,0.0194379,9.4535,7,0.000790597,10,0.000183756,-2.02441,0.252702,0.233477,86.0912,0.0194379,
2,1,0,1,0,13011.5,0.0297726,0.0294544,10.2295,7,0.00128359,10,0.000301304,-1.99014,0.343913,0.171555,68.5014,0.0294544,
2,1,0,1,0,13011.5,0.0397514,0.0393906,10.9292,7,0.00181163,10,0.000430507,-1.96141,0.326952,0.180454,76.9679,0.0393906,
2,1,0,1,0,13011.6,0.0497393,0.0493963,11.6588,7,0.00237503,10,0.000575899,-1.93335,0.361326,0.163287,74.259,0.0493963,
2,1,0,1,0,13011.6,0.0597364,0.0594119,12.4232,7,0.00297667,10,0.000738089,-1.90576,0.368302,0.160195,77.5592,0.0594119,
2,1,0,1,0,13011.7,0.0697152,0.0693275,13.1623,7,0.00361515,10,0.000912508,-1.88067,0.398547,0.148038,76.1371,0.0693275,
2,1,0,1,0,13011.7,0.0796941,0.0793712,13.9304,7,0.00429172,10,0.00110568,-1.85604,0.44656,0.132121,71.7856,0.0793712,
2,1,0,1,0,13011.8,0.0896911,0.0893773,14.6095,7,0.00500581,10,0.00130576,-1.83536,0.497189,0.118667,67.7381,0.0893773,
2,1,0,1,0,13011.8,0.099679,0.0993224,15.2959,7,0.00575201,10,0.00151923,-1.81542,0.50523,0.116779,69.6385,0.0993224,
2,1,0,1,0,13011.9,0.109658,0.109359,16.0725,7,0.00653339,10,0.00175767,-1.79392,0.409826,0.143963,90.3194,0.109359,
2,1,0,1,0,13011.9,0.119655,0.11935,17.1493,7,0.00736256,10,0.00204677,-1.76575,0.335911,0.175642,117.525,0.11935,
2,1,0,1,0,13012,0.129652,0.129307,18.3838,7,0.00825086,10,0.00237715,-1.73556,0.342749,0.172137,123.512,0.129307,
2,1,0,1,0,13012,0.139631,0.139298,19.5281,7,0.00919791,10,0.00272021,-1.70934,0.430236,0.137134,104.458,0.1392976,
2,1,0,1,0,13012.1,0.149619,0.149291,20.4198,7,0.0101958,10,0.00304848,-1.68995,0.62935,0.0937476,74.6761,0.149291,
2,1,0,1,0,13012.1,0.159616,0.159314,20.7805,7,0.0112295,10,0.00331063,-1.68234,-2.06905,-0.0285154,-23.0892,0.159314,
2,1,0,1,0,13012.1,0.169595,0.169293,19.618,7,0.0122459,10,0.00332119,-1.70734,-0.199276,-0.296071,-226.166,0.169293,
2,1,0,1,0,13012.2,0.179573,0.179289,16.5392,7,0.013153,10,0.00296529,-1.78149,-0.106238,-0.555356,-358.197,0.179289,
2,1,0,1,0,13012.2,0.18957,0.189258,13.3711,7,0.0138965,10,0.00253058,-1.87383,-0.120547,-0.489434,-255.943,0.189258,
2,1,0,1,0,13012.3,0.199558,0.199197,11.3785,7,0.0145092,10,0.00226656,-1.94391,-0.180191,-0.32743,-145.463,0.199197,
2,1,0,1,0,13012.3,0.209537,0.209214,10.2226,7,0.0150454,10,0.00213871,-1.99044,-0.251987,-0.234139,-93.5631,0.209214,
2,1,0,1,0,13012.4,0.219534,0.219301,9.49701,7,0.0155369,10,0.00208271,-2.02241,-0.359135,-0.164284,-60.855,0.219301,
2,1,0,1,0,13012.4,0.229531,0.229191,8.98519,7,0.0159984,10,0.00205933,-2.04647,-0.465639,-0.126707,-44.5178,0.229191,
2,1,0,1,0,13012.5,0.23951,0.239213,8.63722,7,0.0164376,10,0.00206613,-2.06363,-0.705425,-0.0836375,-28.1726,0.239213,
2,1,0,1,0,13012.5,0.249498,0.249195,8.35163,7,0.016861,10,0.00208118,-2.07823,-0.736945,-0.0800602,-26.1142,0.249195,
2,1,0,1,0,13012.6,0.259495,0.259225,8.13878,7,0.0172729,10,0.00210977,-2.08944,-0.821226,-0.0718438,-22.7912,0.259225,
2,1,0,1,0,13012.6,0.269474,0.269163,7.94231,7,0.0176739,10,0.00213778,-2.10005,-1.05154,-0.0561083,-17.415,0.269163,
2,1,0,1,0,13012.7,0.279453,0.279162,7.79336,7,0.0180665,10,0.00217561,-2.10828,-1.21978,-0.0483693,-14.7059,0.279162,
2,1,0,1,0,13012.7,0.28945,0.28916,7.6367,7,0.0184524,10,0.00220823,-2.11709,-1.71747,-0.0343529,-10.2554,0.28916,
2,1,0,1,0,13012.8,0.299438,0.299125,7.52314,7,0.0188306,10,0.00225036,-2.1236,-0.0601462,-0.980943,-275.765,0.299125,
2,0,0,1,0,13012.8,0.291747,0.291443,-0.290016,7,0.0189536,10,-8.45232e-05,-3.53758,-0.0188875,-3.12376,390.959,0.291443,
2,0,0,1,0,13012.9,0.28175,0.281443,-2.44644,7,0.0188744,10,-0.000688534,-2.61147,-0.0454116,-1.29923,122.1,0.281443,
2,0,0,1,0,13012.9,0.27178,0.271464,-3.30517,7,0.0187291,10,-0.000897235,-2.48081,-0.114759,-0.514119,66.1628,0.271464,
2,0,0,1,0,13013,0.261783,0.261423,-3.84885,7,0.0185495,10,-0.00100618,-2.41467,-0.203243,-0.290293,43.4364,0.261423,
2,0,0,1,0,13013,0.251786,0.251469,-4.24245,7,0.0183468,10,-0.00106685,-2.37238,-0.268779,-0.219511,36.395,0.251469,
2,0,0,1,0,13013.1,0.241807,0.241546,-4.58474,7,0.018126,10,-0.00110743,-2.33868,-0.329392,-0.179118,32.0735,0.241546,
2,0,0,1,0,13013.1,0.231824,0.231508,-4.88376,7,0.0178896,10,-0.00113063,-2.31125,-0.364438,-0.161893,30.87,0.231508,
2,0,0,1,0,13013.2,0.221822,0.221543,-5.1578,7,0.0176384,10,-0.00114267,-2.28754,-0.426747,-0.138255,27.7997,0.221543,
2,0,0,1,0,13013.2,0.211844,0.211544,-5.42203,7,0.0173743,10,-0.001147,-2.26584,-0.519749,-0.113516,24.0462,0.211544,
2,0,0,1,0,13013.3,0.201865,0.201535,-5.69685,7,0.0170968,10,-0.00114812,-2.24437,-0.511674,-0.115308,25.6162,0.201535,
2,0,0,1,0,13013.3,0.191868,0.191544,-5.97584,7,0.0168051,10,-0.00114464,-2.2236,-0.447479,-0.13185,30.8114,0.191544,
2,0,0,1,0,13013.4,0.18188,0.181579,-6.32527,7,0.0164986,10,-0.00114854,-2.19892,-0.374006,-0.157751,38.8532,0.181579,
2,0,0,1,0,13013.4,0.171901,0.171605,-6.7243,7,0.0161738,10,-0.00115392,-2.17235,-0.330347,-0.1786,46.8649,0.171605,
2,0,0,1,0,13013.5,0.161904,0.161595,-7.28679,7,0.0158244,10,-0.00117751,-2.13746,-0.246246,-0.239598,68.1333,0.161595,
2,0,0,1,0,13013.5,0.151907,0.151607,-8.13836,7,0.0154402,10,-0.00123383,-2.08946,-0.178876,-0.329838,105.008,0.151607,
2,0,0,1,0,13013.6,0.141928,0.141581,-9.53798,7,0.0150018,10,-0.0013504,-2.02054,-0.123456,-0.477905,177.963,0.141581,
2,0,0,1,0,13013.6,0.13194,0.131651,-11.6452,7,0.014476,10,-0.00153311,-1.93385,-0.112176,-0.525961,239.244,0.131651,
2,0,0,1,0,13013.7,0.121943,0.121606,-14.1864,7,0.0138305,10,-0.00172515,-1.84813,-0.134281,-0.439376,242.567,0.121606,
2,0,0,1,0,13013.7,0.111964,0.111642,-16.5025,7,0.0130634,10,-0.00184238,-1.78245,-0.182112,-0.323976,208.507,0.111642,
2,0,0,1,0,13013.8,0.101985,0.101742,-18.2811,7,0.0121926,10,-0.00185995,-1.738,-0.295822,-0.199444,142.102,0.101742,
2,0,0,1,0,13013.8,0.0919883,0.0916929,-19.3843,7,0.0112479,10,-0.0017774,-1.71255,-0.57295,-0.102976,77.8804,0.0916929,
2,0,0,1,0,13013.9,0.0820004,0.0816801,-19.6903,7,0.0102692,10,-0.00160831,-1.70575,3.45562,0.0170736,-13.1013,0.0816801,
2,0,0,1,0,13013.9,0.0720215,0.0716764,-19.1647,7,0.00929741,10,-0.00137366,-1.7175,0.587325,0.100455,-75.1478,0.0716764,
2,0,0,1,0,13014,0.0620245,0.0617432,-18.334,7,0.00835975,10,-0.001132,-1.73674,0.516919,0.114138,-81.6711,0.06174317,
2,0,0,1,0,13014,0.0520275,0.0516833,-17.6303,7,0.00746144,10,-0.000911192,-1.75374,0.640301,0.0921441,-63.4095,0.0516833,
2,0,0,1,0,13014.1,0.0420486,0.0417041,-17.0578,7,0.00659617,10,-0.00071138,-1.76808,0.769839,0.0766394,-51.0238,0.0417041,
2,0,0,1,0,13014.1,0.0320607,0.0317622,-16.5166,7,0.00575855,10,-0.000524603,-1.78208,0.682878,0.0863991,-55.6767,0.03176219,
2,0,0,1,0,13014.2,0.0220637,0.021757,-15.8983,7,0.0049479,10,-0.000345898,-1.79865,0.520777,0.113292,-70.249,0.021757,
2,0,0,1,0,13014.2,0.0120848,0.0118047,-15.1163,7,0.00417353,10,-0.000178443,-1.82055,0.387834,0.152127,-89.7992,0.0118047,
2,0,0,1,0,13014.3,0.00210598,0.0016988,-14.2985,7,0.00344083,10,-2.42903e-05,-1.84471,0.436684,0.135109,-75.2038,0.0016988,
2,0,0,1,0,13014.3,-0.00789103,-0.0082214,-13.4891,7,0.00274707,10,0.000110899,-1.87002,0.477831,0.123475,-65.0987,-0.0082214,
2,0,0,1,0,13014.4,-0.017879,-0.018242,-13.0027,7,0.00208715,10,0.000237194,-1.88597,0.843471,0.069949,-35.4702,-0.018242,
2,0,0,1,0,13014.4,-0.0278578,-0.0282041,-12.7511,7,0.00144587,10,0.000359634,-1.89445,1.87245,0.0315095,-15.6964,-0.0282041,
2,0,0,1,0,13014.5,-0.0378548,-0.0381972,-12.734,7,0.000809527,10,0.000486404,-1.89503,-5.54713,-0.0106361,5.28337,-0.0381972,
2,0,0,1,0,13014.5,-0.0478519,-0.048166,-12.855,7,0.000170194,10,0.000619173,-1.89093,-1.24949,-0.0472193,23.7216,-0.048166,
2,0,0,1,0,13014.6,-0.0578126,-0.0581825,-13.1241,7,-0.000476629,10,0.00076359,-1.88193,-0.960619,-0.0614188,31.4506,-0.0581825,
2,0,0,1,0,13014.6,-0.0678187,-0.0681773,-13.4864,7,-0.00114152,10,0.00091947,-1.8701,-0.739465,-0.0797874,41.999,-0.0681773,
2,0,0,1,0,13014.7,-0.0778157,-0.0781704,-13.9531,7,-0.00182723,10,0.00109072,-1.85533,-0.645625,-0.0913843,49.7621,-0.0781704,
2,0,0,1,0,13014.7,-0.0877945,-0.0881748,-14.5289,7,-0.00253732,10,0.00128108,-1.83777,-0.526911,-0.111973,63.5075,-0.0881748,
2,0,0,1,0,13014.8,-0.0977734,-0.0981531,-15.204,7,-0.00327894,10,0.00149232,-1.81804,-0.47582,-0.123997,73.5843,-0.0981531,
2,0,0,1,1,13014.8,-0.0936874,-0.0940831,-6.22082,7,-0.00376684,10,0.000585274,-2.20615,-0.0145013,-4.06861,981.338,-0.0940831,
2,1,0,1,1,13014.9,-0.0837086,-0.0840944,0.727751,7,-0.00388322,10,-6.11998e-05,-3.13802,0.00547747,10.7714,499.495,-0.0840944,
2,1,0,1,1,13014.9,-0.0737025,-0.0740753,4.57394,7,-0.00374188,10,-0.000338816,-2.33971,0.0350649,1.68259,295.664,-0.0740753,
2,1,0,1,1,13015,-0.0637236,-0.0641168,6.87802,7,-0.00345144,10,-0.000440996,-2.16254,0.0886818,0.6653,178.094,-0.0641168,
2,1,0,1,1,13015,-0.0537447,-0.0540909,8.3011,7,-0.00306969,10,-0.000449013,-2.08086,0.173973,0.339134,109.591,-0.05409085,
2,1,0,1,1,13015.1,-0.0437477,-0.0441507,9.16132,7,-0.00263102,10,-0.000404478,-2.03804,0.324822,0.181638,64.966,-0.0441507,
2,1,0,1,1,13015.1,-0.0337507,-0.0341333,9.6839,7,-0.00215859,10,-0.000330544,-2.01395,0.585367,0.100791,38.0487,-0.0341333,
2,1,0,1,1,13015.2,-0.0237809,-0.024148,9.95092,7,-0.00166903,10,-0.000240295,-2.00214,1.10229,0.053525,20.7726,-0.02414804,
2,1,0,1,1,13015.2,-0.0137839,-0.0141819,10.0809,7,-0.00116793,10,-0.000142966,-1.9965,3.45463,0.0170785,6.71376,-0.0141819,
2,1,0,1,1,13015.3,-0.0037869,-0.00414019,10.1304,7,-0.000662619,10,-4.19416e-05,-1.99438,5.47728,0.0107718,4.25773,-0.00414019,
2,1,0,1,1,13015.3,-2.55332e-05,-0.000458935,10.1293,7,-0.000473099,10,-4.64867e-06,-1.99442, , , ,-0.000458935,