File: Figure_codes/Fig_3-5/rawdata_trumpetplot_data/after 10th/20221101_1-115_003_TrumpetPlot_ParaChange_from10_every3_14_CV_C01_19.csv
mode,ox/red,error,control changes,counter inc.,time/s,control/V,Ewe/V,<I>/mA,cycle number,(Q-Qo)/C,I Range,P/W,log(|I|),Tafel slope mV/dec,alpha_eff,dI/d(E-IR),E-IR/V,
2,1,0,1,0,38631.6,2.44065e-05,-0.000248974,35.1069,20,0.0000000E+000,10,-8.74071e-06,-1.45461, , , ,-0.000248974,
2,1,0,1,0,38631.6,0.0133084,0.0129404,38.9678,20,0.000489667,10,0.000504258,-1.40929,0.400315,0.147384,223.224,0.0129404,
2,1,0,1,0,38631.6,0.0273414,0.0269653,41.6931,20,0.00105531,10,0.00112427,-1.37994,0.545597,0.108138,175.515,0.0269653,
2,1,0,1,0,38631.6,0.0413245,0.0409733,43.9242,20,0.00165528,10,0.00179972,-1.3573,0.686035,0.0860014,147.218,0.0409733,
2,1,0,1,0,38631.6,0.0553076,0.0549865,45.8765,20,0.00228421,10,0.00252259,-1.33841,0.779738,0.0756665,135.397,0.0549865,
2,1,0,1,0,38631.7,0.0693407,0.0689945,47.6645,20,0.00293933,10,0.00328859,-1.3218,0.869397,0.0678631,126.166,0.0689945,
2,1,0,1,0,38631.7,0.0833238,0.0829219,49.3686,20,0.00361887,10,0.00409374,-1.30655,0.915786,0.0644255,124.18,0.0829219,
2,1,0,1,0,38631.7,0.0973069,0.0969542,51.1401,20,0.00432264,10,0.00495825,-1.29124,0.915182,0.0644681,128.671,0.0969542,
2,1,0,1,0,38631.7,0.11134,0.110891,52.9943,20,0.00505138,10,0.0058766,-1.27577,0.869651,0.0678433,140.392,0.110891,
2,1,0,1,0,38631.7,0.125323,0.124974,54.9981,20,0.00580756,10,0.00687336,-1.25965,0.873744,0.0675255,144.978,0.124974,
2,1,0,1,0,38631.7,0.139306,0.138924,57.1186,20,0.00659235,10,0.00793515,-1.24322,0.817875,0.0721382,160.939,0.138924,
2,1,0,1,0,38631.7,0.153339,0.152978,59.4924,20,0.00740865,10,0.00910101,-1.22554,0.783097,0.0753419,174.989,0.152978,
2,1,0,1,0,38631.8,0.167322,0.166978,61.9861,20,0.00825931,10,0.0103503,-1.20771,0.807304,0.0730827,176.756,0.166978,
2,1,0,1,0,38631.8,0.181305,0.180932,64.3867,20,0.00914451,10,0.0116496,-1.1912,0.916656,0.0643644,161.611,0.180932,
2,1,0,1,0,38631.8,0.195338,0.19497,66.437,20,0.0100612,10,0.0129532,-1.17759,1.27072,0.0464303,120.166,0.19497,
2,1,0,1,0,38631.8,0.209322,0.208992,67.7175,20,0.0110014,10,0.0141524,-1.1693,2.81352,0.0209702,55.2741,0.208992,
2,1,0,1,0,38631.8,0.223305,0.222952,67.9181,20,0.0119523,10,0.0151425,-1.16801,-5.94691,-0.00992112,-26.2297,0.222952,
2,1,0,1,0,38631.8,0.237338,0.237025,66.9506,20,0.0128978,10,0.015869,-1.17425,-1.32909,-0.0443913,-115.652,0.237025,
2,1,0,1,0,38631.8,0.251321,0.250983,64.7691,20,0.0138209,10,0.0162559,-1.18863,-0.768811,-0.0767419,-193.437,0.250983,
2,1,0,1,0,38631.8,0.265304,0.26499,61.5824,20,0.0147061,10,0.0163187,-1.21054,-0.561708,-0.105037,-251.982,0.26499,
2,1,0,1,0,38631.9,0.279337,0.279044,57.7667,20,0.0155418,10,0.0161195,-1.23832,-0.462203,-0.12765,-287.489,0.279044,
2,1,0,1,0,38631.9,0.29332,0.292967,53.7209,20,0.0163216,10,0.0157385,-1.26986,-0.437521,-0.134851,-283.854,0.2929672,
2,1,0,1,0,38631.9,0.298714,0.29857,48.8233,20,0.0167394,10,0.0145772,-1.31137,0.0507872,1.16171,1975.28,0.29857,
2,1,0,1,0,38631.9,0.28473,0.284493,28.9722,20,0.017267,10,0.00824241,-1.53802,0.0616047,0.95772,1087.71,0.284493,
2,1,0,1,0,38631.9,0.270747,0.270499,16.3484,20,0.0175781,10,0.00442223,-1.78653,0.0484264,1.21834,765.577,0.270499,
2,1,0,1,0,38631.9,0.256714,0.256454,7.08932,20,0.017738,10,0.00181809,-2.1494,0.0257016,2.29558,572.53,0.256454,
2,1,0,1,0,38631.9,0.242731,0.242462,0.0757974,20,0.0177854,10,1.8378e-05,-4.12035,0.201674,0.292552,441.677,0.242462,
2,0,0,1,0,38632,0.228748,0.228479,-5.3957,20,0.0177461,10,-0.0012328,-2.26795,-0.0309035,-1.90917,349.959,0.228479,
2,0,0,1,0,38632,0.214715,0.214479,-9.81584,20,0.0176378,10,-0.00210529,-2.00807,-0.0772286,-0.763965,283.609,0.214479,
2,0,0,1,0,38632,0.200732,0.200434,-13.4218,20,0.017474,10,-0.00269018,-1.87219,-0.128793,-0.458099,236.812,0.200434,
2,0,0,1,0,38632,0.186735,0.186401,-16.4969,20,0.0172638,10,-0.00307502,-1.7826,-0.18329,-0.321894,205.91,0.186401,
2,0,0,1,0,38632,0.172716,0.172409,-19.2351,20,0.017013,10,-0.0033163,-1.71591,-0.234956,-0.251111,187.912,0.172409,
2,0,0,1,0,38632,0.158733,0.158436,-21.8408,20,0.0167252,10,-0.00346036,-1.66073,-0.264246,-0.223277,190.372,0.158436,
2,0,0,1,0,38632,0.144719,0.144429,-24.6758,20,0.0163998,10,-0.00356389,-1.60773,-0.259944,-0.226972,219.029,0.144429,
2,0,0,1,0,38632.1,0.130717,0.13046,-28.0787,20,0.016031,10,-0.00366314,-1.55162,-0.236443,-0.249532,274.387,0.13046,
2,0,0,1,0,38632.1,0.116733,0.116401,-32.4002,20,0.0156084,10,-0.00377142,-1.48945,-0.219019,-0.269383,341.02,0.116401,
2,0,0,1,0,38632.1,0.102703,0.102391,-37.4998,20,0.0151194,10,-0.00383964,-1.42597,-0.232149,-0.254147,371.007,0.102391,
2,0,0,1,0,38632.1,0.0887172,0.0884445,-42.6352,20,0.0145579,10,-0.00377084,-1.37023,-0.275317,-0.214298,355.306,0.0884445,
2,0,0,1,0,38632.1,0.0747341,0.0744736,-47.3641,20,0.0139268,10,-0.00352738,-1.32455,-0.349326,-0.168897,310.806,0.0744736,
2,0,0,1,0,38632.1,0.0607011,0.0604964,-51.3997,20,0.0132349,10,-0.0031095,-1.28904,-0.44848,-0.131556,262.768,0.0604964,
2,0,0,1,0,38632.1,0.046718,0.046446,-54.545,20,0.012492,10,-0.0025334,-1.26325,-0.639956,-0.0921939,195.77,0.046446,
2,0,0,1,0,38632.2,0.0327349,0.0324858,-56.9372,20,0.0117107,10,-0.00184965,-1.2446,-0.879041,-0.0671186,148.84,0.0324858,
2,0,0,1,0,38632.2,0.0187018,0.0184301,-58.7599,20,0.0109002,10,-0.00108295,-1.23092,-1.2681,-0.0465262,106.445,0.0184301,
2,0,0,1,0,38632.2,0.00471873,0.00442318,-59.8875,20,0.0100689,10,-0.000264893,-1.22266,-2.13508,-0.0276336,64.5293,0.00442318,
2,0,0,1,0,38632.2,-0.00926438,-0.00962403,-60.5533,20,0.00922492,10,0.000582767,-1.21786,-5.64175,-0.0104578,24.6769,-0.00962403,
2,0,0,1,0,38632.2,-0.0232974,-0.0236426,-60.7077,20,0.00837582,10,0.00143529,-1.21676,20.6775,0.00285334,-6.74745,-0.0236426,
2,0,0,1,0,38632.2,-0.0372805,-0.0376453,-60.3275,20,0.00752816,10,0.00227105,-1.21948,3.43023,0.0172,-40.4605,-0.0376453,
2,0,0,1,0,38632.2,-0.0512637,-0.0516162,-59.615,20,0.00668838,10,0.0030771,-1.22464,2.31496,0.0254865,-59.2585,-0.0516162,
2,0,0,1,0,38632.2,-0.0652967,-0.0656729,-58.7767,20,0.0058599,10,0.00386004,-1.23079,2.1615,0.0272959,-62.5673,-0.0656729,
2,0,0,1,0,38632.3,-0.0792798,-0.0796332,-57.8681,20,0.0050436,10,0.00460822,-1.23756,2.24708,0.0262563,-59.3332,-0.0796332,
2,0,0,1,0,38632.3,-0.0932629,-0.0936178,-57.1202,20,0.00423883,10,0.00534747,-1.24321,2.83255,0.0208293,-46.4674,-0.0936178,
2,0,0,1,0,38632.3,-0.107296,-0.107659,-56.6454,20,0.00344293,10,0.00609837,-1.24684,4.8446,0.0121785,-26.9232,-0.107659,
2,0,0,1,0,38632.3,-0.121279,-0.121615,-56.3402,20,0.00265244,10,0.00685179,-1.24918,10.4563,0.00564253,-12.4149,-0.121615,
2,0,0,1,0,38632.3,-0.135262,-0.135592,-56.2746,20,0.00186435,10,0.00763038,-1.24969,-32.4632,-0.00181744,3.99501,-0.135592,
2,0,0,1,0,38632.3,-0.149295,-0.149643,-56.4897,20,0.00107523,10,0.00845331,-1.24803,-6.96165,-0.008475,18.6798,-0.149643,
2,0,0,1,0,38632.3,-0.163278,-0.1636,-56.7802,20,0.00028259,10,0.00928927,-1.2458,-5.02571,-0.0117396,26.0186,-0.1636,
2,0,0,1,0,38632.4,-0.177261,-0.177603,-57.1604,20,-0.000514998,10,0.0101519,-1.2429,-4.46028,-0.0132279,29.5167,-0.1776031,
2,0,0,1,0,38632.4,-0.191295,-0.191591,-57.6314,20,-0.00131854,10,0.0110416,-1.23934,-4.267,-0.013827,31.0794,-0.191591,
2,0,0,0,1,38632.4,-0.199984,-0.200456,-57.5207,20,-0.00185548,10,0.0115304,-1.24018,-0.0400461,-1.4733,2930.08,-0.200456,
2,0,0,1,1,38632.4,-0.186686,-0.187127,-37.5854,20,-0.00245556,10,0.00703323,-1.42498,-0.0805711,-0.732272,1088.65,-0.187127,
2,0,0,1,1,38632.4,-0.172667,-0.17308,-25.2037,20,-0.00288893,10,0.00436227,-1.59854,-0.0758548,-0.777801,763.122,-0.17308,
2,0,0,1,1,38632.4,-0.158684,-0.159099,-15.7093,20,-0.00317192,10,0.00249934,-1.80384,-0.0579466,-1.01818,614.01,-0.159099,
2,0,0,1,1,38632.4,-0.14467,-0.145088,-7.78937,20,-0.00333447,10,0.00113014,-2.1085,-0.0317734,-1.8569,521.437,-0.145088,
2,0,0,1,1,38632.5,-0.130668,-0.131095,-1.00217,20,-0.00339423,10,0.000131379,-2.99906,-0.0580799,-1.01584,458.581,-0.131095,
2,1,0,1,1,38632.5,-0.116685,-0.117159,5.03374,20,-0.00336458,10,-0.000589747,-2.29811,0.0231157,2.55238,409.515,-0.117159,
2,1,0,1,1,38632.5,-0.102654,-0.103122,10.5663,20,-0.00325465,10,-0.00108962,-1.97608,0.0621617,0.949137,376.273,-0.103122,
2,1,0,1,1,38632.5,-0.0886685,-0.089144,15.5742,20,-0.00307073,10,-0.00138834,-1.8076,0.102816,0.573841,343.805,-0.089144,
2,1,0,1,1,38632.5,-0.0746854,-0.0750851,20.1939,20,-0.00281932,10,-0.00151626,-1.69478,0.145956,0.404233,315.994,-0.0750851,
2,1,0,1,1,38632.5,-0.0606523,-0.0610707,24.4915,20,-0.00250597,10,-0.00149571,-1.61099,0.192297,0.306817,291.169,-0.06107074,
2,1,0,1,1,38632.5,-0.0466692,-0.0470702,28.3481,20,-0.00213546,10,-0.00133435,-1.54748,0.2462,0.239643,264.083,-0.0470702,
2,1,0,1,1,38632.6,-0.0326861,-0.0330961,31.8786,20,-0.00171315,10,-0.00105506,-1.4965,0.303839,0.194182,240.898,-0.0330961,
2,1,0,1,1,38632.6,-0.018653,-0.0190871,35.1162,20,-0.00124365,10,-0.000670266,-1.45449,0.370957,0.159048,217.286,-0.0190871,
2,1,0,1,1,38632.6,-0.00466992,-0.00509928,37.9636,20,-0.000731488,10,-0.000193587,-1.42063, , , ,-0.00509928,
2,1,0,0,1,38632.6,-0.000175352,-0.000649808,38.7978,20,-0.000558742,10,-2.52111e-05,-1.41119, , , ,-0.000649808,