File: Figure_codes/Fig_3-5/rawdata_trumpetplot_data/after 10th/20221101_1-115_003_TrumpetPlot_ParaChange_from10_every3_12_CV_C01_8.csv
mode,ox/red,error,control changes,counter inc.,time/s,control/V,Ewe/V,<I>/mA,cycle number,(Q-Qo)/C,I Range,P/W,log(|I|),Tafel slope mV/dec,alpha_eff,dI/d(E-IR),E-IR/V,
2,1,0,1,0,16957.6,2.44065e-05,-0.000306236,19.0204,9,0.0000000E+000,10,-5.82472e-06,-1.72078, , , ,-0.000306236,
2,1,0,1,0,16957.6,0.0104008,0.0100804,22.8418,9,0.000364056,10,0.000230256,-1.64127,0.202512,0.291341,258.162,0.0100804,
2,1,0,1,0,16957.6,0.0212099,0.020887,25.1209,9,0.000797169,10,0.000524701,-1.59996,0.321136,0.183723,179.7,0.020887,
2,1,0,1,0,16957.6,0.0320052,0.0316576,26.8402,9,0.00126559,10,0.000849695,-1.57121,0.422251,0.139727,146.245,0.0316576,
2,1,0,1,0,16957.6,0.0428033,0.0424642,28.3474,9,0.00176265,10,0.00120375,-1.54749,0.483683,0.121981,134.97,0.0424642,
2,1,0,1,0,16957.7,0.0535986,0.053275,29.821,9,0.00228633,10,0.00158872,-1.52548,0.49392,0.119453,139.072,0.053275,
2,1,0,1,0,16957.7,0.0644077,0.0640435,31.3809,9,0.00283729,10,0.00200974,-1.50334,0.493044,0.119665,146.558,0.06404347,
2,1,0,1,0,16957.7,0.075203,0.0748617,33.0359,9,0.003417,10,0.00247313,-1.48101,0.473302,0.124656,160.749,0.0748617,
2,1,0,1,0,16957.7,0.0860011,0.0856376,34.7944,9,0.0040274,10,0.00297971,-1.45849,0.494518,0.119308,161.932,0.0856376,
2,1,0,1,0,16957.7,0.0968075,0.0963763,36.5396,9,0.0046695,10,0.00352155,-1.43724,0.495405,0.119094,169.982,0.09637633,
2,1,0,1,0,16957.7,0.107606,0.107241,38.45,9,0.00534472,10,0.00412342,-1.4151,0.5043,0.116994,175.465,0.107241,
2,1,0,1,0,16957.8,0.118401,0.118069,40.3275,9,0.00605361,10,0.00476143,-1.3944,0.508247,0.116085,182.794,0.118069,
2,1,0,1,0,16957.8,0.129207,0.12889,42.4128,9,0.00679813,10,0.0054666,-1.3725,0.472106,0.124972,206.993,0.1288905,
2,1,0,1,0,16957.8,0.140005,0.139708,44.7867,9,0.00758291,10,0.00625704,-1.34885,0.448585,0.131525,229.945,0.1397077,
2,1,0,1,0,16957.8,0.150803,0.150444,47.2643,9,0.00841177,10,0.00711065,-1.32547,0.487364,0.121059,223.232,0.150444,
2,1,0,1,0,16957.8,0.161604,0.161267,49.5603,9,0.009284,10,0.00799244,-1.30487,0.586715,0.10056,194.311,0.161267,
2,1,0,1,0,16957.9,0.172405,0.172049,51.3829,9,0.0101937,10,0.00884038,-1.28918,0.888355,0.0664149,132.938,0.172049,
2,1,0,1,0,16957.9,0.183203,0.182892,52.2756,9,0.0111286,10,0.00956077,-1.2817,9.68427,0.00609235,12.3861,0.182892,
2,1,0,1,0,16957.9,0.194001,0.193643,51.4258,9,0.0120648,10,0.00995826,-1.28882,-0.651935,-0.0904999,-180.782,0.193643,
2,1,0,1,0,16957.9,0.204808,0.204468,48.3474,9,0.0129658,10,0.00988548,-1.31563,-0.291875,-0.202141,-379.775,0.2044678,
2,1,0,1,0,16957.9,0.215603,0.215316,43.4996,9,0.0137937,10,0.00936615,-1.36151,-0.205632,-0.28692,-486.103,0.215316,
2,1,0,1,0,16957.9,0.226401,0.226093,38.1397,9,0.0145277,10,0.00862311,-1.41862,-0.186221,-0.316828,-472.028,0.226093,
2,1,0,1,0,16958,0.237207,0.236927,33.4589,9,0.0151702,10,0.00792731,-1.47549,-0.201456,-0.292867,-383.397,0.236927,
2,1,0,1,0,16958,0.248005,0.247738,29.8833,9,0.0157383,10,0.00740321,-1.52457,-0.244374,-0.241434,-282.356,0.247738,
2,1,0,1,0,16958,0.258801,0.258499,27.2949,9,0.0162514,10,0.0070557,-1.56392,-0.310829,-0.189815,-202.713,0.2584987,
2,1,0,1,0,16958,0.26961,0.269312,25.4573,9,0.016725,10,0.00685595,-1.59419,-0.402077,-0.146738,-146.016,0.269312,
2,1,0,1,0,16958,0.280405,0.280107,24.1077,9,0.0171704,10,0.00675271,-1.61784,-0.512423,-0.115139,-108.455,0.2801066,
2,1,0,1,0,16958.1,0.291203,0.290906,23.1059,9,0.0175948,10,0.00672163,-1.63628,-0.635465,-0.0928455,-83.7894,0.290906,
2,1,0,0,0,16958.1,0.300012,0.299766,22.4308,9,0.0179293,10,0.00672397,-1.64916,0.0017093,34.5171,25231,0.299766,
2,1,0,1,0,16958.1,0.290843,0.290582,7.0502,9,0.0181342,10,0.00204867,-2.1518,0.0137667,4.28571,1102.59,0.290582,
2,0,0,1,0,16958.1,0.280047,0.279767,-1.33429,9,0.0181767,10,-0.000373289,-2.87475,-0.0293316,-2.01148,562.308,0.279767,
2,0,0,1,0,16958.1,0.269244,0.268991,-5.98661,9,0.0181068,10,-0.00161035,-2.22282,-0.0390545,-1.51071,333.447,0.268991,
2,0,0,1,0,16958.1,0.258443,0.258154,-8.84204,9,0.0179714,10,-0.00228261,-2.05345,-0.0932896,-0.632439,214.718,0.258154,
2,0,0,1,0,16958.2,0.247645,0.247326,-10.7735,9,0.0177936,10,-0.00266456,-1.96764,-0.15961,-0.369651,154.611,0.247326,
2,0,0,1,0,16958.2,0.236849,0.236561,-12.188,9,0.0175861,10,-0.00288321,-1.91407,-0.239154,-0.246703,117.124,0.236561,
2,0,0,1,0,16958.2,0.22604,0.225763,-13.3295,9,0.0173559,10,-0.00300931,-1.87519,-0.323592,-0.182328,94.7124,0.225763,
2,0,0,1,0,16958.2,0.215245,0.214896,-14.2785,9,0.0171071,10,-0.0030684,-1.84532,-0.386499,-0.152652,85.0408,0.214896,
2,0,0,1,0,16958.2,0.204447,0.204113,-15.1572,9,0.016842,10,-0.00309378,-1.81938,-0.446731,-0.132071,78.0755,0.204113,
2,0,0,1,0,16958.2,0.19364,0.193273,-15.9904,9,0.0165617,10,-0.00309052,-1.79614,-0.491654,-0.120003,74.8409,0.1932731,
2,0,0,1,0,16958.3,0.182842,0.182547,-16.8341,9,0.0162664,10,-0.00307302,-1.77381,-0.471676,-0.125086,82.1919,0.182547,
2,0,0,1,0,16958.3,0.172047,0.17178,-17.7962,9,0.0159549,10,-0.00305703,-1.74967,-0.41785,-0.141199,98.1701,0.17178,
2,0,0,1,0,16958.3,0.161241,0.160946,-18.9997,9,0.0156242,10,-0.00305792,-1.72125,-0.348656,-0.169221,125.601,0.160946,
2,0,0,1,0,16958.3,0.150443,0.150121,-20.6012,9,0.0152685,10,-0.00309267,-1.68611,-0.266848,-0.221099,178.205,0.150121,
2,0,0,1,0,16958.3,0.139645,0.139362,-22.913,9,0.0148779,10,-0.0031932,-1.63992,-0.206196,-0.286135,256.758,0.139362,
2,0,0,1,0,16958.4,0.128849,0.128548,-26.1778,9,0.0144373,10,-0.0033651,-1.58207,-0.171948,-0.343128,351.541,0.128548,
2,0,0,1,0,16958.4,0.118043,0.117771,-30.3815,9,0.0139286,10,-0.00357806,-1.51739,-0.170326,-0.346395,410.66,0.117771,
2,0,0,1,0,16958.4,0.107245,0.106975,-34.9018,9,0.0133404,10,-0.00373363,-1.45715,-0.194881,-0.302749,411.504,0.106975,
2,0,0,1,0,16958.4,0.0964468,0.0961696,-39.1776,9,0.0126729,10,-0.00376769,-1.40696,-0.238544,-0.247334,377.389,0.0961696,
2,0,0,1,0,16958.4,0.0856404,0.0854011,-42.8847,9,0.0119328,10,-0.0036624,-1.3677,-0.322733,-0.182813,305.229,0.08540111,
2,0,0,1,0,16958.4,0.0748451,0.0745871,-45.796,9,0.0111333,10,-0.00341579,-1.33917,-0.461548,-0.127831,227.895,0.0745871,
2,0,0,1,0,16958.5,0.0640471,0.0637709,-47.7348,9,0.0102897,10,-0.00304409,-1.32116,-0.856408,-0.0688924,128.025,0.0637709,
2,0,0,1,0,16958.5,0.0532407,0.0529209,-48.5929,9,0.00942132,10,-0.00257158,-1.31343,-3.2605,-0.0180954,34.2411,0.05292087,
2,0,0,1,0,16958.5,0.0424426,0.042128,-48.5799,9,0.00854589,10,-0.00204657,-1.31354,4.30189,0.0137149,-25.9755,0.042128,
2,0,0,1,0,16958.5,0.0316473,0.031313,-48.0966,9,0.00767535,10,-0.00150605,-1.31789,1.97757,0.0298346,-55.98,0.031313,
2,0,0,1,0,16958.5,0.0208437,0.0205477,-47.3841,9,0.00681586,10,-0.000973634,-1.32437,1.48131,0.0398296,-73.6388,0.0205477,
2,0,0,1,0,16958.5,0.0100429,0.00971567,-46.5055,9,0.00597057,10,-0.000451832,-1.3325,1.17761,0.0501017,-90.9178,0.00971567,
2,0,0,1,0,16958.6,-0.000755207,-0.00111321,-45.4618,9,0.00514257,10,5.06083e-05,-1.34235,0.946534,0.0623327,-110.461,-0.00111321,
2,0,0,1,0,16958.6,-0.0115505,-0.0118763,-44.0154,9,0.00433682,10,0.000522741,-1.3564,0.681098,0.0866248,-148.735,-0.0118763,
2,0,0,1,0,16958.6,-0.0223597,-0.0226501,-42.2909,9,0.00355982,10,0.000957892,-1.37375,0.57707,0.102241,-168.702,-0.02265007,
2,0,0,1,0,16958.6,-0.033155,-0.0335002,-40.531,9,0.00281481,10,0.0013578,-1.39221,0.614636,0.0959918,-151.917,-0.0335002,
2,0,0,1,0,16958.6,-0.043953,-0.0443025,-39.0353,9,0.00209956,10,0.00172936,-1.40854,0.759995,0.0776321,-118.371,-0.0443025,
2,0,0,1,0,16958.7,-0.0547594,-0.0550784,-37.9859,9,0.00140729,10,0.0020922,-1.42038,1.13115,0.0521591,-77.39,-0.0550784,
2,0,0,1,0,16958.7,-0.0655575,-0.065955,-37.3921,9,0.000729653,10,0.0024662,-1.42722,2.63338,0.0224047,-32.7243,-0.065955,
2,0,0,1,0,16958.7,-0.0763528,-0.0767319,-37.2086,9,5.88371e-05,10,0.00285509,-1.42936,-93.1042,-0.000633698,0.921085,-0.07673189,
2,0,0,1,0,16958.7,-0.0871592,-0.0875279,-37.3594,9,-0.00061179,10,0.00326999,-1.4276,-3.20856,-0.0183883,26.8292,-0.0875279,
2,0,0,1,0,16958.7,-0.0979573,-0.0982825,-37.7858,9,-0.0012878,10,0.00371369,-1.42267,-2.26405,-0.0260594,38.3426,-0.0982825,
2,0,0,1,1,16958.7,-0.0955546,-0.0959814,-27.3709,9,-0.00166051,10,0.0026271,-1.56271,-0.0321604,-1.83455,1975.04,-0.0959814,
2,0,0,1,1,16958.8,-0.0847538,-0.0851823,-11.7975,9,-0.00199995,10,0.00100494,-1.92821,-0.0227658,-2.59161,1152.32,-0.0851823,
2,0,0,1,1,16958.8,-0.0739557,-0.0743735,-1.427,9,-0.00211272,10,0.000106131,-2.84557,-0.0238641,-2.47233,818.203,-0.0743735,
2,1,0,1,1,16958.8,-0.0631604,-0.0635934,6.15609,9,-0.00206603,10,-0.000391487,-2.2107,0.0207825,2.83893,607.338,-0.0635934,
2,1,0,1,1,16958.8,-0.0523512,-0.0528685,11.9791,9,-0.00190013,10,-0.000633319,-1.92157,0.0573039,1.0296,469.474,-0.0528685,
2,1,0,1,1,16958.8,-0.0415559,-0.0419898,16.4587,9,-0.00164224,10,-0.000691099,-1.7836,0.103988,0.567372,360.453,-0.0419898,
2,1,0,1,1,16958.8,-0.0307579,-0.0311291,19.8564,9,-0.00131376,10,-0.00061811,-1.7021,0.166762,0.353798,272.612,-0.0311291,
2,1,0,1,1,16958.9,-0.0199515,-0.0203299,22.4542,9,-0.000931768,10,-0.000456491,-1.6487,0.248983,0.236964,206.775,-0.0203299,
2,1,0,1,1,16958.9,-0.0091534,-0.00953602,24.3876,9,-0.00050935,10,-0.00023256,-1.61283,0.361575,0.163175,154.857,-0.00953602,
2,1,0,0,1,16958.9,-7.54729e-05,-0.000382585,25.5327,9,-0.000131448,10,-9.76844e-06,-1.5929, , , ,-0.000382585,