File: Figure_codes/Fig_3-5/rawdata_trumpetplot_data/after 10th/20221101_1-115_003_TrumpetPlot_ParaChange_from10_every3_02_CV_C01_19.csv
mode,ox/red,error,control changes,counter inc.,time/s,control/V,Ewe/V,<I>/mA,cycle number,(Q-Qo)/C,I Range,P/W,log(|I|),Tafel slope mV/dec,alpha_eff,dI/d(E-IR),E-IR/V,
2,0,0,1,0,37772.5,2.44065e-05,-0.000382585,-0.384972,20,0.0000000E+000,10,1.47285e-07,-3.41457, , , ,-0.000382585,
2,0,0,1,0,37779.8,0.00729061,0.00696388,-0.0944823,20,-0.000949895,10,-6.57963e-07,-4.02465,-0.0295626,-1.99577,7.48162,0.00696388,
2,0,0,1,0,37787.3,0.0147815,0.0144344,-0.0579612,20,-0.00142769,10,-8.36634e-07,-4.23686,-0.0379658,-1.55403,3.55782,0.0144344,
2,0,0,1,0,37794.8,0.0222725,0.0219802,-0.0377391,20,-0.00170367,10,-8.29515e-07,-4.42321,-0.0379367,-1.55522,2.29675,0.0219802,
2,0,0,1,0,37802.2,0.0297635,0.0294021,-0.022136,20,-0.00184778,10,-6.50845e-07,-4.6549,-0.0292129,-2.01966,1.7555,0.0294021,
2,0,0,1,0,37809.7,0.0372544,0.0369383,-0.00943824,20,-0.00188569,10,-3.48633e-07,-5.02511,-0.0130533,-4.51994,1.56049,0.0369383,
2,0,0,1,0,37817.2,0.0447454,0.0443708,0.00208899,20,-0.0018306,10,9.26903e-08,-5.68006,0.00600612,9.82332,1.3105,0.0443708,
2,1,0,1,0,37824.7,0.0522363,0.051923,0.0118395,20,-0.00169636,10,6.14744e-07,-4.92667,0.0157597,3.74374,1.60709,0.05192301,
2,1,0,1,0,37832.2,0.0597273,0.0593756,0.0215043,20,-0.00148689,10,1.27683e-06,-4.66747,0.04351,1.35601,1.11858,0.0593756,
2,1,0,1,0,37839.7,0.0672183,0.0668451,0.0294764,20,-0.00121169,10,1.97035e-06,-4.53053,0.072534,0.813411,0.919689,0.0668451,
2,1,0,1,0,37847.2,0.0747092,0.074392,0.0374834,20,-0.000876356,10,2.78846e-06,-4.42616,0.121235,0.48666,0.711459,0.074392,
2,1,0,1,0,37854.7,0.0822001,0.0818794,0.0435882,20,-0.000486865,10,3.56898e-06,-4.36063,0.101587,0.580782,0.998132,0.0818794,
2,1,0,1,0,37862.2,0.0896911,0.0893405,0.0529594,20,-3.92792e-05,10,4.73142e-06,-4.27606,0.079437,0.742727,1.54279,0.0893405,
2,1,0,1,0,37869.7,0.0971821,0.0968493,0.0628735,20,0.000481611,10,6.08926e-06,-4.20153,0.0967081,0.610083,1.48402,0.0968493,
2,1,0,1,0,37877.2,0.104673,0.104343,0.0740744,20,0.0010809,10,7.72915e-06,-4.13033,0.128551,0.458964,1.31173,0.104343,
2,1,0,1,0,37884.6,0.112164,0.111827,0.0827294,20,0.00175536,10,9.25142e-06,-4.08234,0.181482,0.3251,1.04559,0.111827,
2,1,0,1,0,37892.1,0.119655,0.119343,0.0915331,20,0.00249731,10,1.09238e-05,-4.03842,0.263993,0.22349,0.793866,0.119343,
2,1,0,1,0,37899.6,0.127146,0.126859,0.0970201,20,0.00329707,10,1.23079e-05,-4.01314,0.401592,0.146915,0.560145,0.126859,
2,1,0,1,0,37907.1,0.134637,0.134318,0.0971606,20,0.00412403,10,1.30504e-05,-4.01251,-0.188906,-0.312325,-1.1748,0.134318,
2,1,0,1,0,37914.6,0.142128,0.141782,0.0810668,20,0.00488483,10,1.14938e-05,-4.09116,-0.0687006,-0.858799,-2.71382,0.141782,
2,1,0,1,0,37922.1,0.149619,0.149312,0.0635954,20,0.00550432,10,9.49554e-06,-4.19657,-0.0889742,-0.663114,-1.6384,0.149312,
2,1,0,1,0,37929.6,0.15711,0.156765,0.0544709,20,0.00602157,10,8.53915e-06,-4.26384,-0.178448,-0.330629,-0.703232,0.156765,
2,1,0,1,0,37937.1,0.164601,0.164275,0.0519516,20,0.006496,10,8.53435e-06,-4.2844,-0.550727,-0.107131,-0.214907,0.164275,
2,1,0,1,0,37944.6,0.172091,0.17175,0.0505634,20,0.00695661,10,8.68427e-06,-4.29616,-0.456278,-0.129307,-0.257437,0.17175,
2,1,0,1,0,37952.1,0.179582,0.179276,0.0507021,20,0.00741262,10,9.08965e-06,-4.29497,3.29844,0.0178872,0.0353612,0.179276,
2,1,0,1,0,37959.6,0.187073,0.186776,0.0511422,20,0.00787003,10,9.55214e-06,-4.29122,2.5983,0.0227071,0.0453082,0.186776,
2,1,0,1,0,37967,0.194564,0.194222,0.051761,20,0.00833126,10,1.00531e-05,-4.286,1.79006,0.0329598,0.0668658,0.194222,
2,1,0,1,0,37974.5,0.202055,0.201745,0.0525175,20,0.00879576,10,1.05951e-05,-4.2797,1.21986,0.0483663,0.0988023,0.201745,
2,1,0,1,0,37982,0.209546,0.209204,0.053107,20,0.00926537,10,1.11102e-05,-4.27485,5.17776,0.0113949,0.0236241,0.209204,
2,1,0,1,0,37989.5,0.217037,0.2167,0.0536236,20,0.00973718,10,1.16202e-05,-4.27064,0.903011,0.0653369,0.136377,0.2167,
2,1,0,1,0,37997,0.224528,0.224182,0.0543864,20,0.0102135,10,1.21925e-05,-4.26451,2.39058,0.0246802,0.0521574,0.224182,
2,1,0,1,0,38004.5,0.232019,0.231677,0.0551509,20,0.0106953,10,1.27772e-05,-4.25845,0.416968,0.141498,0.305034,0.231677,
2,1,0,1,0,38012,0.23951,0.239195,0.0564984,20,0.0111851,10,1.35141e-05,-4.24796,0.955246,0.0617642,0.136177,0.239195,
2,1,0,1,0,38019.5,0.247001,0.246684,0.0573655,20,0.0116819,10,1.41511e-05,-4.24135,2.60824,0.0226206,0.0503026,0.246684,
2,1,0,1,0,38027,0.254492,0.254157,0.0585467,20,0.0121841,10,1.48801e-05,-4.2325,0.923607,0.06388,0.145528,0.254157,
2,1,0,1,0,38034.5,0.261983,0.261673,0.0597391,20,0.0126954,10,1.56321e-05,-4.22374,0.737375,0.0800135,0.185661,0.261673,
2,1,0,1,0,38042,0.269474,0.269166,0.0604769,20,0.0132132,10,1.62783e-05,-4.21841,0.573823,0.102819,0.241281,0.269166,
2,1,0,1,0,38049.4,0.276965,0.276646,0.0610126,20,0.0137374,10,1.68789e-05,-4.21458,1.50889,0.0391016,0.0933535,0.276646,
2,1,0,1,0,38056.9,0.284456,0.284135,0.0621476,20,0.0142687,10,1.76583e-05,-4.20658,1.40632,0.0419535,0.102007,0.2841351,
2,1,0,1,0,38064.4,0.291947,0.29167,0.0629596,20,0.0148031,10,1.83634e-05,-4.20094,2.1028,0.0280578,0.0687366,0.29167,
2,1,0,1,0,38071.9,0.299438,0.299115,0.0637584,20,0.0153431,10,1.90711e-05,-4.19546,-0.00446174,-13.2236,-21.3426,0.299115,
2,1,0,1,0,38078.8,0.293745,0.293427,0.00920472,20,0.015436,10,2.70092e-06,-5.03599,0.0135919,4.34082,1.57742,0.293427,
2,1,0,1,0,38086.3,0.286254,0.286003,0.000489104,20,0.0154025,10,1.39885e-07,-6.3106,0.0204801,2.88084,0.863157,0.286003,
2,0,0,1,0,38093.7,0.278763,0.278445,-0.00541384,20,0.0153175,10,-1.50746e-06,-5.26649,-0.0178332,-3.30844,0.656405,0.278445,
2,0,0,1,0,38101.2,0.271272,0.270962,-0.00962368,20,0.0151938,10,-2.60765e-06,-5.01666,-0.0403009,-1.46399,0.550324,0.270962,
2,0,0,1,0,38108.7,0.263781,0.263444,-0.0135724,20,0.0150381,10,-3.57558e-06,-4.86734,-0.0607258,-0.971581,0.517116,0.263444,
2,0,0,1,0,38116.2,0.25629,0.255984,-0.0171264,20,0.0148546,10,-4.3841e-06,-4.76633,-0.0879487,-0.670846,0.442137,0.255984,
2,0,0,1,0,38123.7,0.248799,0.248494,-0.0201558,20,0.0146448,10,-5.00858e-06,-4.6956,-0.110699,-0.532975,0.424313,0.248494,
2,0,0,1,0,38131.2,0.241308,0.240979,-0.0235039,20,0.0144094,10,-5.66393e-06,-4.62886,-0.223987,-0.263408,0.243184,0.240979,
2,0,0,1,0,38138.7,0.233817,0.233474,-0.0261323,20,0.0141525,10,-6.10121e-06,-4.58282,-0.162498,-0.363081,0.372363,0.233474,
2,0,0,1,0,38146.2,0.226326,0.226012,-0.0286772,20,0.0138739,10,-6.48138e-06,-4.54246,-0.205461,-0.287159,0.323518,0.226012,
2,0,0,1,0,38153.7,0.218835,0.218527,-0.0321572,20,0.0135728,10,-7.0272e-06,-4.49272,-0.200608,-0.294105,0.364347,0.218527,
2,0,0,1,0,38161.2,0.211344,0.211025,-0.0347629,20,0.0132505,10,-7.33586e-06,-4.45888,-0.220894,-0.267097,0.360227,0.2110254,
2,0,0,1,0,38168.7,0.203853,0.203575,-0.0372802,20,0.012907,10,-7.58932e-06,-4.42852,-0.276333,-0.21351,0.313113,0.203575,
2,0,0,1,0,38176.1,0.196362,0.195998,-0.0403895,20,0.0125408,10,-7.91627e-06,-4.39373,-0.2451,-0.240719,0.380153,0.1959983,
2,0,0,1,0,38183.6,0.188871,0.18859,-0.04325,20,0.0121498,10,-8.15652e-06,-4.36401,-0.258117,-0.228578,0.389439,0.18859,
2,0,0,1,0,38191.1,0.18138,0.181055,-0.0472563,20,0.0117346,10,-8.55598e-06,-4.32554,-0.251528,-0.234567,0.42815,0.181055,
2,0,0,1,0,38198.6,0.173889,0.173575,-0.0514085,20,0.0112901,10,-8.92323e-06,-4.28896,-0.198547,-0.297159,0.59073,0.173575,
2,0,0,1,0,38206.1,0.166398,0.16605,-0.0567026,20,0.0108089,10,-9.41548e-06,-4.2464,-0.186873,-0.315722,0.693895,0.16605,
2,0,0,1,0,38213.6,0.158907,0.158587,-0.0633471,20,0.0102823,10,-1.0046e-05,-4.19827,-0.150321,-0.392494,0.96948,0.158587,
2,0,0,1,0,38221.1,0.151417,0.151089,-0.0728025,20,0.00969348,10,-1.09997e-05,-4.13785,-0.123695,-0.476982,1.35545,0.151089,
2,0,0,1,0,38228.6,0.143926,0.143593,-0.0877633,20,0.00901285,10,-1.26022e-05,-4.05669,-0.0721875,-0.817316,2.79806,0.143593,
2,0,0,1,0,38236.1,0.136435,0.136111,-0.111182,20,0.00818238,10,-1.5133e-05,-3.95397,-0.083102,-0.709971,3.0445,0.136111,
2,0,0,1,0,38243.6,0.128944,0.128586,-0.130984,20,0.00718046,10,-1.68427e-05,-3.88278,-0.131198,-0.4497,2.28695,0.1285861,
2,0,0,1,0,38251.1,0.121453,0.121119,-0.141195,20,0.006058,10,-1.71014e-05,-3.85018,-0.764911,-0.0771332,0.424761,0.121119,
2,0,0,1,0,38258.5,0.113962,0.113622,-0.141445,20,0.004899,10,-1.60712e-05,-3.84941,5.04331,0.0116987,-0.0647943,0.113622,
2,0,0,1,0,38266,0.106471,0.106166,-0.141236,20,0.00374463,10,-1.49945e-05,-3.85005,2.7765,0.0212498,-0.117314,0.106166,
2,0,0,1,0,38273.5,0.0989798,0.0986689,-0.138625,20,0.00260387,10,-1.3678e-05,-3.85816,0.849556,0.0694481,-0.374188,0.0986689,
2,0,0,1,0,38281,0.0914889,0.0911474,-0.134493,20,0.00148987,10,-1.22587e-05,-3.8713,0.441222,0.133719,-0.69949,0.09114743,
2,0,0,1,0,38288.5,0.083998,0.0836717,-0.12848,20,0.000414173,10,-1.07501e-05,-3.89117,0.34317,0.171926,-0.862816,0.0836717,
2,0,0,1,0,38296,0.076507,0.0761841,-0.124793,20,-0.000625694,10,-9.5072e-06,-3.90381,0.590461,0.099922,-0.485228,0.0761841,
2,0,0,1,0,38303.5,0.069016,0.0687071,-0.120786,20,-0.00163506,10,-8.29882e-06,-3.91798,0.840588,0.0701889,-0.332156,0.0687071,
2,0,0,1,0,38311,0.0615251,0.061244,-0.118064,20,-0.00261981,10,-7.23069e-06,-3.92788,0.90623,0.0651048,-0.299216,0.061244,
2,0,0,1,0,38318.5,0.0540342,0.0537067,-0.115524,20,-0.0035817,10,-6.20439e-06,-3.93733,0.737241,0.0800281,-0.359451,0.0537067,
2,0,0,1,0,38326,0.0465432,0.0462159,-0.112564,20,-0.00452359,10,-5.20225e-06,-3.9486,1.12155,0.0526057,-0.231513,0.0462159,
2,0,0,1,0,38333.5,0.0390522,0.0387019,-0.110064,20,-0.00544573,10,-4.25967e-06,-3.95836,0.713309,0.0827132,-0.354296,0.0387019,
2,0,0,1,0,38340.9,0.0315613,0.0311561,-0.107832,20,-0.00634813,10,-3.35961e-06,-3.96725,0.606698,0.0972478,-0.408567,0.0311561,
2,0,0,1,0,38348.4,0.0240703,0.0236981,-0.105567,20,-0.00723281,10,-2.50173e-06,-3.97647,2.01949,0.0292153,-0.12088,0.0236981,
2,0,0,1,0,38355.9,0.0165794,0.0162563,-0.105007,20,-0.00810558,10,-1.70702e-06,-3.97878,-4.81831,-0.012245,0.0501524,0.0162563,
2,0,0,1,0,38363.4,0.00908843,0.00871359,-0.105688,20,-0.00897944,10,-9.20924e-07,-3.97597,-0.86942,-0.0678613,0.2809,0.00871359,
2,0,0,1,0,38370.9,0.00159744,0.00121432,-0.109519,20,-0.00986908,10,-1.32992e-07,-3.96051, , , ,0.00121432,
2,0,0,1,0,38372.3,0.000199235,-0.000199285,-0.111066,20,-0.0100383,10,2.21338e-08,-3.95442, , , ,-0.000199285,