File: Figure_codes/Fig_3-5/rawdata_trumpetplot_data/after 10th/20221101_1-115_003_TrumpetPlot_ParaChange_from10_every3_12_CV_C01_12.csv
mode,ox/red,error,control changes,counter inc.,time/s,control/V,Ewe/V,<I>/mA,cycle number,(Q-Qo)/C,I Range,P/W,log(|I|),Tafel slope mV/dec,alpha_eff,dI/d(E-IR),E-IR/V,
2,1,0,1,0,24838.1,2.44065e-05,-0.0002108,17.2789,13,0.0000000E+000,10,-3.64239e-06,-1.76248, , , ,-0.0002108,
2,1,0,1,0,24838.1,0.0104008,0.0100338,20.8048,13,0.000331221,10,0.000208751,-1.68184,0.200884,0.293702,236.988,0.0100338,
2,1,0,1,0,24838.1,0.0212099,0.0208298,22.9688,13,0.000726264,10,0.000478435,-1.63886,0.305633,0.193042,172.537,0.0208298,
2,1,0,1,0,24838.1,0.0320052,0.0316162,24.6273,13,0.00115529,10,0.000778623,-1.60858,0.390772,0.150983,145.029,0.0316162,
2,1,0,1,0,24838.2,0.0428033,0.0424175,26.106,13,0.0016123,10,0.00110735,-1.58326,0.460708,0.128064,130.437,0.0424175,
2,1,0,1,0,24838.2,0.0535986,0.0532294,27.4938,13,0.00209484,10,0.00146348,-1.56077,0.483849,0.121939,130.869,0.0532294,
2,1,0,1,0,24838.2,0.0644077,0.0640509,28.9295,13,0.00260283,10,0.00185296,-1.53866,0.495588,0.119051,134.424,0.0640509,
2,1,0,1,0,24838.2,0.075203,0.0748034,30.425,13,0.00313711,10,0.00227589,-1.51677,0.498202,0.118426,140.629,0.0748034,
2,1,0,1,0,24838.2,0.0860011,0.0856174,31.9864,13,0.0036988,10,0.00273859,-1.49504,0.497576,0.118575,148.033,0.0856174,
2,1,0,1,0,24838.2,0.0968075,0.0964007,33.6317,13,0.00428942,10,0.00324212,-1.47325,0.510839,0.115496,151.487,0.0964007,
2,1,0,1,0,24838.3,0.107606,0.107212,35.2163,13,0.00490933,10,0.0037756,-1.45326,0.522928,0.112826,155.229,0.107212,
2,1,0,1,0,24838.3,0.118401,0.118038,36.9801,13,0.00555918,10,0.00436506,-1.43203,0.520012,0.113459,163.728,0.1180383,
2,1,0,1,0,24838.3,0.129207,0.128864,38.8148,13,0.00624123,10,0.00500183,-1.411,0.497484,0.118597,179.743,0.128864,
2,1,0,1,0,24838.3,0.140005,0.139664,40.8607,13,0.00695833,10,0.00570678,-1.38869,0.478315,0.12335,196.755,0.139664,
2,1,0,1,0,24838.3,0.150803,0.15042,42.9982,13,0.00771346,10,0.00646778,-1.36655,0.511797,0.11528,193.436,0.15042,
2,1,0,1,0,24838.4,0.161604,0.161269,44.9992,13,0.00850614,10,0.00725698,-1.3468,0.602998,0.0978444,171.721,0.161269,
2,1,0,1,0,24838.4,0.172405,0.172063,46.6658,13,0.00933209,10,0.00802946,-1.331,0.837029,0.0704874,128.189,0.172063,
2,1,0,1,0,24838.4,0.183203,0.182848,47.6574,13,0.0101825,10,0.00871408,-1.32187,2.65494,0.0222227,41.2235,0.182848,
2,1,0,1,0,24838.4,0.194001,0.193655,47.4365,13,0.0110404,10,0.00918631,-1.32389,-1.19309,-0.0494513,-91.2367,0.193655,
2,1,0,1,0,24838.4,0.204808,0.204457,45.6912,13,0.0118806,10,0.0093419,-1.34017,-0.461471,-0.127852,-227.234,0.204457,
2,1,0,1,0,24838.4,0.215603,0.215292,42.5772,13,0.0126764,10,0.00916656,-1.37082,-0.294191,-0.20055,-332.505,0.215292,
2,1,0,1,0,24838.5,0.226401,0.226084,38.7082,13,0.0134081,10,0.00875132,-1.4122,-0.245057,-0.240761,-363.538,0.226084,
2,1,0,1,0,24838.5,0.237207,0.236891,34.8738,13,0.0140695,10,0.00826128,-1.4575,-0.240884,-0.244931,-333.687,0.236891,
2,1,0,1,0,24838.5,0.248005,0.247718,31.5803,13,0.0146663,10,0.00782299,-1.50058,-0.268325,-0.219883,-271.488,0.247718,
2,1,0,1,0,24838.5,0.258801,0.258505,28.9528,13,0.01521,10,0.00748445,-1.53831,-0.309838,-0.190422,-215.593,0.258505,
2,1,0,1,0,24838.5,0.26961,0.26929,26.9222,13,0.0157119,10,0.0072499,-1.56989,-0.372074,-0.158571,-166.847,0.26929,
2,1,0,1,0,24838.6,0.280405,0.280107,25.341,13,0.0161816,10,0.00709817,-1.59618,-0.452248,-0.13046,-129.162,0.2801066,
2,1,0,1,0,24838.6,0.291203,0.290894,24.1107,13,0.0166261,10,0.00701365,-1.61779,-0.535399,-0.110198,-103.764,0.290894,
2,1,0,0,0,24838.6,0.300012,0.299766,23.2786,13,0.0169741,10,0.00697812,-1.63304,0.00208679,28.2731,22177.2,0.299766,
2,1,0,1,0,24838.6,0.290843,0.290588,9.7514,13,0.0172089,10,0.00283364,-2.01093,0.0224001,2.63392,996.874,0.290588,
2,1,0,1,0,24838.6,0.280047,0.279786,1.81298,13,0.0173056,10,0.000507246,-2.74161,0.0106684,5.53036,561.835,0.279786,
2,0,0,1,0,24838.6,0.269244,0.268952,-3.0197,13,0.0172912,10,-0.000812155,-2.52004,-0.0157402,-3.74837,359.309,0.268952,
2,0,0,1,0,24838.7,0.258443,0.258182,-6.21191,13,0.0172061,10,-0.0016038,-2.20677,-0.0561338,-1.05106,247.595,0.258182,
2,0,0,1,0,24838.7,0.247645,0.247349,-8.48233,13,0.0170726,10,-0.00209809,-2.07148,-0.105984,-0.556689,182.551,0.247349,
2,0,0,1,0,24838.7,0.236849,0.236529,-10.1986,13,0.0169036,10,-0.00241226,-1.99146,-0.164368,-0.358951,142.241,0.236529,
2,0,0,1,0,24838.7,0.22604,0.225718,-11.5596,13,0.0167072,10,-0.0026092,-1.93706,-0.231886,-0.254436,114.507,0.225718,
2,0,0,1,0,24838.7,0.215245,0.214947,-12.6882,13,0.0164885,10,-0.00272729,-1.8966,-0.297962,-0.198012,98.0122,0.214947,
2,0,0,1,0,24838.7,0.204447,0.20412,-13.6921,13,0.0162508,10,-0.00279482,-1.86353,-0.358867,-0.164406,87.7796,0.20412,
2,0,0,1,0,24838.8,0.19364,0.193321,-14.6101,13,0.015996,10,-0.00282444,-1.83535,-0.410788,-0.143627,81.8144,0.1933208,
2,0,0,1,0,24838.8,0.182842,0.182532,-15.4933,13,0.015725,10,-0.00282803,-1.80985,-0.432097,-0.136543,82.5647,0.182532,
2,0,0,1,0,24838.8,0.172047,0.171743,-16.4315,13,0.0154377,10,-0.00282199,-1.78432,-0.413527,-0.142675,91.5467,0.171743,
2,0,0,1,0,24838.8,0.161241,0.160934,-17.5182,13,0.0151326,10,-0.00281926,-1.75651,-0.362476,-0.162769,111.35,0.160934,
2,0,0,1,0,24838.8,0.150443,0.150163,-18.894,13,0.0148055,10,-0.00283718,-1.72368,-0.291316,-0.20253,149.571,0.150163,
2,0,0,1,0,24838.9,0.139645,0.139306,-20.8058,13,0.014449,10,-0.00289837,-1.68181,-0.226094,-0.260954,212.574,0.139306,
2,0,0,1,0,24838.9,0.128849,0.128525,-23.5165,13,0.0140512,10,-0.00302245,-1.62863,-0.18501,-0.318901,293.549,0.128525,
2,0,0,1,0,24838.9,0.118043,0.117767,-27.0526,13,0.0135965,10,-0.0031859,-1.56779,-0.179641,-0.328434,346.787,0.117767,
2,0,0,1,0,24838.9,0.107245,0.106941,-30.9246,13,0.0130743,10,-0.00330711,-1.5097,-0.19981,-0.29528,355.748,0.106941,
2,0,0,1,0,24838.9,0.0964468,0.0961876,-34.6335,13,0.0124837,10,-0.00333131,-1.4605,-0.239306,-0.246547,332.462,0.0961876,
2,0,0,1,0,24838.9,0.0856404,0.0853714,-37.9509,13,0.0118292,10,-0.00323992,-1.42078,-0.317251,-0.185973,274.82,0.0853714,
2,0,0,1,0,24839,0.0748451,0.0746242,-40.5959,13,0.0111209,10,-0.00302943,-1.39152,-0.438306,-0.134609,212.914,0.0746242,
2,0,0,1,0,24839,0.0640471,0.0637487,-42.578,13,0.010371,10,-0.00271429,-1.37081,-0.689467,-0.0855734,141.831,0.06374868,
2,0,0,1,0,24839,0.0532407,0.0528901,-43.6916,13,0.00959359,10,-0.00231085,-1.3596,-1.4669,-0.040221,68.4489,0.0528901,
2,0,0,1,0,24839,0.0424426,0.0421418,-44.1438,13,0.0088024,10,-0.0018603,-1.35513,-4.63873,-0.012719,21.8853,0.0421418,
2,0,0,1,0,24839,0.0316473,0.0313172,-44.1657,13,0.00800715,10,-0.00138315,-1.35492,9.69974,0.00608264,-10.4782,0.0313172,
2,0,0,1,0,24839.1,0.0208437,0.0205721,-43.9259,13,0.00721409,10,-0.000903648,-1.35728,3.29216,0.0179214,-30.7119,0.0205721,
2,0,0,1,0,24839.1,0.0100429,0.00973369,-43.4903,13,0.00642705,10,-0.000423321,-1.36161,2.02227,0.0291751,-49.4939,0.00973369,
2,0,0,1,0,24839.1,-0.000755207,-0.00115138,-42.8812,13,0.00564946,10,4.93726e-05,-1.36773,1.4251,0.0414007,-69.2115,-0.00115138,
2,0,0,1,0,24839.1,-0.0115505,-0.011941,-41.9286,13,0.00488584,10,0.00050067,-1.37749,0.950568,0.0620682,-101.503,-0.011941,
2,0,0,1,0,24839.1,-0.0223597,-0.0227137,-40.7105,13,0.0041418,10,0.000924685,-1.39029,0.775809,0.0760497,-120.805,-0.0227137,
2,0,0,1,0,24839.1,-0.033155,-0.033533,-39.3907,13,0.00342091,10,0.00132089,-1.40461,0.764916,0.0771327,-118.632,-0.033533,
2,0,0,1,0,24839.2,-0.043953,-0.0443152,-38.1905,13,0.0027231,10,0.00169242,-1.41804,0.861521,0.0684835,-102.138,-0.0443152,
2,0,0,1,0,24839.2,-0.0547594,-0.0551494,-37.251,13,0.00204484,10,0.00205437,-1.42886,1.17695,0.0501295,-72.9072,-0.0551494,
2,0,0,1,0,24839.2,-0.0655575,-0.0659147,-36.6194,13,0.00138058,10,0.00241376,-1.43629,2.0502,0.0287776,-41.1604,-0.0659147,
2,0,0,1,0,24839.2,-0.0763528,-0.0767022,-36.3196,13,0.0007246,10,0.00278579,-1.43986,6.13441,0.00961787,-13.6431,-0.0767022,
2,0,0,1,0,24839.2,-0.0871592,-0.0875449,-36.2999,13,7.15163e-05,10,0.00317787,-1.4401,-8.72659,-0.00676095,9.58211,-0.0875449,
2,0,0,1,0,24839.2,-0.0979573,-0.098325,-36.5094,13,-0.000583441,10,0.00358979,-1.43759,-4.27897,-0.0137884,19.6158,-0.098325,
2,0,0,1,1,24839.3,-0.0955546,-0.0960154,-27.2693,13,-0.000946462,10,0.00261827,-1.56433,-0.0363581,-1.62275,1751.57,-0.0960154,
2,0,0,1,1,24839.3,-0.0847538,-0.0851801,-13.7828,13,-0.00130485,10,0.00117402,-1.86066,-0.0311036,-1.89689,1007.14,-0.0851801,
2,0,0,1,1,24839.3,-0.0739557,-0.0743926,-4.59116,13,-0.00146502,10,0.000341548,-2.33808,-0.0117757,-5.01031,735.959,-0.0743926,
2,1,0,1,1,24839.3,-0.0631604,-0.063621,2.32852,13,-0.00148196,10,-0.000148143,-2.63292,0.00976286,6.04331,568.019,-0.063621,
2,1,0,1,1,24839.3,-0.0523512,-0.0527943,7.75631,13,-0.00138869,10,-0.000409488,-2.11035,0.0381022,1.54847,450.248,-0.0527943,
2,1,0,1,1,24839.4,-0.0415559,-0.0419643,12.1053,13,-0.00120804,10,-0.000507993,-1.91702,0.0767325,0.768905,358.394,-0.0419643,
2,1,0,1,1,24839.4,-0.0307579,-0.0311789,15.5945,13,-0.000957197,10,-0.000486219,-1.80703,0.124863,0.472517,285.37,-0.0311789,
2,1,0,1,1,24839.4,-0.0199515,-0.0203437,18.3501,13,-0.000650564,10,-0.000373308,-1.73636,0.185166,0.318634,227.035,-0.0203437,
2,1,0,1,1,24839.4,-0.0091534,-0.00956465,20.5367,13,-0.000299806,10,-0.000196426,-1.68747,0.262545,0.224724,179.437,-0.00956465,
2,1,0,0,1,24839.4,-7.54729e-05,-0.000248974,21.9175,13,2.16712e-05,10,-5.45689e-06,-1.65921, , , ,-0.000248974,