File: Figure_codes/Fig_3-5/rawdata_trumpetplot_data/after 10th/20221101_1-115_003_TrumpetPlot_ParaChange_from10_every3_05_CV_C01_2.csv
mode,ox/red,error,control changes,counter inc.,time/s,control/V,Ewe/V,<I>/mA,cycle number,(Q-Qo)/C,I Range,P/W,log(|I|),Tafel slope mV/dec,alpha_eff,dI/d(E-IR),E-IR/V,
2,0,0,1,0,5060.28,2.44065e-05,-0.000478022,-0.725885,3,0.0000000E+000,10,3.46989e-07,-3.13913, , , ,-0.000478022,
2,1,0,1,0,5060.64,0.00729063,0.00699036,0.757957,3,0.000193893,10,5.29839e-06,-3.12036,0.072656,0.812046,23.7895,0.00699036,
2,1,0,1,0,5061.02,0.0147802,0.0144792,0.884904,3,0.00051044,10,1.28127e-05,-3.0531,0.14057,0.41972,14.4836,0.0144792,
2,1,0,1,0,5061.39,0.0222725,0.0219858,0.977791,3,0.000866799,10,2.14975e-05,-3.00975,0.186341,0.316623,12.0731,0.02198579,
2,1,0,1,0,5061.77,0.0297644,0.0294853,1.0699,3,0.0012572,10,3.15462e-05,-2.97066,0.20397,0.289258,12.0884,0.0294853,
2,1,0,1,0,5062.14,0.0372544,0.036952,1.16675,3,0.00168308,10,4.31136e-05,-2.93302,0.204341,0.288734,13.1574,0.036952,
2,1,0,1,0,5062.51,0.0447449,0.0444416,1.27261,3,0.0021469,10,5.6557e-05,-2.8953,0.209463,0.281673,13.9914,0.0444416,
2,1,0,1,0,5062.89,0.0522363,0.0518782,1.37372,3,0.00264953,10,7.12663e-05,-2.8621,0.210757,0.279944,15.0303,0.0518782,
2,1,0,1,0,5063.26,0.0597291,0.0593746,1.47289,3,0.00318999,10,8.74525e-05,-2.83183,0.251156,0.234914,13.4782,0.0593746,
2,1,0,1,0,5063.64,0.0672182,0.0669537,1.56501,3,0.00376592,10,0.000104783,-2.80548,0.30639,0.192565,11.7482,0.0669537,
2,1,0,1,0,5064.01,0.0747092,0.0743737,1.65019,3,0.00437502,10,0.00012273,-2.78247,0.355144,0.16613,10.6763,0.0743737,
2,1,0,1,0,5064.39,0.0822001,0.0819032,1.7227,3,0.00501419,10,0.000141095,-2.76379,0.399887,0.147542,9.92968,0.0819032,
2,1,0,1,0,5064.76,0.0896911,0.0894134,1.80889,3,0.00568239,10,0.000161739,-2.74259,0.330056,0.178758,12.6374,0.0894134,
2,1,0,1,0,5065.14,0.097182,0.0968643,1.92403,3,0.00638804,10,0.00018637,-2.71579,0.216614,0.272373,20.4743,0.0968643,
2,1,0,1,0,5065.51,0.104673,0.104369,2.0975,3,0.00714665,10,0.000218915,-2.6783,0.189003,0.312165,25.5106,0.104369,
2,1,0,1,0,5065.89,0.112164,0.111845,2.28193,3,0.00797436,10,0.000255221,-2.6417,0.228536,0.258165,22.989,0.111845,
2,1,0,1,0,5066.26,0.119655,0.119347,2.44472,3,0.00886842,10,0.000291771,-2.61177,0.326109,0.180921,17.26,0.119347,
2,1,0,1,0,5066.63,0.127146,0.126825,2.56648,3,0.00981549,10,0.000325494,-2.59066,0.393852,0.149803,15.0344,0.126825,
2,1,0,1,0,5067.01,0.134637,0.134306,2.67965,3,0.0108076,10,0.000359892,-2.57192,0.748704,0.0788028,8.2317,0.134306,
2,1,0,1,0,5067.38,0.142128,0.141825,2.64845,3,0.01182,10,0.000375618,-2.57701,-0.310438,-0.190054,-19.56,0.141825,
2,1,0,1,0,5067.76,0.149619,0.149308,2.32762,3,0.0127685,10,0.000347532,-2.63309,-0.0879273,-0.671009,-60.7538,0.149308,
2,1,0,1,0,5068.13,0.157108,0.156796,1.85692,3,0.0135578,10,0.000291157,-2.73121,-0.0736736,-0.800829,-58.0773,0.156796,
2,1,0,1,0,5068.51,0.164601,0.164318,1.51443,3,0.0141906,10,0.000248847,-2.81975,-0.0995457,-0.592693,-35.1129,0.1643177,
2,1,0,1,0,5068.88,0.172092,0.171781,1.3056,3,0.0147231,10,0.000224277,-2.88419,-0.14434,-0.408756,-20.9032,0.171781,
2,1,0,1,0,5069.26,0.179582,0.179251,1.18369,3,0.015195,10,0.000212178,-2.92676,-0.226229,-0.260797,-12.1017,0.179251,
2,1,0,1,0,5069.63,0.187073,0.18674,1.11221,3,0.0156306,10,0.000207695,-2.95381,-0.374173,-0.157681,-6.82969,0.1867401,
2,1,0,1,0,5070.01,0.194564,0.194248,1.06546,3,0.0160441,10,0.000206963,-2.97246,-0.434433,-0.135809,-5.64483,0.194248,
2,1,0,1,0,5070.38,0.202057,0.201752,1.03333,3,0.016443,10,0.000208476,-2.98576,-0.536403,-0.109992,-4.41815,0.201752,
2,1,0,1,0,5070.75,0.209546,0.209245,1.00788,3,0.0168317,10,0.000210894,-2.99659,-0.554371,-0.106427,-4.18318,0.209245,
2,1,0,1,0,5071.13,0.217037,0.216728,0.989371,3,0.0172121,10,0.000214424,-3.00464,-1.24578,-0.04736,-1.82751,0.216728,
2,1,0,1,0,5071.5,0.224528,0.22426,0.971772,3,0.0175864,10,0.000217929,-3.01244,-1.04045,-0.0567061,-2.151,0.22426,
2,1,0,1,0,5071.88,0.232019,0.231716,0.959339,3,0.017955,10,0.000222294,-3.01803,-1.87388,-0.0314855,-1.17923,0.231716,
2,1,0,1,0,5072.25,0.23951,0.239228,0.945365,3,0.0183191,10,0.000226158,-3.0244,-1.59806,-0.0369197,-1.36531,0.239228,
2,1,0,1,0,5072.63,0.247001,0.246688,0.93594,3,0.0186787,10,0.000230885,-3.02875,-1.41108,-0.0418119,-1.52902,0.246688,
2,1,0,1,0,5073,0.254492,0.254203,0.924775,3,0.0190344,10,0.000235081,-3.03396,-1.43351,-0.0411576,-1.48469,0.254203,
2,1,0,1,0,5073.38,0.261983,0.261681,0.914785,3,0.0193862,10,0.000239382,-3.03868,-1.74012,-0.0339057,-1.21179,0.261681,
2,1,0,1,0,5073.75,0.269474,0.269176,0.905495,3,0.0197344,10,0.000243738,-3.04311,7.57232,0.00779154,0.275131,0.269176,
2,1,0,1,0,5074.13,0.276965,0.276657,0.898156,3,0.0200791,10,0.000248481,-3.04665,-1.30167,-0.0453262,-1.58876,0.276657,
2,1,0,1,0,5074.5,0.284456,0.284161,0.886841,3,0.0204203,10,0.000252006,-3.05215,-3.01065,-0.0195971,-0.677456,0.284161,
2,1,0,1,0,5074.87,0.291947,0.291613,0.87702,3,0.0207576,10,0.000255751,-3.05699,-1.1099,-0.0531581,-1.82097,0.291613,
2,1,0,1,0,5075.25,0.299436,0.299123,0.866799,3,0.0210913,10,0.00025928,-3.06208,-0.00181436,-32.5183,-442.025,0.299123,
2,0,0,1,0,5075.59,0.293745,0.293449,-0.225051,3,0.0210851,10,-6.60409e-05,-3.64772,-0.0258728,-2.28039,19.1277,0.293449,
2,0,0,1,0,5075.97,0.286254,0.285953,-0.317157,3,0.0209739,10,-9.06919e-05,-3.49873,-0.0779148,-0.757238,9.44738,0.285953,
2,0,0,1,0,5076.34,0.278763,0.278484,-0.383123,3,0.0208343,10,-0.000106694,-3.41666,-0.127877,-0.461382,6.91321,0.278484,
2,0,0,1,0,5076.71,0.271272,0.270983,-0.426871,3,0.020675,10,-0.000115675,-3.3697,-0.154349,-0.38225,6.3681,0.270983,
2,0,0,1,0,5077.09,0.263781,0.263443,-0.466872,3,0.0204996,10,-0.000122994,-3.3308,-0.209776,-0.281252,5.12653,0.263443,
2,0,0,1,0,5077.46,0.25629,0.255975,-0.50387,3,0.0203105,10,-0.000128978,-3.29768,-0.432138,-0.13653,2.67023,0.255975,
2,0,0,1,0,5077.84,0.248799,0.248521,-0.532087,3,0.0201094,10,-0.000132234,-3.27402,-0.377122,-0.156448,3.24559,0.248521,
2,0,0,1,0,5078.21,0.241308,0.241044,-0.559392,3,0.0198971,10,-0.000134838,-3.25228,-0.418672,-0.140922,3.08765,0.2410436,
2,0,0,1,0,5078.59,0.233817,0.233544,-0.589931,3,0.0196741,10,-0.000137775,-3.2292,-0.322758,-0.182799,4.20051,0.233544,
2,0,0,1,0,5078.96,0.226326,0.226053,-0.616562,3,0.0194407,10,-0.000139375,-3.21002,-0.380886,-0.154902,3.73878,0.226053,
2,0,0,1,0,5079.34,0.218835,0.218511,-0.647167,3,0.0191971,10,-0.000141413,-3.18898,-0.350055,-0.168545,4.23616,0.218511,
2,0,0,1,0,5079.71,0.211344,0.211037,-0.672536,3,0.018943,10,-0.00014193,-3.17228,-0.547509,-0.107761,2.83777,0.211037,
2,0,0,1,0,5080.09,0.203855,0.203531,-0.701557,3,0.0186777,10,-0.000142789,-3.15394,-0.396194,-0.148917,4.10427,0.203531,
2,0,0,1,0,5080.46,0.196362,0.196058,-0.74055,3,0.0184003,10,-0.000145191,-3.13045,-0.319227,-0.184822,5.32284,0.196058,
2,0,0,1,0,5080.83,0.188871,0.18855,-0.778586,3,0.0181087,10,-0.000146802,-3.10869,-0.279198,-0.21132,6.41841,0.18855,
2,0,0,1,0,5081.21,0.18138,0.181101,-0.828297,3,0.0178004,10,-0.000150005,-3.08181,-0.247734,-0.238159,7.71566,0.181101,
2,0,0,1,0,5081.58,0.173891,0.173587,-0.898012,3,0.0174704,10,-0.000155883,-3.04672,-0.183821,-0.320965,11.2562,0.173587,
2,0,0,1,0,5081.96,0.166398,0.166086,-0.991156,3,0.01711,10,-0.000164617,-3.00386,-0.159472,-0.369972,14.3939,0.166086,
2,0,0,1,0,5082.33,0.158906,0.158597,-1.14311,3,0.0167044,10,-0.000181293,-2.94191,-0.106619,-0.553373,24.7714,0.158597,
2,0,0,1,0,5082.71,0.151417,0.151144,-1.38554,3,0.0162265,10,-0.000209417,-2.85838,-0.077849,-0.757877,41.188,0.151144,
2,0,0,1,0,5083.08,0.143926,0.14362,-1.76348,3,0.0156336,10,-0.000253271,-2.75363,-0.0668424,-0.882673,60.7444,0.14362,
2,0,0,1,0,5083.46,0.136435,0.136146,-2.21513,3,0.0148807,10,-0.000301581,-2.6546,-0.0866084,-0.681227,58.6884,0.136146,
2,0,0,1,0,5083.83,0.128942,0.128643,-2.57369,3,0.0139713,10,-0.000331086,-2.58944,-0.173391,-0.340271,34.0213,0.128643,
2,0,0,1,0,5084.21,0.121453,0.121174,-2.74024,3,0.0129639,10,-0.000332045,-2.56221,-0.757808,-0.0778561,8.29562,0.1211739,
2,0,0,1,0,5084.58,0.113962,0.113636,-2.73059,3,0.0119277,10,-0.000310295,-2.56374,0.655879,0.0899556,-9.58336,0.113636,
2,0,0,1,0,5084.95,0.106471,0.106168,-2.62379,3,0.0109144,10,-0.000278561,-2.58107,0.339515,0.173777,-17.826,0.106168,
2,0,0,1,0,5085.33,0.0989799,0.0987116,-2.46921,3,0.00995184,10,-0.00024374,-2.60744,0.266426,0.22145,-21.3289,0.0987116,
2,0,0,1,0,5085.7,0.0914889,0.0911338,-2.31762,3,0.00904977,10,-0.000211214,-2.63496,0.288956,0.204183,-18.4351,0.0911338,
2,0,0,1,0,5086.08,0.083998,0.0837025,-2.19066,3,0.00820043,10,-0.000183364,-2.65942,0.306377,0.192573,-16.4534,0.0837025,
2,0,0,1,0,5086.45,0.076507,0.0762125,-2.1018,3,0.00739055,10,-0.000160183,-2.67741,0.407359,0.144835,-11.8597,0.0762125,
2,0,0,1,0,5086.83,0.0690161,0.0687176,-2.02176,3,0.0066116,10,-0.00013893,-2.69427,0.454604,0.129783,-10.2631,0.0687176,
2,0,0,1,0,5087.2,0.0615251,0.0612608,-1.951,3,0.00585934,10,-0.00011952,-2.70974,0.477382,0.123591,-9.43481,0.0612608,
2,0,0,1,0,5087.58,0.0540342,0.0537355,-1.87803,3,0.00513459,10,-0.000100917,-2.7263,0.441873,0.133522,-9.77618,0.0537355,
2,0,0,1,0,5087.95,0.0465432,0.0461816,-1.79376,3,0.00443908,10,-8.28387e-05,-2.74624,0.351552,0.167827,-11.7542,0.0461816,
2,0,0,1,0,5088.33,0.0390523,0.0386816,-1.70824,3,0.00377681,10,-6.60772e-05,-2.76745,0.286428,0.205985,-13.6761,0.0386816,
2,0,0,1,0,5088.7,0.0315626,0.0312312,-1.61754,3,0.00314836,10,-5.05176e-05,-2.79115,0.322961,0.182685,-11.5125,0.03123121,
2,0,0,1,0,5089.07,0.0240704,0.0237205,-1.53841,3,0.00255014,10,-3.6492e-05,-2.81293,0.415535,0.141986,-8.5621,0.0237205,
2,0,0,1,0,5089.45,0.0165785,0.0162401,-1.48926,3,0.00197564,10,-2.41858e-05,-2.82703,0.817531,0.0721685,-4.20593,0.0162401,
2,0,0,1,0,5089.82,0.00908846,0.00876446,-1.4614,3,0.00141632,10,-1.28084e-05,-2.83523,1.69821,0.0347424,-1.98318,0.00876446,
2,0,0,1,0,5090.2,0.0015984,0.001251,-1.47375,3,0.000862491,10,-1.84366e-06,-2.83158, , , ,0.001251,
2,0,0,1,0,5090.27,0.000199195,-0.000167237,-1.46026,3,0.000758503,10,2.4421e-07,-2.83557, , , ,-0.000167237,