File: Figure_codes/Fig_3-5/rawdata_trumpetplot_data/after 10th/20221101_1-115_003_TrumpetPlot_ParaChange_from10_every3_02_CV_C01_11.csv
mode,ox/red,error,control changes,counter inc.,time/s,control/V,Ewe/V,<I>/mA,cycle number,(Q-Qo)/C,I Range,P/W,log(|I|),Tafel slope mV/dec,alpha_eff,dI/d(E-IR),E-IR/V,
2,0,0,1,0,22011.5,2.44065e-05,-0.000325324,-0.356987,12,0.0000000E+000,10,1.16136e-07,-3.44735, , , ,-0.000325324,
2,0,0,1,0,22018.7,0.00729061,0.00698511,-0.0939133,12,-0.000910431,10,-6.55995e-07,-4.02727,-0.0308716,-1.91114,7.0927,0.00698511,
2,0,0,1,0,22026.2,0.0147815,0.0144418,-0.0587867,12,-0.00136802,10,-8.48988e-07,-4.23072,-0.0401519,-1.46942,3.3816,0.0144418,
2,0,0,1,0,22033.7,0.0222725,0.0220057,-0.0382947,12,-0.00163036,10,-8.42703e-07,-4.41686,-0.037294,-1.58202,2.3734,0.0220057,
2,0,0,1,0,22041.2,0.0297635,0.0294509,-0.022707,12,-0.00175943,10,-6.6874e-07,-4.64384,-0.0290305,-2.03235,1.80042,0.0294509,
2,0,0,1,0,22048.7,0.0372544,0.0369299,-0.0109973,12,-0.00178241,10,-4.06131e-07,-4.95871,-0.0141343,-4.17423,1.59486,0.0369299,
2,0,0,1,0,22056.2,0.0447454,0.0444737,0.00212387,12,-0.00171283,10,9.44564e-08,-5.67287,0.0110191,5.35432,1.51241,0.0444737,
2,0,0,1,0,22063.7,0.0522363,0.051923,0.0115158,12,-0.00156034,10,5.97937e-07,-4.9387,0.0181002,3.25964,1.39524,0.051923,
2,1,0,1,0,22071.2,0.0597273,0.059383,0.0216729,12,-0.00133306,10,1.287e-06,-4.66408,0.0456625,1.29209,1.04432,0.059383,
2,1,0,1,0,22078.7,0.0672183,0.06693,0.0300048,12,-0.00103706,10,2.00822e-06,-4.52281,0.0668274,0.882871,1.01002,0.06693,
2,1,0,1,0,22086.1,0.0747092,0.0744005,0.0366841,12,-0.000680343,10,2.72931e-06,-4.43552,0.0818854,0.720519,1.04664,0.0744005,
2,1,0,1,0,22093.6,0.0822001,0.0818752,0.0436226,12,-0.00026885,10,3.57161e-06,-4.36029,0.116437,0.506711,0.879374,0.08187522,
2,1,0,1,0,22101.1,0.0896911,0.089384,0.0529557,12,0.000202054,10,4.73339e-06,-4.27609,0.0815403,0.723569,1.51703,0.089384,
2,1,0,1,0,22108.6,0.0971821,0.096826,0.0634454,12,0.000746804,10,6.14316e-06,-4.1976,0.0796478,0.740761,1.83322,0.096826,
2,1,0,1,0,22116.1,0.104673,0.104369,0.0761068,12,0.00137709,10,7.94316e-06,-4.11858,0.144423,0.408524,1.18968,0.104369,
2,1,0,1,0,22123.6,0.112164,0.111815,0.0850471,12,0.00208898,10,9.50951e-06,-4.07034,0.21844,0.270097,0.894831,0.111815,
2,1,0,1,0,22131.1,0.119655,0.119304,0.0941574,12,0.00287036,10,1.12334e-05,-4.02615,0.179159,0.329317,1.20635,0.119304,
2,1,0,1,0,22138.6,0.127146,0.126837,0.101217,12,0.00372015,10,1.2838e-05,-3.99475,0.339293,0.173891,0.692121,0.126837,
2,1,0,1,0,22146.1,0.134637,0.134319,0.10311,12,0.00461065,10,1.38496e-05,-3.9867,-0.192664,-0.306232,-1.22411,0.134319,
2,1,0,1,0,22153.6,0.142128,0.14182,0.0867339,12,0.00543945,10,1.23006e-05,-4.06181,-0.0725195,-0.813575,-2.72919,0.14182,
2,1,0,1,0,22161.1,0.149619,0.149342,0.0660412,12,0.00611391,10,9.8627e-06,-4.18018,-0.0653835,-0.902368,-2.34635,0.149342,
2,1,0,1,0,22168.5,0.15711,0.156815,0.0559162,12,0.00666621,10,8.76851e-06,-4.25246,-0.122469,-0.481753,-1.03814,0.156815,
2,1,0,1,0,22176,0.164601,0.164233,0.0511886,12,0.00716222,10,8.40685e-06,-4.29083,-0.685429,-0.0860775,-0.171365,0.164233,
2,1,0,1,0,22183.5,0.172091,0.171785,0.0491811,12,0.00763339,10,8.44857e-06,-4.3082,-2.63307,-0.0224073,-0.0430158,0.171785,
2,1,0,1,0,22191,0.179582,0.179247,0.0491051,12,0.00809556,10,8.80194e-06,-4.30887,1.39957,0.0421557,0.080031,0.179247,
2,1,0,1,0,22198.5,0.187073,0.186799,0.0491996,12,0.00855663,10,9.19045e-06,-4.30804,1.2725,0.0463653,0.088271,0.186799,
2,1,0,1,0,22206,0.194564,0.194216,0.0489468,12,0.0090177,10,9.50623e-06,-4.31028,0.442957,0.133196,0.255811,0.194216,
2,1,0,1,0,22213.5,0.202055,0.201747,0.0495637,12,0.00948152,10,9.99931e-06,-4.30484,-200.988,-0.000293549,-0.000566576,0.201747,
2,1,0,1,0,22221,0.209546,0.209217,0.0504367,12,0.00994829,10,1.05522e-05,-4.29725,0.851142,0.0693187,0.136831,0.209217,
2,1,0,1,0,22228.5,0.217037,0.216744,0.0510648,12,0.0104203,10,1.1068e-05,-4.29188,0.844943,0.0698272,0.139882,0.216744,
2,1,0,1,0,22236,0.224528,0.224201,0.0528362,12,0.0108999,10,1.18459e-05,-4.27707,0.880798,0.0669847,0.136292,0.224201,
2,1,0,1,0,22243.5,0.232019,0.231751,0.0534382,12,0.0113864,10,1.23844e-05,-4.27215,0.66003,0.0893899,0.186594,0.231751,
2,1,0,1,0,22250.9,0.23951,0.239186,0.0545689,12,0.0118788,10,1.30521e-05,-4.26306,0.478296,0.123355,0.261251,0.239186,
2,1,0,1,0,22258.4,0.247001,0.246671,0.0554188,12,0.0123792,10,1.36702e-05,-4.25634,0.844262,0.0698835,0.150094,0.2466709,
2,1,0,1,0,22265.9,0.254492,0.25416,0.0563195,12,0.0128854,10,1.43141e-05,-4.24934,0.893096,0.0660623,0.144877,0.25416,
2,1,0,1,0,22273.4,0.261983,0.261684,0.0568581,12,0.0133968,10,1.48789e-05,-4.24521,1.19266,0.0494692,0.109967,0.261684,
2,1,0,1,0,22280.9,0.269474,0.269166,0.0582998,12,0.013914,10,1.56923e-05,-4.23433,0.35276,0.167253,0.376822,0.269166,
2,1,0,1,0,22288.4,0.276965,0.276643,0.0586739,12,0.0144386,10,1.62317e-05,-4.23156,0.545299,0.108198,0.249659,0.276643,
2,1,0,1,0,22295.9,0.284456,0.284164,0.0604188,12,0.0149684,10,1.71688e-05,-4.21883,0.532481,0.110802,0.258434,0.284164,
2,1,0,1,0,22303.4,0.291947,0.29161,0.0606895,12,0.0155047,10,1.76977e-05,-4.21689,1.40709,0.0419305,0.0995335,0.29161,
2,1,0,1,0,22310.9,0.299438,0.299089,0.061573,12,0.0160456,10,1.84158e-05,-4.21061,-0.00500385,-11.7909,-18.9417,0.299089,
2,1,0,1,0,22317.7,0.293745,0.293396,0.0116204,12,0.0161336,10,3.40937e-06,-4.93478,0.0173795,3.39481,1.47583,0.293396,
2,1,0,1,0,22325.2,0.286254,0.285891,0.00253661,12,0.0161,10,7.25194e-07,-5.59575,0.00690059,8.54999,0.86904,0.285891,
2,1,0,1,0,22332.7,0.278763,0.278464,-0.00292622,12,0.0160157,10,-8.14848e-07,-5.53369,-0.0112769,-5.23191,0.565815,0.278464,
2,1,0,1,0,22340.2,0.271272,0.270963,-0.00768748,12,0.0158928,10,-2.08302e-06,-5.11422,-0.0260943,-2.26103,0.658792,0.270963,
2,0,0,1,0,22347.7,0.263781,0.263484,-0.0109063,12,0.0157372,10,-2.87364e-06,-4.96232,-0.0671272,-0.878928,0.38884,0.263484,
2,0,0,1,0,22355.2,0.25629,0.255972,-0.0146914,12,0.0155545,10,-3.76059e-06,-4.83294,-0.0628579,-0.938625,0.539528,0.2559717,
2,0,0,1,0,22362.7,0.248799,0.24849,-0.0174775,12,0.015346,10,-4.34299e-06,-4.75752,-0.095027,-0.620876,0.435549,0.24849,
2,0,0,1,0,22370.2,0.241308,0.240944,-0.0210733,12,0.0151134,10,-5.07748e-06,-4.67627,-0.0866468,-0.680926,0.551202,0.240944,
2,0,0,1,0,22377.6,0.233817,0.233479,-0.0236035,12,0.0148586,10,-5.51094e-06,-4.62702,-0.355402,-0.166009,0.15116,0.233479,
2,0,0,1,0,22385.1,0.226326,0.226051,-0.0261308,12,0.0145858,10,-5.90689e-06,-4.58285,-0.129624,-0.455163,0.473016,0.226051,
2,0,0,1,0,22392.6,0.218835,0.218524,-0.029485,12,0.0142864,10,-6.44318e-06,-4.5304,-0.370565,-0.159216,0.181686,0.2185235,
2,0,0,1,0,22400.1,0.211344,0.211025,-0.0321777,12,0.0139668,10,-6.7903e-06,-4.49245,-0.190206,-0.31019,0.391151,0.211025,
2,0,0,1,0,22407.6,0.203853,0.203509,-0.0344459,12,0.0136221,10,-7.01006e-06,-4.46286,-0.260441,-0.226539,0.312632,0.203509,
2,0,0,1,0,22415.1,0.196362,0.196052,-0.0380665,12,0.0132571,10,-7.46304e-06,-4.41946,-0.248324,-0.237593,0.347907,0.196052,
2,0,0,1,0,22422.6,0.188871,0.188564,-0.0406538,12,0.0128693,10,-7.66584e-06,-4.3909,-0.175825,-0.335562,0.535062,0.188564,
2,0,0,1,0,22430.1,0.18138,0.181054,-0.0452037,12,0.0124519,10,-8.18432e-06,-4.34483,-0.218123,-0.270489,0.475643,0.181054,
2,0,0,1,0,22437.6,0.173889,0.173528,-0.0492431,12,0.0120029,10,-8.54506e-06,-4.30766,-0.178621,-0.330309,0.63382,0.173528,
2,0,0,1,0,22445.1,0.166398,0.166045,-0.0540239,12,0.0115165,10,-8.97039e-06,-4.26741,-0.175187,-0.336783,0.721972,0.166045,
2,0,0,1,0,22452.6,0.158907,0.158564,-0.0622987,12,0.0109798,10,-9.87832e-06,-4.20552,-0.124451,-0.474082,1.16207,0.158564,
2,0,0,1,0,22460,0.151417,0.151125,-0.074142,12,0.0103683,10,-1.12047e-05,-4.12994,-0.0940224,-0.62751,1.82366,0.1511251,
2,0,0,1,0,22467.5,0.143926,0.143637,-0.0929227,12,0.00963999,10,-1.33471e-05,-4.03188,-0.067284,-0.876881,3.17897,0.143637,
2,0,0,1,0,22475,0.136435,0.136102,-0.119687,12,0.00873904,10,-1.62897e-05,-3.92195,-0.0804755,-0.733142,3.38662,0.136102,
2,0,0,1,0,22482.5,0.128944,0.128621,-0.140111,12,0.00764924,10,-1.80212e-05,-3.85353,-0.177665,-0.332085,1.81131,0.1286211,
2,0,0,1,0,22490,0.121453,0.121125,-0.148119,12,0.0064492,10,-1.79409e-05,-3.82939,-1.09405,-0.0539283,0.310615,0.121125,
2,0,0,1,0,22497.5,0.113962,0.113611,-0.145963,12,0.00523045,10,-1.6583e-05,-3.83576,0.743113,0.0793957,-0.453992,0.113611,
2,0,0,1,0,22505,0.106471,0.106164,-0.143456,12,0.00402929,10,-1.52298e-05,-3.84328,1.05629,0.055856,-0.315146,0.106164,
2,0,0,1,0,22512.5,0.0989798,0.0986943,-0.140628,12,0.00285194,10,-1.38792e-05,-3.85193,0.502912,0.117317,-0.638119,0.0986943,
2,0,0,1,0,22520,0.0914889,0.0911496,-0.135033,12,0.0017132,10,-1.23082e-05,-3.86956,0.371162,0.15896,-0.831529,0.0911496,
2,0,0,1,0,22527.5,0.083998,0.0836706,-0.129062,12,0.000618898,10,-1.07987e-05,-3.8892,0.310897,0.189774,-0.954728,0.0836706,
2,0,0,1,0,22535,0.076507,0.0762021,-0.124552,12,-0.000437318,10,-9.49113e-06,-3.90465,0.538197,0.109625,-0.531641,0.07620208,
2,0,0,1,0,22542.4,0.069016,0.0687283,-0.119821,12,-0.00146162,10,-8.23511e-06,-3.92147,0.62105,0.0950005,-0.44718,0.06872829,
2,0,0,1,0,22549.9,0.0615251,0.0611889,-0.117826,12,-0.00246167,10,-7.20963e-06,-3.92876,0.54136,0.108985,-0.501057,0.0611889,
2,0,0,1,0,22557.4,0.0540342,0.0536982,-0.114628,12,-0.0034385,10,-6.15529e-06,-3.94071,0.460844,0.128026,-0.571779,0.0536982,
2,0,0,1,0,22564.9,0.0465432,0.046252,-0.11158,12,-0.00439324,10,-5.16078e-06,-3.95242,0.708631,0.0832591,-0.364607,0.046252,
2,0,0,1,0,22572.4,0.0390522,0.0386955,-0.109514,12,-0.00532798,10,-4.23768e-06,-3.96053,0.438995,0.134398,-0.573533,0.0386955,
2,0,0,1,0,22579.9,0.0315613,0.0311868,-0.107074,12,-0.00624163,10,-3.3393e-06,-3.97032,0.519224,0.113631,-0.471851,0.0311868,
2,0,0,1,0,22587.4,0.0240703,0.0237438,-0.104562,12,-0.00713458,10,-2.48269e-06,-3.98063,1.70616,0.0345806,-0.14103,0.02374376,
2,0,0,1,0,22594.9,0.0165794,0.0162764,-0.103736,12,-0.00801695,10,-1.68845e-06,-3.98407,-1.10671,-0.0533112,0.216128,0.0162764,
2,0,0,1,0,22602.4,0.00908843,0.0087687,-0.105388,12,-0.00890199,10,-9.24118e-07,-3.97721,-0.732875,-0.0805049,0.330662,0.0087687,
2,0,0,1,0,22609.9,0.00159744,0.0012557,-0.108163,12,-0.00980182,10,-1.3582e-07,-3.96592, , , ,0.0012557,
2,0,0,1,0,22611.3,0.000199235,-0.000197413,-0.108282,12,-0.00997202,10,2.13763e-08,-3.96544, , , ,-0.000197413,