File: Figure_codes/Fig_3-5/rawdata_trumpetplot_data/after 10th/20221101_1-115_003_TrumpetPlot_ParaChange_from10_every3_10_CV_C01_11.csv
mode,ox/red,error,control changes,counter inc.,time/s,control/V,Ewe/V,<I>/mA,cycle number,(Q-Qo)/C,I Range,P/W,log(|I|),Tafel slope mV/dec,alpha_eff,dI/d(E-IR),E-IR/V,
2,1,0,0,0,22862,-2.44065e-05,-0.000363498,5.33423,12,0.0000000E+000,10,-1.93898e-06,-2.27293, , , ,-0.000363498,
2,1,0,1,0,22862,0.00977853,0.0094283,8.28936,12,0.000348526,10,7.81545e-05,-2.08148,0.11379,0.5185,166.919,0.0094283,
2,1,0,1,0,22862.1,0.0197755,0.0194118,9.47987,12,0.000795904,10,0.000184022,-2.0232,0.242389,0.24341,90.0908,0.01941183,
2,1,0,1,0,22862.1,0.0297726,0.0295272,10.2579,12,0.00129024,10,0.000302886,-1.98894,0.34961,0.168759,67.4572,0.0295272,
2,1,0,1,0,22862.2,0.0397514,0.0394232,10.9309,12,0.00181904,10,0.000430933,-1.96134,0.349568,0.16878,72.0741,0.03942322,
2,1,0,1,0,22862.2,0.0497393,0.0494197,11.6545,12,0.00238217,10,0.000575961,-1.93351,0.369188,0.15981,72.54,0.0494197,
2,1,0,1,0,22862.3,0.0597364,0.0593998,12.3751,12,0.00298259,10,0.00073508,-1.90745,0.369506,0.159673,77.14,0.0593998,
2,1,0,1,0,22862.3,0.0697152,0.0693792,13.1146,12,0.00361897,10,0.000909877,-1.88225,0.417099,0.141453,72.4388,0.0693792,
2,1,0,1,0,22862.4,0.0796941,0.0793764,13.8615,12,0.00429255,10,0.00110028,-1.85819,0.459134,0.128503,69.5298,0.0793764,
2,1,0,1,0,22862.4,0.0896911,0.0893669,14.5366,12,0.00500299,10,0.00129909,-1.83754,0.504948,0.116844,66.306,0.0893669,
2,1,0,1,0,22862.5,0.099679,0.0993248,15.1857,12,0.00574458,10,0.00150831,-1.81857,0.516415,0.114249,67.6942,0.0993248,
2,1,0,1,0,22862.5,0.109658,0.109364,15.9428,12,0.00652012,10,0.00174357,-1.79744,0.41524,0.142086,88.4158,0.109364,
2,1,0,1,0,22862.6,0.119655,0.119336,16.9685,12,0.0073418,10,0.00202495,-1.77036,0.345125,0.170952,113.253,0.119336,
2,1,0,1,0,22862.6,0.129652,0.129321,18.1649,12,0.00822019,10,0.00234911,-1.74077,0.351416,0.167892,118.936,0.129321,
2,1,0,1,0,22862.7,0.139631,0.139337,19.2261,12,0.00915441,10,0.00267892,-1.71611,0.47433,0.124386,93.3414,0.139337,
2,1,0,1,0,22862.7,0.149619,0.149322,20.0216,12,0.010135,10,0.00298966,-1.6985,0.807628,0.0730534,56.9953,0.149322,
2,1,0,1,0,22862.8,0.159616,0.15929,20.1387,12,0.0111431,10,0.00320789,-1.69597,-0.970091,-0.060819,-47.7715,0.15929,
2,1,0,1,0,22862.8,0.169595,0.169265,18.8444,12,0.0121229,10,0.00318971,-1.72482,-0.194901,-0.302717,-222.017,0.169265,
2,1,0,1,0,22862.9,0.179573,0.17927,15.9779,12,0.0129951,10,0.00286436,-1.79648,-0.116801,-0.505131,-315.053,0.17927,
2,1,0,1,0,22862.9,0.18957,0.189283,13.1218,12,0.0137191,10,0.00248374,-1.88201,-0.123913,-0.476142,-243.971,0.189283,
2,1,0,1,0,22863,0.199558,0.199234,11.2137,12,0.0143219,10,0.00223416,-1.95025,-0.181151,-0.325695,-142.608,0.199234,
2,1,0,1,0,22863,0.209537,0.209208,10.0705,12,0.0148501,10,0.00210682,-1.99695,-0.24247,-0.243329,-95.6743,0.209208,
2,1,0,1,0,22863.1,0.219534,0.219226,9.33305,12,0.0153338,10,0.00204604,-2.02998,-0.380294,-0.155143,-56.593,0.219226,
2,1,0,1,0,22863.1,0.229531,0.229232,8.8436,12,0.0157878,10,0.00202724,-2.05337,-0.492242,-0.11986,-41.3888,0.229232,
2,1,0,1,0,22863.2,0.23951,0.239172,8.49676,12,0.0162203,10,0.00203219,-2.07075,-0.694816,-0.0849145,-28.1882,0.239172,
2,1,0,1,0,22863.2,0.249498,0.249181,8.24026,12,0.0166376,10,0.00205331,-2.08406,-0.830911,-0.0710064,-22.8181,0.2491806,
2,1,0,1,0,22863.3,0.259495,0.25921,8.03261,12,0.017044,10,0.00208213,-2.09514,-0.88764,-0.0664684,-20.8229,0.25921,
2,1,0,1,0,22863.3,0.269474,0.269172,7.85666,12,0.0174402,10,0.0021148,-2.10476,-1.27642,-0.0462229,-14.1724,0.269172,
2,1,0,1,0,22863.4,0.279453,0.27917,7.7042,12,0.0178286,10,0.00215078,-2.11327,-1.38609,-0.0425658,-12.8096,0.27917,
2,1,0,1,0,22863.4,0.28945,0.289105,7.56998,12,0.0182105,10,0.00218852,-2.12091,-1.62804,-0.0362399,-10.7028,0.289105,
2,1,0,1,0,22863.5,0.299438,0.29916,7.44942,12,0.0185852,10,0.00222857,-2.12788,-0.0550524,-1.07171,-297.769,0.29916,
2,0,0,1,0,22863.5,0.291747,0.291444,-0.215239,12,0.0187092,10,-6.27301e-05,-3.66708,-0.0353165,-1.67061,397.985,0.291444,
2,0,0,1,0,22863.5,0.28175,0.281462,-2.46529,12,0.0186313,10,-0.000693884,-2.60813,-0.0427575,-1.37987,131.605,0.2814616,
2,0,0,1,0,22863.6,0.27178,0.271457,-3.40946,12,0.0184824,10,-0.000925523,-2.46731,-0.108798,-0.542289,71.7057,0.271457,
2,0,0,1,0,22863.6,0.261783,0.261462,-3.96017,12,0.0182972,10,-0.00103543,-2.40229,-0.199049,-0.29641,45.8344,0.261462,
2,0,0,1,0,22863.7,0.251786,0.251437,-4.37737,12,0.018088,10,-0.00110063,-2.35879,-0.28207,-0.209168,35.6996,0.251437,
2,0,0,1,0,22863.7,0.241807,0.241501,-4.70992,12,0.0178607,10,-0.00113745,-2.32699,-0.336875,-0.175139,32.2944,0.241501,
2,0,0,1,0,22863.8,0.231824,0.231488,-5.02059,12,0.0176179,10,-0.0011622,-2.29925,-0.399855,-0.147554,28.8225,0.231488,
2,0,0,1,0,22863.8,0.221822,0.221502,-5.27467,12,0.0173604,10,-0.00116835,-2.2778,-0.447724,-0.131778,27.1534,0.221502,
2,0,0,1,0,22863.9,0.211843,0.211587,-5.54245,12,0.0170903,10,-0.00117271,-2.2563,-0.524773,-0.11243,24.2989,0.211587,
2,0,0,1,0,22863.9,0.201865,0.201547,-5.79675,12,0.0168074,10,-0.00116831,-2.23682,-0.541381,-0.108981,24.6964,0.201547,
2,0,0,1,0,22864,0.191868,0.191589,-6.07184,12,0.0165106,10,-0.0011633,-2.21668,-0.490609,-0.120259,28.5095,0.191589,
2,0,0,1,0,22864,0.18188,0.181514,-6.38772,12,0.0162,10,-0.00115946,-2.19465,-0.389776,-0.151369,37.7159,0.181514,
2,0,0,1,0,22864.1,0.171901,0.171577,-6.76882,12,0.0158724,10,-0.00116137,-2.16949,-0.364384,-0.161917,42.7113,0.171577,
2,0,0,1,0,22864.1,0.161904,0.161588,-7.27456,12,0.0155222,10,-0.00117548,-2.13819,-0.269406,-0.219001,62.2595,0.161588,
2,0,0,1,0,22864.2,0.151907,0.151587,-8.052,12,0.0151402,10,-0.00122058,-2.0941,-0.193445,-0.304996,95.9747,0.151587,
2,0,0,1,0,22864.2,0.141928,0.141637,-9.34348,12,0.0147085,10,-0.00132339,-2.02949,-0.12969,-0.454932,166.188,0.1416374,
2,0,0,1,0,22864.3,0.13194,0.131619,-11.3548,12,0.0141948,10,-0.00149451,-1.94482,-0.115133,-0.512449,226.981,0.131619,
2,0,0,1,0,22864.3,0.121943,0.121635,-13.7531,12,0.013567,10,-0.00167286,-1.8616,-0.13644,-0.432426,231.931,0.121635,
2,0,0,1,0,22864.4,0.111964,0.111669,-15.9916,12,0.0128232,10,-0.00178576,-1.79611,-0.183274,-0.321922,200.667,0.111669,
2,0,0,1,0,22864.4,0.101985,0.101695,-17.6877,12,0.0119802,10,-0.00179874,-1.75233,-0.293592,-0.200959,138.627,0.101695,
2,0,0,1,0,22864.5,0.0919883,0.0916868,-18.7543,12,0.0110659,10,-0.00171952,-1.7269,-0.588719,-0.100218,73.3104,0.0916868,
2,0,0,1,0,22864.5,0.0820004,0.0817271,-19.032,12,0.0101194,10,-0.00155543,-1.72052,3.62348,0.0162827,-12.0876,0.0817271,
2,0,0,1,0,22864.6,0.0720215,0.071692,-18.608,12,0.00917832,10,-0.00133404,-1.7303,0.664348,0.0888089,-64.44,0.07169199,
2,0,0,1,0,22864.6,0.0620245,0.0617388,-17.9133,12,0.00826536,10,-0.00110594,-1.74683,0.592748,0.0995363,-69.6238,0.0617388,
2,0,0,1,0,22864.7,0.0520275,0.051692,-17.3353,12,0.0073848,10,-0.000896097,-1.76107,0.7069,0.083463,-56.4185,0.051692,
2,0,0,1,0,22864.7,0.0420486,0.0416898,-16.8084,12,0.00653306,10,-0.00070074,-1.77447,0.792574,0.074441,-48.8771,0.0416898,
2,0,0,1,0,22864.8,0.0320607,0.0317379,-16.3136,12,0.00570654,10,-0.00051776,-1.78745,0.688849,0.0856501,-54.4646,0.0317379,
2,0,0,1,0,22864.8,0.0220637,0.0217787,-15.696,12,0.00490597,10,-0.000341838,-1.80421,0.522231,0.112977,-69.2233,0.0217787,
2,0,0,1,0,22864.9,0.0120848,0.0117546,-14.9635,12,0.00414056,10,-0.000175889,-1.82497,0.418712,0.140908,-82.2461,0.0117546,
2,0,0,1,0,22864.9,0.00210598,0.00173611,-14.1952,12,0.00341453,10,-2.46444e-05,-1.84786,0.492083,0.119898,-66.3093,0.00173611,
2,0,0,1,0,22865,-0.00789103,-0.00823095,-13.4579,12,0.00272408,10,0.000110772,-1.87102,0.515808,0.114384,-60.1319,-0.00823095,
2,0,0,1,0,22865,-0.017879,-0.0182435,-13.0088,12,0.00206467,10,0.000237327,-1.88576,0.945505,0.0624005,-31.6868,-0.0182435,
2,0,0,1,0,22865.1,-0.0278578,-0.0282371,-12.7893,12,0.00142221,10,0.000361132,-1.89315,2.0861,0.0282824,-14.1133,-0.0282371,
2,0,0,1,0,22865.1,-0.0378549,-0.0382388,-12.7702,12,0.00078398,10,0.000488319,-1.8938,-5.82919,-0.0101215,5.0468,-0.0382388,
2,0,0,1,0,22865.2,-0.0478519,-0.0482571,-12.9079,12,0.000142505,10,0.000622898,-1.88914,-1.28722,-0.0458351,23.0932,-0.0482571,
2,0,0,1,0,22865.2,-0.0578126,-0.0581799,-13.1564,12,-0.000506347,10,0.000765436,-1.88086,-1.04562,-0.0564257,28.9956,-0.05817987,
2,0,0,1,0,22865.3,-0.0678187,-0.0681756,-13.5237,12,-0.00117308,10,0.000921988,-1.8689,-0.788202,-0.0748539,39.4983,-0.0681756,
2,0,0,1,0,22865.3,-0.0778157,-0.0781661,-13.9712,12,-0.00186024,10,0.00109207,-1.85477,-0.643713,-0.0916558,50.0273,-0.0781661,
2,0,0,1,0,22865.4,-0.0877945,-0.0881747,-14.5537,12,-0.00257149,10,0.00128327,-1.83703,-0.537628,-0.109741,62.3046,-0.0881747,
2,0,0,1,0,22865.4,-0.0977734,-0.0981453,-15.2091,12,-0.0033137,10,0.0014927,-1.8179,-0.486255,-0.121335,72.0353,-0.0981453,
2,0,0,1,1,22865.5,-0.0936874,-0.0941045,-6.31883,12,-0.00380072,10,0.000594631,-2.19936,-0.0151604,-3.89172,955.721,-0.0941045,
2,1,0,1,1,22865.5,-0.0837086,-0.0840961,0.388486,12,-0.0039295,10,-3.26702e-05,-3.41062,0.0121341,4.86234,492.836,-0.0840961,
2,1,0,1,1,22865.6,-0.0737025,-0.0740779,4.25349,12,-0.0038052,10,-0.00031509,-2.37125,0.0319674,1.84563,300.956,-0.0740779,
2,1,0,1,1,22865.6,-0.0637236,-0.0641319,6.66156,12,-0.00352832,10,-0.000427218,-2.17642,0.080817,0.730045,189.345,-0.0641319,
2,1,0,1,1,22865.7,-0.0537447,-0.0541091,8.21548,12,-0.00315414,10,-0.000444532,-2.08537,0.158679,0.37182,118.796,-0.05410907,
2,1,0,1,1,22865.7,-0.0437477,-0.0441316,9.18466,12,-0.00271713,10,-0.000405334,-2.03694,0.276279,0.213552,76.5318,-0.0441316,
2,1,0,1,1,22865.8,-0.0337507,-0.034063,9.7984,12,-0.00224114,10,-0.000333763,-2.00884,0.506257,0.116542,44.5041,-0.034063,
2,1,0,1,1,22865.8,-0.0237809,-0.0241246,10.1273,12,-0.00174421,10,-0.000244318,-1.9945,0.9207,0.0640817,25.3281,-0.0241246,
2,1,0,1,1,22865.9,-0.0137839,-0.0141324,10.2911,12,-0.0012331,10,-0.000145438,-1.98754,3.02938,0.0194759,7.82014,-0.0141324,
2,1,0,1,1,22865.9,-0.0037869,-0.00411329,10.3513,12,-0.00071667,10,-4.25779e-05,-1.985,6.1193,0.00964163,3.89685,-0.00411329,
2,1,0,1,1,22866,-2.55332e-05,-0.000229887,10.3462,12,-0.000522913,10,-2.37845e-06,-1.98522, , , ,-0.000229887,