File: Figure_codes/Fig_3-5/rawdata_trumpetplot_data/after 10th/20221101_1-115_003_TrumpetPlot_ParaChange_from10_every3_03_CV_C01_18.csv
mode,ox/red,error,control changes,counter inc.,time/s,control/V,Ewe/V,<I>/mA,cycle number,(Q-Qo)/C,I Range,P/W,log(|I|),Tafel slope mV/dec,alpha_eff,dI/d(E-IR),E-IR/V,
2,0,0,1,0,36402.4,2.44065e-05,-0.000268062,-0.105754,19,0.0000000E+000,10,2.83487e-08,-3.9757, , , ,-0.000268062,
2,1,0,1,0,36403.8,0.00729041,0.00697118,0.203011,19,0.000253853,10,1.41523e-06,-3.69248,0.0876876,0.672843,5.29268,0.00697118,
2,1,0,1,0,36405.3,0.0147815,0.0144481,0.235979,19,0.000604106,10,3.40946e-06,-3.62713,0.141343,0.417424,3.83503,0.0144481,
2,1,0,1,0,36406.8,0.0222725,0.0219729,0.262048,19,0.000998001,10,5.75796e-06,-3.58162,0.152068,0.387984,3.96828,0.0219729,
2,1,0,1,0,36408.3,0.0297635,0.0294487,0.288707,19,0.00143141,10,8.50206e-06,-3.53954,0.216555,0.272448,3.0657,0.0294487,
2,1,0,1,0,36409.8,0.0372545,0.0369194,0.314645,19,0.00190388,10,1.16165e-05,-3.50218,0.211168,0.279398,3.43664,0.0369194,
2,1,0,1,0,36411.3,0.0447456,0.0443921,0.34072,19,0.00241557,10,1.51253e-05,-3.4676,0.222371,0.265322,3.52728,0.0443921,
2,1,0,1,0,36412.8,0.0522367,0.0519202,0.363899,19,0.00296481,10,1.88937e-05,-3.43902,0.241946,0.243856,3.46243,0.0519202,
2,1,0,1,0,36414.3,0.0597277,0.0594215,0.386878,19,0.00354909,10,2.29889e-05,-3.41243,0.301105,0.195945,2.95166,0.0594215,
2,1,0,1,0,36415.8,0.0672187,0.0669503,0.405877,19,0.00416434,10,2.71736e-05,-3.39161,0.388103,0.152022,2.40588,0.0669503,
2,1,0,1,0,36417.3,0.0747092,0.0743676,0.42171,19,0.00480594,10,3.13616e-05,-3.37499,0.566917,0.104072,1.71599,0.0743676,
2,1,0,0,0,36418.8,0.0822001,0.0818721,0.436447,19,0.00547081,10,3.57328e-05,-3.36007,0.533237,0.110645,1.89003,0.0818721,
2,1,0,1,0,36420.3,0.0896911,0.0893543,0.457634,19,0.00616041,10,4.08916e-05,-3.33948,0.288277,0.204664,3.65539,0.0893543,
2,1,0,0,0,36421.8,0.097182,0.0968312,0.487743,19,0.00688901,10,4.72287e-05,-3.31181,0.191214,0.308555,5.88979,0.0968312,
2,1,0,1,0,36423.3,0.104673,0.104379,0.532328,19,0.00767362,10,5.5564e-05,-3.27382,0.223375,0.26413,5.45847,0.1043792,
2,1,0,0,0,36424.8,0.112164,0.111805,0.567225,19,0.00851878,10,6.34187e-05,-3.24624,0.373215,0.158086,3.49923,0.111805,
2,1,0,1,0,36426.3,0.119655,0.119347,0.593589,19,0.00941181,10,7.0843e-05,-3.22651,0.605892,0.0973771,2.26163,0.119347,
2,1,0,0,0,36427.8,0.127146,0.126831,0.611798,19,0.0103397,10,7.75951e-05,-3.21339,0.819316,0.0720113,1.72435,0.126831,
2,1,0,1,0,36429.3,0.134637,0.134325,0.613403,19,0.0112874,10,8.23954e-05,-3.21225,-0.377745,-0.15619,-3.7325,0.134325,
2,1,0,1,0,36430.8,0.142127,0.141806,0.55123,19,0.0121899,10,7.81676e-05,-3.25867,-0.103099,-0.572268,-12.2324,0.1418059,
2,1,0,1,0,36432.3,0.149618,0.149316,0.44411,19,0.012956,10,6.63126e-05,-3.35251,-0.0800349,-0.737178,-12.7813,0.149316,
2,1,0,1,0,36433.8,0.157109,0.156821,0.369349,19,0.013579,10,5.79217e-05,-3.43256,-0.116801,-0.505134,-7.29615,0.156821,
2,1,0,1,0,36435.3,0.1646,0.164292,0.335944,19,0.0141237,10,5.51928e-05,-3.47373,-0.269247,-0.219129,-2.86931,0.164292,
2,1,0,1,0,36436.8,0.172091,0.171818,0.317596,19,0.0146321,10,5.45686e-05,-3.49813,-0.461831,-0.127752,-1.59068,0.171818,
2,1,0,1,0,36438.3,0.179582,0.179231,0.308329,19,0.0151206,10,5.52622e-05,-3.51099,-0.824338,-0.0715726,-0.862283,0.179231,
2,1,0,1,0,36439.8,0.187074,0.186773,0.301326,19,0.0155967,10,5.62796e-05,-3.52096,-0.995565,-0.0592629,-0.696423,0.186773,
2,1,0,1,0,36441.3,0.194564,0.194241,0.296937,19,0.0160647,10,5.76775e-05,-3.52734,-0.849663,-0.0694393,-0.803692,0.194241,
2,1,0,1,0,36442.8,0.202056,0.201741,0.292979,19,0.0165263,10,5.91058e-05,-3.53316,-1.95009,-0.030255,-0.346372,0.201741,
2,1,0,1,0,36444.3,0.209547,0.209235,0.291084,19,0.0169827,10,6.09049e-05,-3.53598,-1.32535,-0.0445164,-0.504583,0.209235,
2,1,0,1,0,36445.8,0.217038,0.216771,0.286888,19,0.0174342,10,6.2189e-05,-3.54229,-3.51022,-0.0168081,-0.189007,0.216771,
2,1,0,1,0,36447.3,0.224529,0.224206,0.285256,19,0.017882,10,6.39559e-05,-3.54477,-2.03679,-0.0289671,-0.321731,0.224206,
2,1,0,1,0,36448.8,0.232019,0.231696,0.281709,19,0.0183264,10,6.52707e-05,-3.5502,-1.24443,-0.0474112,-0.522739,0.231696,
2,1,0,0,0,36450.3,0.23951,0.239208,0.281155,19,0.0187677,10,6.72544e-05,-3.55105,-7.73284,-0.0076298,-0.0835729,0.239208,
2,1,0,1,0,36451.8,0.247001,0.246709,0.279746,19,0.0192063,10,6.90158e-05,-3.55324,-1.15392,-0.05113,-0.555733,0.246709,
2,1,0,0,0,36453.3,0.254492,0.254187,0.276259,19,0.0196423,10,7.02215e-05,-3.55868,-1.91655,-0.0307845,-0.333314,0.254187,
2,1,0,1,0,36454.8,0.261983,0.261698,0.275435,19,0.0200753,10,7.20807e-05,-3.55998,-2.38031,-0.0247867,-0.266382,0.261698,
2,1,0,0,0,36456.3,0.269474,0.269142,0.273438,19,0.0205053,10,7.35937e-05,-3.56314,9.48211,0.00622224,0.0662892,0.269142,
2,1,0,1,0,36457.8,0.276965,0.276642,0.271847,19,0.0209328,10,7.52043e-05,-3.56568,-1.19065,-0.0495528,-0.526131,0.2766422,
2,1,0,0,0,36459.2,0.284456,0.284141,0.270451,19,0.0213574,10,7.68464e-05,-3.56791,-1.36727,-0.0431517,-0.45435,0.284141,
2,1,0,1,0,36460.7,0.291947,0.291586,0.267632,19,0.0217793,10,7.80375e-05,-3.57246,-1.35595,-0.043512,-0.4548,0.291586,
2,1,0,1,0,36462.2,0.299437,0.299118,0.265632,19,0.0221982,10,7.94553e-05,-3.57572,-0.00268367,-21.9848,-115.685,0.299118,
2,0,0,1,0,36463.6,0.293744,0.293404,-0.017697,19,0.0222378,10,-5.19237e-06,-4.7521,-0.00477474,-12.3567,6.01123,0.293404,
2,0,0,1,0,36465.1,0.286253,0.285906,-0.0469892,19,0.0221686,10,-1.34345e-05,-4.328,-0.0347017,-1.7002,3.14977,0.285906,
2,0,0,0,0,36466.6,0.278763,0.278406,-0.0680788,19,0.0220619,10,-1.89535e-05,-4.16699,-0.0573448,-1.02886,2.6928,0.2784057,
2,0,0,1,0,36468.1,0.271272,0.270941,-0.084013,19,0.0219279,10,-2.27626e-05,-4.07565,-0.0860812,-0.685399,2.2519,0.270941,
2,0,0,0,0,36469.6,0.263781,0.263488,-0.0978143,19,0.0217711,10,-2.57729e-05,-4.0096,-0.124291,-0.474693,1.82461,0.263488,
2,0,0,1,0,36471.1,0.25629,0.255976,-0.110458,19,0.0215953,10,-2.82747e-05,-3.9568,-0.187925,-0.313955,1.35095,0.255976,
2,0,0,0,0,36472.6,0.248799,0.248513,-0.120424,19,0.0214025,10,-2.9927e-05,-3.91929,-0.223776,-0.263657,1.24992,0.248513,
2,0,0,1,0,36474.1,0.241308,0.24105,-0.130177,19,0.0211943,10,-3.13791e-05,-3.88547,-0.219787,-0.268442,1.37803,0.24105,
2,0,0,0,0,36475.6,0.233817,0.233486,-0.140589,19,0.0209719,10,-3.28255e-05,-3.85205,-0.302248,-0.195204,1.06166,0.2334858,
2,0,0,1,0,36477.1,0.226326,0.226003,-0.148582,19,0.0207361,10,-3.35799e-05,-3.82803,-0.343229,-0.171897,0.99972,0.226003,
2,0,0,0,0,36478.6,0.218835,0.218527,-0.157715,19,0.0204871,10,-3.44648e-05,-3.80213,-0.339788,-0.173638,1.06521,0.218527,
2,0,0,1,0,36480.1,0.211344,0.210992,-0.16613,19,0.020225,10,-3.50522e-05,-3.77955,-0.346119,-0.170462,1.10744,0.210992,
2,0,0,1,0,36481.6,0.203854,0.20351,-0.174881,19,0.0199493,10,-3.55899e-05,-3.75726,-0.369653,-0.159609,1.09604,0.20351,
2,0,0,1,0,36483.1,0.196363,0.196095,-0.183955,19,0.01966,10,-3.60726e-05,-3.73529,-0.306815,-0.192298,1.38274,0.196095,
2,0,0,1,0,36484.6,0.188871,0.188547,-0.194691,19,0.0193553,10,-3.67084e-05,-3.71065,-0.256155,-0.23033,1.7492,0.188547,
2,0,0,1,0,36486.1,0.181381,0.181088,-0.207161,19,0.0190339,10,-3.75144e-05,-3.68369,-0.227451,-0.259396,2.09359,0.181088,
2,0,0,1,0,36487.6,0.173889,0.17354,-0.221501,19,0.0186928,10,-3.84393e-05,-3.65462,-0.259788,-0.227108,1.95264,0.17354,
2,0,0,1,0,36489.1,0.166398,0.166063,-0.237796,19,0.0183283,10,-3.94892e-05,-3.62379,-0.224456,-0.262858,2.4605,0.166063,
2,0,0,1,0,36490.6,0.158907,0.1586,-0.261454,19,0.0179334,10,-4.14665e-05,-3.58261,-0.155661,-0.379028,3.88765,0.1586,
2,0,0,1,0,36492.1,0.151416,0.151107,-0.299208,19,0.017494,10,-4.52124e-05,-3.52403,-0.108179,-0.545395,6.38981,0.151107,
2,0,0,1,0,36493.6,0.143925,0.143588,-0.359352,19,0.016983,10,-5.15988e-05,-3.44448,-0.0732067,-0.805938,11.321,0.143588,
2,0,0,1,0,36495.1,0.136434,0.136065,-0.449481,19,0.0163573,10,-6.11585e-05,-3.34729,-0.0803925,-0.7339,12.8749,0.136065,
2,0,0,1,0,36496.6,0.128943,0.128625,-0.546351,19,0.0155886,10,-7.02743e-05,-3.26253,-0.118753,-0.496828,10.4951,0.128625,
2,0,0,0,0,36498.1,0.121453,0.121151,-0.606557,19,0.014699,10,-7.34848e-05,-3.21713,-0.27415,-0.215211,5.075,0.121151,
2,0,0,1,0,36499.6,0.113962,0.113654,-0.621077,19,0.0137509,10,-7.05876e-05,-3.20685,-6.3705,-0.00926144,0.225109,0.113654,
2,0,0,0,0,36501.1,0.106471,0.106166,-0.616224,19,0.0127987,10,-6.54221e-05,-3.21026,1.02014,0.057835,-1.39274,0.106166,
2,0,0,1,0,36502.6,0.0989798,0.098671,-0.601671,19,0.0118633,10,-5.93675e-05,-3.22064,0.702932,0.0839341,-1.96722,0.098671,
2,0,0,0,0,36504.1,0.0914889,0.0911369,-0.586213,19,0.0109522,10,-5.34256e-05,-3.23194,0.585139,0.100831,-2.29788,0.09113685,
2,0,0,1,0,36505.6,0.083998,0.0836769,-0.563292,19,0.0100695,10,-4.71346e-05,-3.24927,0.358664,0.164499,-3.61918,0.08367689,
2,0,0,0,0,36507.1,0.076507,0.0761788,-0.545086,19,0.00921737,10,-4.1524e-05,-3.26353,0.479445,0.123059,-2.61725,0.0761788,
2,0,0,1,0,36508.6,0.069016,0.0687008,-0.524609,19,0.00839364,10,-3.60411e-05,-3.28016,0.507912,0.116162,-2.39031,0.0687008,
2,0,0,0,0,36510.1,0.0615251,0.0611995,-0.510048,19,0.00759503,10,-3.12147e-05,-3.29239,0.66329,0.0889506,-1.77515,0.0611995,
2,0,0,1,0,36511.6,0.0540342,0.0537257,-0.494483,19,0.00682144,10,-2.65665e-05,-3.30585,0.488473,0.120785,-2.32814,0.0537257,
2,0,0,1,0,36513.1,0.0465436,0.0461951,-0.476485,19,0.00607305,10,-2.20113e-05,-3.32195,0.506697,0.11644,-2.16922,0.0461951,
2,0,0,1,0,36514.6,0.0390526,0.0387456,-0.459409,19,0.00535041,10,-1.78001e-05,-3.3378,0.39034,0.15115,-2.70427,0.0387456,
2,0,0,1,0,36516.1,0.0315615,0.031223,-0.442593,19,0.00465375,10,-1.38191e-05,-3.354,0.441555,0.133619,-2.3094,0.031223,
2,0,0,1,0,36517.5,0.0240706,0.023762,-0.427461,19,0.00398115,10,-1.01573e-05,-3.3691,0.569434,0.103612,-1.736,0.023762,
2,0,0,1,0,36519,0.0165795,0.0162416,-0.417419,19,0.00332744,10,-6.77954e-06,-3.37943,0.862559,0.0684011,-1.11538,0.0162416,
2,0,0,1,0,36520.5,0.00908846,0.00873588,-0.412841,19,0.00268565,10,-3.60653e-06,-3.38422,3.2678,0.018055,-0.291045,0.00873588,
2,0,0,1,0,36522,0.00159739,0.00125771,-0.417774,19,0.002045,10,-5.2544e-07,-3.37906, , , ,0.00125771,
2,0,0,0,0,36522.3,0.000199195,-0.00018026,-0.415878,19,0.00192474,10,7.49662e-08,-3.38103, , , ,-0.00018026,