File: Figure_codes/Fig_3-5/rawdata_trumpetplot_data/after 10th/20221101_1-115_003_TrumpetPlot_ParaChange_from10_every3_11_CV_C01_4.csv
mode,ox/red,error,control changes,counter inc.,time/s,control/V,Ewe/V,<I>/mA,cycle number,(Q-Qo)/C,I Range,P/W,log(|I|),Tafel slope mV/dec,alpha_eff,dI/d(E-IR),E-IR/V,
2,1,0,1,0,9075.04,2.44065e-05,-0.000287149,10.1662,5,0.0000000E+000,10,-2.9192e-06,-1.99284, , , ,-0.0002871489,
2,1,0,1,0,9075.07,0.0101427,0.00978671,14.818,5,0.000324409,10,0.00014502,-1.82921,0.113453,0.520039,298.35,0.00978671,
2,1,0,1,0,9075.09,0.0205441,0.020184,17.1809,5,0.000743202,10,0.000346779,-1.76495,0.22031,0.267805,179.206,0.020184,
2,1,0,1,0,9075.12,0.0309482,0.0306545,18.7714,5,0.00121181,10,0.000575426,-1.7265,0.31902,0.184942,135.38,0.0306545,
2,1,0,1,0,9075.15,0.0413439,0.0410464,20.1027,5,0.00171745,10,0.000825146,-1.69674,0.377822,0.156158,122.407,0.0410464,
2,1,0,1,0,9075.17,0.0517425,0.0514331,21.3751,5,0.0022567,10,0.00109939,-1.67009,0.391787,0.150592,125.692,0.0514331,
2,1,0,1,0,9075.2,0.0621438,0.0618431,22.7149,5,0.00282995,10,0.00140476,-1.64369,0.392044,0.150493,133.481,0.0618431,
2,1,0,1,0,9075.22,0.0725479,0.072216,24.1382,5,0.00343923,10,0.00174316,-1.6173,0.406331,0.145202,136.688,0.072216,
2,1,0,1,0,9075.25,0.0829437,0.0825953,25.5607,5,0.00408512,10,0.00211119,-1.59243,0.416631,0.141612,141.242,0.0825953,
2,1,0,1,0,9075.28,0.0933422,0.0930074,27.0068,5,0.00476898,10,0.00251184,-1.56853,0.455506,0.129526,136.551,0.0930074,
2,1,0,1,0,9075.3,0.103749,0.103428,28.4144,5,0.00548961,10,0.00293885,-1.54646,0.474724,0.124283,137.846,0.103428,
2,1,0,1,0,9075.33,0.114148,0.11379,29.9022,5,0.00624748,10,0.00340258,-1.5243,0.447339,0.131891,153.878,0.11379,
2,1,0,1,0,9075.35,0.124543,0.124197,31.6629,5,0.00704718,10,0.00393244,-1.49945,0.394982,0.149374,184.647,0.124197,
2,1,0,1,0,9075.38,0.134942,0.134574,33.7421,5,0.00789729,10,0.00454081,-1.47183,0.372326,0.158463,208.807,0.134574,
2,1,0,1,0,9075.41,0.145349,0.145006,35.934,5,0.00880338,10,0.00521062,-1.44449,0.411759,0.143288,200.732,0.145006,
2,1,0,1,0,9075.43,0.155747,0.155382,37.855,5,0.00976337,10,0.00588197,-1.42188,0.519767,0.113512,167.555,0.155382,
2,1,0,1,0,9075.46,0.166143,0.165796,39.2593,5,0.0107677,10,0.00650904,-1.40606,0.977911,0.0603327,92.3436,0.165796,
2,1,0,1,0,9075.48,0.176542,0.176233,39.4328,5,0.011795,10,0.00694939,-1.40414,-1.0025,-0.058853,-90.2956,0.176233,
2,1,0,1,0,9075.51,0.186949,0.186657,37.0627,5,0.0127957,10,0.00691802,-1.43106,-0.226738,-0.260212,-374.843,0.186657,
2,1,0,1,0,9075.54,0.197347,0.197058,32.0515,5,0.0136975,10,0.00631599,-1.49415,-0.135924,-0.434065,-541.987,0.197058,
2,1,0,1,0,9075.56,0.207743,0.20745,26.5742,5,0.0144571,10,0.00551281,-1.57554,-0.130286,-0.452848,-470.121,0.20745,
2,1,0,1,0,9075.59,0.218141,0.217859,22.4833,5,0.0150907,10,0.00489819,-1.64814,-0.167403,-0.352443,-310.1,0.217859,
2,1,0,1,0,9075.61,0.228548,0.228236,19.9284,5,0.0156391,10,0.00454838,-1.70053,-0.242391,-0.243408,-189.685,0.228236,
2,1,0,1,0,9075.64,0.238947,0.238625,18.3464,5,0.016135,10,0.0043779,-1.73645,-0.354369,-0.166493,-119.334,0.238625,
2,1,0,1,0,9075.67,0.249343,0.249013,17.3132,5,0.0165977,10,0.00431121,-1.76162,-0.483479,-0.122032,-82.5406,0.249013,
2,1,0,1,0,9075.69,0.259741,0.25942,16.5787,5,0.0170378,10,0.00430086,-1.78045,-0.617505,-0.0955458,-61.845,0.25942,
2,1,0,1,0,9075.72,0.270148,0.26986,16.0153,5,0.0174612,10,0.00432188,-1.79547,-0.791492,-0.0745427,-46.628,0.26986,
2,1,0,1,0,9075.74,0.280547,0.280243,15.5637,5,0.0178715,10,0.00436162,-1.80789,-0.862389,-0.0684146,-41.5413,0.280243,
2,1,0,1,0,9075.77,0.290942,0.290612,15.1627,5,0.0182707,10,0.00440647,-1.81922,-0.98535,-0.0598772,-35.4155,0.290612,
2,1,0,0,0,9075.79,0.300012,0.299708,14.8435,5,0.0186112,10,0.00444873,-1.82846,0.000880119,67.0364,32043.4,0.299708,
2,1,0,1,0,9075.82,0.290704,0.290411,1.31659,5,0.0187641,10,0.000382351,-2.88055,0.00872388,6.76304,773.955,0.290411,
2,0,0,1,0,9075.84,0.280305,0.279986,-3.72308,5,0.0187222,10,-0.00104241,-2.4291,-0.026704,-2.20941,304.011,0.279986,
2,0,0,1,0,9075.87,0.269909,0.269596,-5.97721,5,0.0185926,10,-0.00161143,-2.2235,-0.086764,-0.680006,157.3,0.269596,
2,0,0,1,0,9075.89,0.2595,0.259243,-7.27306,5,0.0184189,10,-0.00188549,-2.13828,-0.163225,-0.361464,102.248,0.2592431,
2,0,0,1,0,9075.92,0.249104,0.248775,-8.18343,5,0.0182175,10,-0.00203583,-2.08706,-0.251475,-0.234616,74.6816,0.248775,
2,0,0,1,0,9075.95,0.238705,0.238358,-8.87377,5,0.0179955,10,-0.00211514,-2.05189,-0.319993,-0.184379,63.9077,0.238358,
2,0,0,1,0,9075.97,0.22831,0.228057,-9.48115,5,0.0177565,10,-0.00216224,-2.02314,-0.380006,-0.155261,57.5007,0.228057,
2,0,0,1,0,9076,0.2179,0.217592,-10.0622,5,0.0175024,10,-0.00218947,-1.99731,-0.432767,-0.136332,53.3858,0.217592,
2,0,0,1,0,9076.02,0.207504,0.20718,-10.5776,5,0.0172341,10,-0.00219146,-1.97561,-0.484593,-0.121752,50.3334,0.20718,
2,0,0,1,0,9076.05,0.197106,0.196799,-11.1334,5,0.0169515,10,-0.00219104,-1.95337,-0.460063,-0.128243,55.8204,0.196799,
2,0,0,1,0,9076.08,0.18671,0.186362,-11.7421,5,0.0166542,10,-0.00218829,-1.93025,-0.435452,-0.135491,62.0626,0.1863624,
2,0,0,1,0,9076.1,0.1763,0.176002,-12.4543,5,0.0163398,10,-0.00219198,-1.90468,-0.381569,-0.154625,75.1803,0.176002,
2,0,0,1,0,9076.13,0.165905,0.165592,-13.379,5,0.0160046,10,-0.00221545,-1.87358,-0.3017,-0.195558,102.22,0.165592,
2,0,0,1,0,9076.15,0.155506,0.155191,-14.6807,5,0.0156409,10,-0.00227831,-1.83325,-0.219598,-0.268673,154.092,0.155191,
2,0,0,1,0,9076.18,0.145105,0.144807,-16.6036,5,0.0152357,10,-0.00240432,-1.7798,-0.167978,-0.351237,228.121,0.144807,
2,0,0,1,0,9076.21,0.134701,0.134377,-19.465,5,0.0147688,10,-0.00261565,-1.71075,-0.137704,-0.428454,325.792,0.134377,
2,0,0,1,0,9076.23,0.124305,0.124022,-23.228,5,0.0142149,10,-0.00288079,-1.63399,-0.137484,-0.429141,389.056,0.124022,
2,0,0,1,0,9076.26,0.113906,0.113676,-27.236,5,0.0135574,10,-0.00309608,-1.56486,-0.167653,-0.351918,374.325,0.1136758,
2,0,0,1,0,9076.28,0.103505,0.103242,-31.0168,5,0.0127983,10,-0.00320225,-1.5084,-0.216813,-0.272124,328.712,0.103242,
2,0,0,1,0,9076.31,0.0931008,0.0928515,-33.9757,5,0.0119513,10,-0.00315469,-1.46883,-0.318037,-0.185513,245.731,0.09285152,
2,0,0,1,0,9076.34,0.0827051,0.0824256,-36.0966,5,0.0110379,10,-0.00297529,-1.44253,-0.56263,-0.104865,147.435,0.0824256,
2,0,0,1,0,9076.36,0.0723065,0.0719997,-37.0258,5,0.0100847,10,-0.00266585,-1.4315,-2.72828,-0.0216254,31.1979,0.0719997,
2,0,0,1,0,9076.39,0.0618997,0.0615929,-36.7926,5,0.00912281,10,-0.00226616,-1.43424,1.22267,0.0482552,-69.2298,0.0615929,
2,0,0,1,0,9076.41,0.0515011,0.0511776,-35.8165,5,0.00817826,10,-0.001833,-1.44592,0.773383,0.0762882,-106.549,0.0511776,
2,0,0,1,0,9076.44,0.0411053,0.0407675,-34.6643,5,0.00726236,10,-0.00141318,-1.46012,0.738387,0.0799039,-108.113,0.0407675,
2,0,0,1,0,9076.47,0.0307068,0.0304116,-33.5721,5,0.00637533,10,-0.00102098,-1.47402,0.76912,0.0767111,-100.587,0.03041162,
2,0,0,1,0,9076.49,0.0202999,0.0200133,-32.5295,5,0.00551595,10,-0.000651022,-1.48772,0.720522,0.081885,-103.889,0.0200133,
2,0,0,1,0,9076.52,0.00990136,0.00961917,-31.3139,5,0.00468572,10,-0.000301213,-1.50426,0.560572,0.10525,-128.528,0.009619168,
2,0,0,1,0,9076.54,-0.000494411,-0.000875675,-29.8696,5,0.00389004,10,2.6156e-05,-1.52477,0.450928,0.130841,-152.309,-0.000875675,
2,0,0,1,0,9076.57,-0.010893,-0.0112857,-28.1605,5,0.00313591,10,0.000317811,-1.55036,0.407117,0.144922,-159.303,-0.01128569,
2,0,0,1,0,9076.6,-0.0212998,-0.0216703,-26.6474,5,0.00242441,10,0.000577457,-1.57434,0.485081,0.121629,-126.544,-0.0216703,
2,0,0,1,0,9076.62,-0.0316984,-0.0320463,-25.5943,5,0.0017467,10,0.000820204,-1.59186,0.774145,0.0762131,-76.1424,-0.0320463,
2,0,0,1,0,9076.65,-0.0420942,-0.0424882,-25.0173,5,0.00108986,10,0.00106294,-1.60176,1.68656,0.0349824,-34.2006,-0.0424882,
2,0,0,1,0,9076.67,-0.0524927,-0.0528441,-24.8612,5,0.000442045,10,0.00131377,-1.60448,-52.4132,-0.00112567,1.0932,-0.0528441,
2,0,0,1,0,9076.7,-0.0628996,-0.0632425,-25.028,5,-0.000205845,10,0.00158283,-1.60157,-2.23583,-0.0263884,25.7566,-0.06324245,
2,0,0,1,0,9076.73,-0.0732982,-0.0736832,-25.3752,5,-0.000860577,10,0.00186973,-1.59559,-1.27226,-0.046374,45.9614,-0.0736832,
2,0,0,1,0,9076.75,-0.0836939,-0.084072,-25.936,5,-0.00152746,10,0.00218049,-1.5861,-0.932319,-0.063283,64.0909,-0.084072,
2,0,0,1,0,9076.78,-0.0940925,-0.0944492,-26.674,5,-0.00221119,10,0.00251933,-1.57391,-0.786435,-0.0750221,78.1019,-0.09444917,
2,0,0,1,1,9076.8,-0.0978574,-0.0982804,-21.6316,5,-0.00274482,10,0.00212596,-1.66491,-0.0229825,-2.56717,2093.51,-0.0982804,
2,0,0,1,1,9076.82,-0.0874588,-0.0878333,-6.30304,5,-0.00308402,10,0.000553617,-2.20045,-0.0127097,-4.64213,1070.24,-0.0878333,
2,1,0,1,1,9076.85,-0.077052,-0.0774424,2.58894,5,-0.00312265,10,-0.000200493,-2.58688,0.00506969,11.6378,682.681,-0.0774424,
2,1,0,1,1,9076.88,-0.0666562,-0.0670928,8.42181,5,-0.00297429,10,-0.000565042,-2.07459,0.0410945,1.43571,461.865,-0.0670928,
2,1,0,1,1,9076.9,-0.0562576,-0.0566298,12.435,5,-0.00269948,10,-0.000704189,-1.90536,0.088291,0.668245,322.493,-0.0566298,
2,1,0,1,1,9076.93,-0.0458563,-0.04626,15.1815,5,-0.00233781,10,-0.000702298,-1.81868,0.162259,0.363617,214.485,-0.04626,
2,1,0,1,1,9076.95,-0.0354522,-0.0358352,17.0136,5,-0.0019176,10,-0.000609686,-1.7692,0.276601,0.213304,141.266,-0.0358352,
2,1,0,1,1,9076.98,-0.0250564,-0.0253955,18.1803,5,-0.00145866,10,-0.000461697,-1.7404,0.477327,0.123605,87.7261,-0.0253955,
2,1,0,1,1,9077.01,-0.0146579,-0.0150215,18.9309,5,-0.00097509,10,-0.000284371,-1.72283,0.809481,0.0728862,53.7983,-0.0150215,
2,1,0,1,1,9077.03,-0.00425653,-0.00462421,19.35,5,-0.000476938,10,-8.94784e-05,-1.71332,1.56088,0.0377993,28.5312,-0.00462421,
2,1,0,0,1,9077.04,-7.54729e-05,-0.000497109,19.4433,5,-0.000273165,10,-9.66546e-06,-1.71123, , , ,-0.000497109,