File: Figure_codes/Fig_3-5/rawdata_trumpetplot_data/after 10th/20221101_1-115_003_TrumpetPlot_ParaChange_from10_every3_07_CV_C01_24.csv
mode,ox/red,error,control changes,counter inc.,time/s,control/V,Ewe/V,<I>/mA,cycle number,(Q-Qo)/C,I Range,P/W,log(|I|),Tafel slope mV/dec,alpha_eff,dI/d(E-IR),E-IR/V,
2,0,0,0,0,48448.1,2.44065e-05,-0.000268062,-2.70013,25,0.0000000E+000,10,7.23801e-07,-2.56862, , , ,-0.000268062,
2,1,0,1,0,48448.3,0.007288,0.0069708,0.932635,25,-3.65584e-05,10,6.50121e-06,-3.03029,0.00880187,6.70312,208.291,0.0069708,
2,1,0,1,0,48448.4,0.0147816,0.0144594,1.84174,25,0.000148379,10,2.66303e-05,-2.73477,0.0544886,1.0828,77.4369,0.0144594,
2,1,0,1,0,48448.5,0.0222712,0.0219387,2.26948,25,0.000409628,10,4.97895e-05,-2.64407,0.120828,0.488297,43.1602,0.0219387,
2,1,0,1,0,48448.6,0.0297648,0.0294157,2.5641,25,0.000713669,10,7.54249e-05,-2.59106,0.17273,0.341574,34.003,0.0294157,
2,1,0,1,0,48448.8,0.0372518,0.0368972,2.81326,25,0.00105096,10,0.000103802,-2.55079,0.186795,0.315854,34.6977,0.0368972,
2,1,0,1,0,48448.9,0.0447467,0.0444071,3.05038,25,0.00141964,10,0.000135459,-2.51565,0.215665,0.273572,32.6627,0.0444071,
2,1,0,1,0,48449,0.052235,0.0518927,3.29453,25,0.00181806,10,0.000170962,-2.48221,0.251147,0.234922,30.2028,0.0518927,
2,1,0,1,0,48449.1,0.0597299,0.0594187,3.52747,25,0.00224596,10,0.000209598,-2.45254,0.282958,0.208512,28.6434,0.05941873,
2,1,0,1,0,48449.3,0.0672156,0.0669173,3.73717,25,0.00270069,10,0.000250081,-2.42746,0.303046,0.19469,28.331,0.0669173,
2,1,0,1,0,48449.4,0.0747105,0.0744002,3.91535,25,0.00318081,10,0.000291303,-2.40723,0.381388,0.154698,23.6752,0.0744002,
2,1,0,1,0,48449.5,0.0821988,0.0818979,4.08041,25,0.00368227,10,0.000334177,-2.3893,0.509465,0.115808,18.4527,0.0818979,
2,1,0,1,0,48449.6,0.0896937,0.0893484,4.22741,25,0.00420293,10,0.000377712,-2.37393,0.49145,0.120053,19.7873,0.0893484,
2,1,0,1,0,48449.8,0.0971794,0.0968148,4.39588,25,0.00474224,10,0.000425586,-2.35695,0.345133,0.170948,29.3234,0.0968148,
2,1,0,1,0,48449.9,0.104674,0.10434,4.64037,25,0.00530753,10,0.000484176,-2.33345,0.255315,0.231087,41.9348,0.10434,
2,1,0,1,0,48450,0.112163,0.111804,4.99067,25,0.00591024,10,0.000557975,-2.30184,0.246564,0.239289,46.6303,0.111804,
2,1,0,1,0,48450.1,0.119657,0.119345,5.36216,25,0.00655876,10,0.000639945,-2.27066,0.292012,0.202047,42.1872,0.119345,
2,1,0,1,0,48450.3,0.127143,0.12678,5.63307,25,0.00724775,10,0.00071416,-2.24925,0.429769,0.137283,30.1776,0.12678,
2,1,0,1,0,48450.4,0.134638,0.13431,5.81473,25,0.0079659,10,0.000780974,-2.23547,0.729998,0.0808222,18.3607,0.13431,
2,1,0,1,0,48450.5,0.142126,0.141851,5.88962,25,0.00869994,10,0.000835451,-2.22991,-6.34825,-0.00929391,-2.13345,0.141851,
2,1,0,1,0,48450.6,0.149621,0.149335,5.69259,25,0.0094292,10,0.000850101,-2.24469,-0.21336,-0.276529,-61.1307,0.149335,
2,1,0,1,0,48450.8,0.157107,0.156791,5.01788,25,0.010103,10,0.000786757,-2.29948,-0.101767,-0.579756,-113.099,0.156791,
2,1,0,1,0,48450.9,0.164602,0.164271,4.1455,25,0.0106761,10,0.000680986,-2.38242,-0.0897381,-0.657469,-106.553,0.164271,
2,1,0,1,0,48451,0.17209,0.171747,3.48795,25,0.0111516,10,0.000599044,-2.45743,-0.113852,-0.518218,-70.8759,0.171747,
2,1,0,1,0,48451.1,0.179585,0.179266,3.09641,25,0.0115625,10,0.00055508,-2.50914,-0.168662,-0.349812,-42.2879,0.179266,
2,1,0,1,0,48451.3,0.187072,0.186715,2.8578,25,0.011934,10,0.000533593,-2.54397,-0.276988,-0.213006,-23.7086,0.186715,
2,1,0,1,0,48451.4,0.194566,0.194248,2.70379,25,0.0122823,10,0.000525207,-2.56803,-0.448617,-0.131515,-13.9079,0.194248,
2,1,0,1,0,48451.5,0.202055,0.201737,2.60783,25,0.0126154,10,0.000526096,-2.58372,-0.462294,-0.127624,-12.9937,0.201737,
2,1,0,1,0,48451.6,0.209549,0.209221,2.54916,25,0.0129391,10,0.000533337,-2.5936,-0.632341,-0.0933042,-9.27281,0.209221,
2,1,0,1,0,48451.8,0.217036,0.216698,2.49678,25,0.0132555,10,0.000541046,-2.60262,-1.07804,-0.054729,-5.33988,0.216698,
2,1,0,1,0,48451.9,0.224529,0.224199,2.45725,25,0.0135671,10,0.000550912,-2.60955,-1.46207,-0.0403539,-3.88454,0.224199,
2,1,0,1,0,48452,0.232019,0.231718,2.42937,25,0.0138744,10,0.000562928,-2.61451,-1.94469,-0.0303391,-2.88536,0.2317179,
2,1,0,1,0,48452.1,0.239513,0.239232,2.41417,25,0.0141787,10,0.000577547,-2.61723,-1.42084,-0.0415248,-3.90634,0.239232,
2,1,0,1,0,48452.3,0.247001,0.246718,2.39357,25,0.0144801,10,0.000590536,-2.62095,-3.02838,-0.0194823,-1.81473,0.246718,
2,1,0,1,0,48452.4,0.254493,0.254177,2.36875,25,0.0147793,10,0.000602082,-2.62548,-1.93507,-0.0304898,-2.82455,0.254177,
2,1,0,1,0,48452.5,0.261983,0.26169,2.34853,25,0.0150761,10,0.000614586,-2.6292,-1.50752,-0.0391371,-3.59831,0.26169,
2,1,0,1,0,48452.6,0.269477,0.269121,2.3368,25,0.0153709,10,0.000628882,-2.63138,-2.3511,-0.0250946,-2.28708,0.269121,
2,1,0,1,0,48452.8,0.276965,0.276657,2.32188,25,0.0156634,10,0.000642363,-2.63416,-3.06948,-0.0192215,-1.73818,0.276657,
2,1,0,1,0,48452.9,0.284457,0.284186,2.30158,25,0.0159538,10,0.000654078,-2.63797,-11.4695,-0.00514407,-0.462587,0.284186,
2,1,0,1,0,48453,0.291947,0.29161,2.27924,25,0.0162418,10,0.000664649,-2.64221,-1.34162,-0.0439766,-3.92003,0.29161,
2,1,0,1,0,48453.1,0.29944,0.299142,2.26709,25,0.0165276,10,0.000678183,-2.64453,-0.00902201,-6.53956,-463.408,0.299142,
2,0,0,1,0,48453.3,0.293742,0.293417,-0.326399,25,0.0165957,10,-9.57709e-05,-3.48625,-0.00134091,-44,129.622,0.293417,
2,0,0,1,0,48453.4,0.286254,0.285906,-0.82514,25,0.0165158,10,-0.000235912,-3.08347,-0.0456909,-1.29129,41.1718,0.285906,
2,0,0,1,0,48453.5,0.278761,0.278471,-1.04012,25,0.0163958,10,-0.000289644,-2.98291,-0.105031,-0.561741,22.8438,0.278471,
2,0,0,1,0,48453.6,0.271272,0.270934,-1.18327,25,0.0162545,10,-0.000320589,-2.92691,-0.164427,-0.358821,16.588,0.270934,
2,0,0,1,0,48453.8,0.263778,0.263443,-1.2952,25,0.0160975,10,-0.00034121,-2.88766,-0.220923,-0.267062,13.4451,0.263443,
2,0,0,1,0,48453.9,0.25629,0.255924,-1.3859,25,0.0159283,10,-0.000354685,-2.85827,-0.260716,-0.2263,12.1949,0.2559244,
2,0,0,1,0,48454,0.248797,0.248447,-1.45917,25,0.0157484,10,-0.000362525,-2.8359,-0.332,-0.177711,10.1527,0.248447,
2,0,0,1,0,48454.1,0.241308,0.240973,-1.5313,25,0.0155593,10,-0.000369001,-2.81494,-0.409425,-0.144105,8.63244,0.240973,
2,0,0,1,0,48454.3,0.233814,0.233498,-1.6022,25,0.0153614,10,-0.000374111,-2.79528,-0.476543,-0.123808,7.73594,0.233498,
2,0,0,1,0,48454.4,0.226326,0.226044,-1.66347,25,0.0151557,10,-0.000376017,-2.77899,-0.422832,-0.139535,9.06118,0.226044,
2,0,0,1,0,48454.5,0.218834,0.218528,-1.72432,25,0.014942,10,-0.000376812,-2.76338,-0.406413,-0.145173,9.7833,0.218528,
2,0,0,1,0,48454.6,0.211344,0.210996,-1.78028,25,0.0147209,10,-0.00037563,-2.74951,-0.565341,-0.104362,7.26369,0.210996,
2,0,0,1,0,48454.7,0.203856,0.203472,-1.85119,25,0.0144921,10,-0.000376667,-2.73255,-0.819881,-0.0719617,5.18793,0.203472,
2,0,0,1,0,48454.9,0.196362,0.196028,-1.90903,25,0.0142556,10,-0.000374224,-2.71919,-0.47473,-0.124281,9.25596,0.196028,
2,0,0,1,0,48455,0.18887,0.188537,-1.9739,25,0.0140109,10,-0.000372155,-2.70467,-0.435512,-0.135473,10.4594,0.188537,
2,0,0,1,0,48455.1,0.18138,0.181079,-2.05292,25,0.0137577,10,-0.00037174,-2.68763,-0.442298,-0.133394,10.6855,0.181079,
2,0,0,1,0,48455.2,0.173892,0.173605,-2.14248,25,0.0134943,10,-0.000371945,-2.66908,-0.405255,-0.145587,12.1418,0.173605,
2,0,0,1,0,48455.4,0.166398,0.166069,-2.24627,25,0.0132186,10,-0.000373035,-2.64854,-0.337528,-0.1748,15.3287,0.166069,
2,0,0,1,0,48455.5,0.158905,0.158569,-2.38873,25,0.0129272,10,-0.000378779,-2.62183,-0.232471,-0.253795,23.7078,0.1585691,
2,0,0,1,0,48455.6,0.151417,0.151061,-2.60676,25,0.0126141,10,-0.000393779,-2.5839,-0.174849,-0.337434,34.4021,0.151061,
2,0,0,1,0,48455.7,0.143927,0.143604,-2.95378,25,0.012267,10,-0.000424174,-2.52962,-0.115839,-0.509326,58.7259,0.143604,
2,0,0,1,0,48455.9,0.136435,0.136089,-3.49092,25,0.0118648,10,-0.000475076,-2.45706,-0.0958795,-0.615356,83.7037,0.136089,
2,0,0,1,0,48456,0.128941,0.128597,-4.15644,25,0.0113861,10,-0.000534505,-2.38128,-0.101759,-0.579801,93.9726,0.128597,
2,0,0,1,0,48456.1,0.121453,0.121144,-4.81046,25,0.0108233,10,-0.000582759,-2.31781,-0.143019,-0.412532,77.3977,0.121144,
2,0,0,1,0,48456.2,0.113963,0.113664,-5.34693,25,0.0101859,10,-0.000607753,-2.2719,-0.205644,-0.286903,59.8003,0.113664,
2,0,0,1,0,48456.4,0.106471,0.106145,-5.72346,25,0.00949049,10,-0.000607518,-2.24234,-0.341186,-0.172926,38.57,0.106145,
2,0,0,1,0,48456.5,0.0989825,0.0986504,-5.88432,25,0.00876133,10,-0.000580491,-2.2303,-1.68558,-0.0350027,8.03412,0.0986504,
2,0,0,1,0,48456.6,0.0914889,0.0911455,-5.83809,25,0.00802507,10,-0.000532116,-2.23373,0.826387,0.0713951,-16.2616,0.0911455,
2,0,0,1,0,48456.7,0.0839993,0.0836565,-5.67802,25,0.00730384,10,-0.000475004,-2.2458,0.492367,0.119829,-26.5294,0.0836565,
2,0,0,1,0,48456.9,0.076507,0.0761812,-5.51193,25,0.00660386,10,-0.000419905,-2.2587,0.672211,0.0877701,-18.8608,0.0761812,
2,0,0,1,0,48457,0.0690187,0.0687343,-5.36526,25,0.00592321,10,-0.000368777,-2.27041,0.828439,0.0712183,-14.9381,0.0687343,
2,0,0,1,0,48457.1,0.0615251,0.0611936,-5.25142,25,0.00525731,10,-0.000321354,-2.27972,0.716451,0.0823504,-16.8931,0.0611936,
2,0,0,1,0,48457.2,0.0540355,0.0537168,-5.1306,25,0.00460715,10,-0.0002756,-2.28983,0.657404,0.089747,-17.9523,0.0537168,
2,0,0,1,0,48457.4,0.0465432,0.0461877,-4.99002,25,0.00397303,10,-0.000230478,-2.3019,0.636857,0.0926425,-18.0231,0.0461877,
2,0,0,1,0,48457.5,0.0390549,0.0387442,-4.83422,25,0.00335791,10,-0.000187298,-2.31567,0.509205,0.115867,-21.8589,0.0387442,
2,0,0,1,0,48457.6,0.0315613,0.0311943,-4.65798,25,0.00276261,10,-0.000145302,-2.3318,0.40805,0.14459,-26.3035,0.0311943,
2,0,0,1,0,48457.7,0.0240717,0.0237415,-4.46993,25,0.00219072,10,-0.000106123,-2.3497,0.360581,0.163625,-28.5438,0.0237415,
2,0,0,1,0,48457.9,0.0165781,0.0162889,-4.29537,25,0.00164167,10,-6.9967e-05,-2.367,0.484526,0.121768,-20.4116,0.0162889,
2,0,0,1,0,48458,0.00909108,0.00876325,-4.14245,25,0.00111329,10,-3.63013e-05,-2.38274,0.668199,0.088297,-14.303,0.00876325,
2,0,0,1,0,48458.1,0.00159616,0.00122049,-4.06524,25,0.000599821,10,-4.96159e-06,-2.39091, , , ,0.00122049,
2,0,0,1,0,48458.1,0.000199195,-0.000176442,-4.04972,25,0.000504892,10,7.14543e-07,-2.39257, , , ,-0.000176442,