File: Figure_codes/Fig_3-5/rawdata_trumpetplot_data/after 10th/20221101_1-115_003_TrumpetPlot_ParaChange_from10_every3_05_CV_C01_22.csv
mode,ox/red,error,control changes,counter inc.,time/s,control/V,Ewe/V,<I>/mA,cycle number,(Q-Qo)/C,I Range,P/W,log(|I|),Tafel slope mV/dec,alpha_eff,dI/d(E-IR),E-IR/V,
2,0,0,1,0,44462.9,2.44065e-05,-0.000401673,-0.736062,23,0.0000000E+000,10,2.95656e-07,-3.13309, , , ,-0.000401673,
2,1,0,1,0,44463.2,0.00729063,0.00696502,0.668374,23,0.000135001,10,4.65524e-06,-3.17498,0.0449882,1.31145,33.3409,0.00696502,
2,1,0,1,0,44463.6,0.0147802,0.0144731,0.820927,23,0.000423724,10,1.18814e-05,-3.0857,0.125552,0.469926,15.0377,0.0144731,
2,1,0,1,0,44464,0.0222725,0.0219675,0.92145,23,0.000756902,10,2.02419e-05,-3.03553,0.170602,0.345834,12.4151,0.0219675,
2,1,0,1,0,44464.4,0.0297644,0.0294263,1.01524,23,0.00112533,10,2.98748e-05,-2.99343,0.196806,0.299788,11.8524,0.0294263,
2,1,0,1,0,44464.7,0.0372544,0.0369173,1.10386,23,0.00152828,10,4.07515e-05,-2.95709,0.216621,0.272365,11.7516,0.0369173,
2,1,0,1,0,44465.1,0.0447449,0.0444169,1.19669,23,0.0019661,10,5.31534e-05,-2.92202,0.227707,0.259105,12.1127,0.0444169,
2,1,0,1,0,44465.5,0.0522363,0.0518784,1.287,23,0.00243789,10,6.67677e-05,-2.89042,0.238432,0.24745,12.438,0.0518784,
2,1,0,1,0,44465.9,0.0597291,0.0594214,1.36791,23,0.00294152,10,8.12832e-05,-2.86394,0.292167,0.201939,10.757,0.0594214,
2,1,0,1,0,44466.2,0.0672182,0.066948,1.44062,23,0.00347372,10,9.64463e-05,-2.84145,0.378759,0.155772,8.73532,0.066948,
2,1,0,1,0,44466.6,0.0747092,0.0743631,1.50083,23,0.00403067,10,0.000111606,-2.82367,0.490432,0.120302,7.03593,0.0743631,
2,1,0,1,0,44467,0.0822001,0.0818774,1.5482,23,0.00460801,10,0.000126763,-2.81017,0.565752,0.104286,6.3126,0.08187744,
2,1,0,1,0,44467.4,0.0896911,0.0893982,1.60572,23,0.0052042,10,0.000143549,-2.79433,0.424652,0.138937,8.7086,0.0893982,
2,1,0,1,0,44467.7,0.097182,0.09688,1.69595,23,0.00582767,10,0.000164303,-2.77059,0.241687,0.244117,16.1496,0.09688,
2,1,0,1,0,44468.1,0.104673,0.104352,1.83995,23,0.00649411,10,0.000192002,-2.73519,0.19239,0.306669,21.9774,0.104352,
2,1,0,1,0,44468.5,0.112164,0.111805,1.99479,23,0.00721822,10,0.000223029,-2.7001,0.241783,0.244021,18.963,0.111805,
2,1,0,1,0,44468.9,0.119655,0.119331,2.11226,23,0.00799454,10,0.000252059,-2.67525,0.465059,0.126866,10.4318,0.119331,
2,1,0,1,0,44469.2,0.127146,0.126826,2.16762,23,0.00880355,10,0.00027491,-2.66402,0.780709,0.0755723,6.40036,0.126826,
2,1,0,1,0,44469.6,0.134637,0.134304,2.198,23,0.00963006,10,0.0002952,-2.65797,-3.03618,-0.0194323,-1.66542,0.134304,
2,1,0,1,0,44470,0.142128,0.141796,2.10345,23,0.0104486,10,0.00029826,-2.67707,-0.179981,-0.327811,-26.79,0.141796,
2,1,0,1,0,44470.4,0.149619,0.149309,1.78688,23,0.0111891,10,0.000266799,-2.7479,-0.0815097,-0.72384,-50.3786,0.149309,
2,1,0,1,0,44470.7,0.157108,0.156839,1.43115,23,0.0117941,10,0.00022446,-2.84431,-0.0810435,-0.728004,-40.65,0.156839,
2,1,0,1,0,44471.1,0.164601,0.164293,1.20687,23,0.0122896,10,0.00019828,-2.91834,-0.133444,-0.442134,-20.8777,0.164293,
2,1,0,1,0,44471.5,0.172092,0.17175,1.09579,23,0.0127249,10,0.000188202,-2.96027,-0.221974,-0.265797,-11.3895,0.17175,
2,1,0,1,0,44471.9,0.179582,0.179252,1.0371,23,0.0131295,10,0.000185902,-2.98418,-0.4303,-0.137114,-5.56655,0.179252,
2,1,0,1,0,44472.2,0.187073,0.186748,1.00692,23,0.0135176,10,0.000188041,-2.997,-0.983891,-0.059966,-2.34887,0.186748,
2,1,0,1,0,44472.6,0.194564,0.194241,0.985055,23,0.0138957,10,0.000191338,-3.00654,-0.793458,-0.0743581,-2.85352,0.194241,
2,1,0,1,0,44473,0.202057,0.201737,0.970204,23,0.0142669,10,0.000195726,-3.01314,-0.802514,-0.073519,-2.77351,0.201737,
2,1,0,1,0,44473.4,0.209546,0.209265,0.957195,23,0.0146334,10,0.000200307,-3.019,-0.731614,-0.0806436,-3.00869,0.209265,
2,1,0,1,0,44473.7,0.217037,0.216708,0.945077,23,0.0149957,10,0.000204806,-3.02453,-1.94067,-0.0304019,-1.12406,0.216708,
2,1,0,1,0,44474.1,0.224528,0.224169,0.941683,23,0.015355,10,0.000211096,-3.0261,-2.26856,-0.0260077,-0.953564,0.224169,
2,1,0,1,0,44474.5,0.232019,0.231656,0.933022,23,0.0157114,10,0.00021614,-3.03011,96.2745,0.000612831,0.0223581,0.231656,
2,1,0,1,0,44474.9,0.23951,0.239226,0.925907,23,0.0160655,10,0.000221501,-3.03343,-4.55696,-0.0129472,-0.467721,0.239226,
2,1,0,1,0,44475.2,0.247001,0.246697,0.921204,23,0.0164172,10,0.000227259,-3.03564,-1.3063,-0.0451656,-1.61996,0.246697,
2,1,0,1,0,44475.6,0.254492,0.254186,0.915577,23,0.0167667,10,0.000232727,-3.03831,-2.2529,-0.0261884,-0.934549,0.254186,
2,1,0,1,0,44476,0.261983,0.261683,0.907864,23,0.0171139,10,0.000237572,-3.04198,-3.01165,-0.0195906,-0.693919,0.261683,
2,1,0,1,0,44476.4,0.269474,0.269194,0.898708,23,0.0174587,10,0.000241926,-3.04638,50.2246,0.00117472,0.0413096,0.269194,
2,1,0,1,0,44476.7,0.276965,0.276697,0.894071,23,0.017801,10,0.000247387,-3.04863,-1.78288,-0.0330926,-1.15629,0.276697,
2,1,0,1,0,44477.1,0.284456,0.284146,0.88819,23,0.0181406,10,0.000252375,-3.05149,-6.12392,-0.00963435,-0.333656,0.284146,
2,1,0,1,0,44477.5,0.291947,0.291594,0.878401,23,0.0184773,10,0.000256136,-3.05631,-1.22747,-0.0480665,-1.64971,0.291594,
2,1,0,1,0,44477.9,0.299436,0.299123,0.868727,23,0.018811,10,0.000259857,-3.06112,-0.00379975,-15.5273,-324.03,0.299123,
2,0,0,1,0,44478.2,0.293745,0.293427,-0.174754,23,0.0188372,10,-5.12776e-05,-3.75757,-0.0157229,-3.7525,23.6892,0.293427,
2,0,0,1,0,44478.6,0.286254,0.285935,-0.282646,23,0.0187424,10,-8.08181e-05,-3.54876,-0.0620415,-0.950976,10.5376,0.285935,
2,0,0,1,0,44478.9,0.278763,0.278442,-0.349434,23,0.018617,10,-9.72972e-05,-3.45663,-0.104094,-0.566795,7.7325,0.278442,
2,0,0,1,0,44479.3,0.271272,0.270949,-0.39937,23,0.0184704,10,-0.000108209,-3.39862,-0.149184,-0.395484,6.13106,0.270949,
2,0,0,1,0,44479.7,0.263781,0.263476,-0.439865,23,0.018307,10,-0.000115894,-3.35668,-0.209233,-0.281982,4.84608,0.263476,
2,0,0,1,0,44480.1,0.25629,0.256009,-0.477527,23,0.0181293,10,-0.000122251,-3.321,-0.321663,-0.183422,3.39989,0.256009,
2,0,0,1,0,44480.4,0.248799,0.248497,-0.505814,23,0.0179389,10,-0.000125693,-3.29601,-0.254018,-0.232267,4.58801,0.248497,
2,0,0,1,0,44480.8,0.241308,0.241022,-0.535924,23,0.0177372,10,-0.00012917,-3.2709,-0.348455,-0.169319,3.54725,0.241022,
2,0,0,1,0,44481.2,0.233817,0.233485,-0.563489,23,0.0175249,10,-0.000131566,-3.24911,-0.33433,-0.176472,3.8858,0.233485,
2,0,0,1,0,44481.6,0.226326,0.226004,-0.592433,23,0.0173021,10,-0.000133892,-3.22736,-0.331145,-0.17817,4.10701,0.226004,
2,0,0,1,0,44481.9,0.218835,0.218478,-0.617406,23,0.0170696,10,-0.000134889,-3.20943,-0.493501,-0.119554,2.8817,0.218478,
2,0,0,1,0,44482.3,0.211344,0.210999,-0.642867,23,0.0168275,10,-0.000135645,-3.19188,-0.538577,-0.109548,2.74787,0.210999,
2,0,0,1,0,44482.7,0.203855,0.203505,-0.668054,23,0.0165758,10,-0.000135952,-3.17519,-0.507796,-0.116188,3.0323,0.2035048,
2,0,0,1,0,44483.1,0.196362,0.196007,-0.695587,23,0.0163144,10,-0.00013634,-3.15765,-0.448715,-0.131487,3.56007,0.196007,
2,0,0,1,0,44483.4,0.188871,0.188534,-0.724206,23,0.0160422,10,-0.000136538,-3.14014,-0.338969,-0.174057,4.92033,0.188534,
2,0,0,1,0,44483.8,0.18138,0.181105,-0.756281,23,0.0157586,10,-0.000136966,-3.12132,-0.393121,-0.150081,4.44141,0.181105,
2,0,0,1,0,44484.2,0.173891,0.173553,-0.797822,23,0.0154619,10,-0.000138465,-3.09809,-0.293879,-0.200763,6.2372,0.173553,
2,0,0,1,0,44484.6,0.166398,0.166038,-0.846096,23,0.0151487,10,-0.000140485,-3.07258,-0.289467,-0.203823,6.72748,0.166038,
2,0,0,1,0,44484.9,0.158906,0.158563,-0.910334,23,0.0148142,10,-0.000144346,-3.0408,-0.204373,-0.288688,10.266,0.1585633,
2,0,0,1,0,44485.3,0.151417,0.151084,-1.01536,23,0.0144484,10,-0.000153405,-2.99338,-0.133072,-0.443369,17.6153,0.151084,
2,0,0,1,0,44485.7,0.143926,0.143609,-1.19149,23,0.0140313,10,-0.000171108,-2.92391,-0.0856847,-0.688571,32.1423,0.143609,
2,0,0,1,0,44486.1,0.136435,0.136122,-1.46276,23,0.0135294,10,-0.000199113,-2.83483,-0.0834089,-0.707359,40.3049,0.136122,
2,0,0,1,0,44486.4,0.128942,0.12864,-1.76889,23,0.0129172,10,-0.00022755,-2.7523,-0.103765,-0.568592,39.138,0.12864,
2,0,0,1,0,44486.8,0.121453,0.121148,-2.02191,23,0.0121985,10,-0.000244949,-2.69424,-0.16808,-0.351024,27.6626,0.121148,
2,0,0,1,0,44487.2,0.113962,0.113655,-2.17707,23,0.0114014,10,-0.000247435,-2.66213,-0.414098,-0.142478,12.0945,0.113655,
2,0,0,1,0,44487.6,0.106471,0.106154,-2.21297,23,0.0105682,10,-0.000234916,-2.65503,3.21182,0.0183696,-1.5876,0.106154,
2,0,0,1,0,44487.9,0.0989799,0.0987122,-2.1638,23,0.00973909,10,-0.000213594,-2.66478,0.557012,0.105922,-8.95575,0.0987122,
2,0,0,1,0,44488.3,0.0914889,0.0911453,-2.10049,23,0.00893399,10,-0.00019145,-2.67768,0.553974,0.106503,-8.71219,0.0911453,
2,0,0,1,0,44488.7,0.083998,0.0836737,-2.03231,23,0.00815427,10,-0.000170051,-2.69201,0.537162,0.109837,-8.71724,0.0836737,
2,0,0,1,0,44489.1,0.076507,0.0761616,-1.98215,23,0.00739564,10,-0.000150964,-2.70286,0.648329,0.0910031,-7.03967,0.0761616,
2,0,0,1,0,44489.4,0.069016,0.0686885,-1.92594,23,0.00665703,10,-0.00013229,-2.71536,0.579012,0.101898,-7.6721,0.0686885,
2,0,0,1,0,44489.8,0.0615251,0.0612123,-1.87363,23,0.00593835,10,-0.000114689,-2.72732,0.598648,0.0985554,-7.21321,0.0612123,
2,0,0,1,0,44490.2,0.0540341,0.0537024,-1.81634,23,0.00524073,10,-9.75415e-05,-2.7408,0.666682,0.088498,-6.27191,0.0537024,
2,0,0,1,0,44490.6,0.0465432,0.0462563,-1.75826,23,0.00456453,10,-8.13303e-05,-2.75492,0.537765,0.109713,-7.51337,0.0462563,
2,0,0,1,0,44490.9,0.0390523,0.0387212,-1.69325,23,0.00391195,10,-6.55647e-05,-2.77128,0.398682,0.147988,-9.76224,0.0387212,
2,0,0,1,0,44491.3,0.0315626,0.031241,-1.62554,23,0.0032844,10,-5.07836e-05,-2.789,0.44165,0.13359,-8.47022,0.031241,
2,0,0,1,0,44491.7,0.0240704,0.0237829,-1.56028,23,0.002681,10,-3.7108e-05,-2.8068,0.403871,0.146086,-8.91834,0.0237829,
2,0,0,1,0,44492.1,0.0165785,0.0162622,-1.51252,23,0.00209917,10,-2.4597e-05,-2.8203,0.720413,0.0818974,-4.84142,0.0162622,
2,0,0,1,0,44492.4,0.00908846,0.00872181,-1.47604,23,0.00153359,10,-1.28737e-05,-2.8309,0.922405,0.0639632,-3.68854,0.00872181,
2,0,0,1,0,44492.8,0.0015984,0.00124052,-1.47672,23,0.000977028,10,-1.8319e-06,-2.8307, , , ,0.00124052,
2,0,0,1,0,44492.9,0.000199195,-0.000170778,-1.46729,23,0.000872866,10,2.50581e-07,-2.83348, , , ,-0.000170778,