File: Figure_codes/Fig_3-5/rawdata_trumpetplot_data/after 10th/20221101_1-115_003_TrumpetPlot_ParaChange_from10_every3_02_CV_C01_29.csv
mode,ox/red,error,control changes,counter inc.,time/s,control/V,Ewe/V,<I>/mA,cycle number,(Q-Qo)/C,I Range,P/W,log(|I|),Tafel slope mV/dec,alpha_eff,dI/d(E-IR),E-IR/V,
2,0,0,1,0,57473.8,2.44065e-05,-0.000363498,-0.389425,30,0.0000000E+000,10,1.41555e-07,-3.40958, , , ,-0.000363498,
2,0,0,1,0,57481.1,0.00729061,0.0069607,-0.0954747,30,-0.000972551,10,-6.6457e-07,-4.02011,-0.0300252,-1.96502,7.44004,0.0069607,
2,0,0,1,0,57488.6,0.0147815,0.0144588,-0.0594362,30,-0.00146454,10,-8.59377e-07,-4.22595,-0.0394696,-1.49482,3.43901,0.0144588,
2,0,0,1,0,57496.1,0.0222725,0.0219209,-0.0379444,30,-0.00175359,10,-8.31776e-07,-4.42085,-0.0387993,-1.52065,2.277,0.0219209,
2,0,0,1,0,57503.6,0.0297635,0.0293852,-0.0230923,30,-0.00191239,10,-6.7857e-07,-4.63653,-0.02745,-2.14936,1.90434,0.0293852,
2,0,0,1,0,57511,0.0372544,0.0368875,-0.01026,30,-0.00196435,10,-3.78465e-07,-4.98885,-0.0144975,-4.06966,1.53601,0.0368875,
2,1,0,1,0,57518.5,0.0447454,0.0443783,0.00173141,30,-0.00192521,10,7.6837e-08,-5.7616,0.0115463,5.10985,1.61758,0.0443783,
2,1,0,1,0,57526,0.0522363,0.0518763,0.0116097,30,-0.00180284,10,6.02268e-07,-4.93518,0.0178367,3.30779,1.46236,0.0518763,
2,1,0,1,0,57533.5,0.0597273,0.0593735,0.0208422,30,-0.00160847,10,1.23747e-06,-4.68106,0.0498175,1.18432,0.94806,0.0593735,
2,1,0,1,0,57541,0.0672183,0.0668398,0.0289909,30,-0.00135121,10,1.93774e-06,-4.53774,0.0670589,0.879823,0.969489,0.0668398,
2,1,0,1,0,57548.5,0.0747092,0.0743284,0.0357439,30,-0.00103733,10,2.65678e-06,-4.4468,0.0871025,0.677363,0.946209,0.07432837,
2,1,0,1,0,57556,0.0822001,0.0818179,0.0421298,30,-0.000670123,10,3.44697e-06,-4.37541,0.120443,0.489859,0.818598,0.0818179,
2,1,0,1,0,57563.5,0.0896911,0.089365,0.0511712,30,-0.000245904,10,4.57291e-06,-4.29097,0.0872511,0.676209,1.36352,0.089365,
2,1,0,1,0,57571,0.0971821,0.0968249,0.0604558,30,0.00024792,10,5.85363e-06,-4.21856,0.096234,0.613089,1.43748,0.0968249,
2,1,0,1,0,57578.5,0.104673,0.104313,0.0711436,30,0.000813832,10,7.42123e-06,-4.14786,0.120317,0.490371,1.34905,0.104313,
2,1,0,1,0,57586,0.112164,0.111824,0.0793628,30,0.00145359,10,8.87468e-06,-4.10038,0.207059,0.284943,0.879934,0.111824,
2,1,0,1,0,57593.4,0.119655,0.119339,0.0871976,30,0.00215423,10,1.04061e-05,-4.0595,0.247287,0.238589,0.812351,0.119339,
2,1,0,1,0,57600.9,0.127146,0.126808,0.0918345,30,0.00290422,10,1.16453e-05,-4.03699,0.53209,0.110883,0.397548,0.126808,
2,1,0,1,0,57608.4,0.134637,0.1343,0.0894952,30,0.00366787,10,1.20192e-05,-4.0482,-0.183735,-0.321114,-1.12247,0.1343,
2,1,0,1,0,57615.9,0.142128,0.141768,0.0748618,30,0.00436165,10,1.0613e-05,-4.12574,-0.0715688,-0.824382,-2.38382,0.141768,
2,1,0,1,0,57623.4,0.149619,0.149245,0.0591303,30,0.00492888,10,8.82491e-06,-4.22819,-0.0920964,-0.640633,-1.48802,0.149245,
2,1,0,1,0,57630.9,0.15711,0.156813,0.052242,30,0.00541,10,8.19223e-06,-4.28198,-0.214015,-0.275681,-0.560726,0.1568132,
2,1,0,1,0,57638.4,0.164601,0.164257,0.0502591,30,0.00585858,10,8.25542e-06,-4.29879,-0.54111,-0.109035,-0.213538,0.164257,
2,1,0,1,0,57645.9,0.172091,0.171746,0.0492784,30,0.00629679,10,8.46335e-06,-4.30734,-4.358,-0.0135383,-0.0261936,0.171746,
2,1,0,1,0,57653.4,0.179582,0.179247,0.0497405,30,0.00673406,10,8.91584e-06,-4.30329,-13.9375,-0.00423318,-0.00825441,0.179247,
2,1,0,1,0,57660.9,0.187073,0.186724,0.0506765,30,0.00717435,10,9.46252e-06,-4.29519,0.911879,0.0647015,0.126915,0.186724,
2,1,0,1,0,57668.4,0.194564,0.194215,0.0510154,30,0.00761924,10,9.90794e-06,-4.2923,0.428876,0.137569,0.27664,0.194215,
2,1,0,1,0,57675.8,0.202055,0.201711,0.0520387,30,0.00807047,10,1.04968e-05,-4.28367,1.0618,0.0555663,0.112241,0.201711,
2,1,0,1,0,57683.3,0.209546,0.209212,0.0532038,30,0.00852816,10,1.11309e-05,-4.27406,1.39252,0.0423691,0.0882314,0.209212,
2,1,0,1,0,57690.8,0.217037,0.216716,0.054344,30,0.00899331,10,1.17772e-05,-4.26485,0.857323,0.0688188,0.146092,0.216716,
2,1,0,1,0,57698.3,0.224528,0.224181,0.0555897,30,0.00946725,10,1.24621e-05,-4.25501,1.14969,0.0513181,0.111227,0.224181,
2,1,0,1,0,57705.8,0.232019,0.231664,0.0561898,30,0.00994764,10,1.30171e-05,-4.25034,0.902357,0.0653844,0.144289,0.231664,
2,1,0,1,0,57713.3,0.23951,0.23919,0.0580677,30,0.0104367,10,1.38892e-05,-4.23607,-2.21804,-0.0266001,-0.059898,0.2391897,
2,1,0,1,0,57720.8,0.247001,0.246638,0.0581592,30,0.0109317,10,1.43443e-05,-4.23538,-167.896,-0.000351407,-0.000796998,0.246638,
2,1,0,1,0,57728.3,0.254492,0.254185,0.0594443,30,0.0114314,10,1.51099e-05,-4.22589,1.17553,0.0501903,0.116674,0.254185,
2,1,0,1,0,57735.8,0.261983,0.261616,0.0602873,30,0.0119378,10,1.57721e-05,-4.21977,0.817035,0.0722123,0.170152,0.261616,
2,1,0,1,0,57743.3,0.269474,0.269131,0.0614399,30,0.0124519,10,1.65354e-05,-4.21155,0.803929,0.0733896,0.175877,0.269131,
2,1,0,1,0,57750.8,0.276965,0.276626,0.0622548,30,0.0129733,10,1.72213e-05,-4.20583,19.6055,0.00300936,0.0073061,0.276626,
2,1,0,1,0,57758.2,0.284456,0.284161,0.0631581,30,0.0134993,10,1.7947e-05,-4.19957,26.7622,0.0022046,0.00540697,0.284161,
2,1,0,1,0,57765.7,0.291947,0.291584,0.0637847,30,0.0140294,10,1.85986e-05,-4.19528,13.3092,0.00443303,0.0109977,0.291584,
2,1,0,1,0,57773.2,0.299438,0.2991,0.0646749,30,0.014566,10,1.93442e-05,-4.18926,-0.00413117,-14.2817,-22.7565,0.2990995,
2,1,0,1,0,57780.1,0.293745,0.293426,0.00711656,30,0.0146584,10,2.08819e-06,-5.14773,0.0103743,5.68712,1.6292,0.293426,
2,1,0,1,0,57787.6,0.286254,0.285924,-0.000775671,30,0.014624,10,-2.21783e-07,-6.11032,-0.00730664,-8.07485,0.829429,0.285924,
2,1,0,1,0,57795,0.278763,0.278421,-0.00659979,30,0.0145394,10,-1.83752e-06,-5.18047,-0.0185858,-3.17446,0.752038,0.2784206,
2,0,0,1,0,57802.5,0.271272,0.271005,-0.0112973,30,0.0144159,10,-3.06163e-06,-4.94702,-0.0474633,-1.24307,0.544022,0.271005,
2,0,0,1,0,57810,0.263781,0.263422,-0.0151252,30,0.0142593,10,-3.98432e-06,-4.8203,-0.0765095,-0.771146,0.460567,0.2634221,
2,0,0,1,0,57817.5,0.25629,0.255903,-0.0187738,30,0.0140746,10,-4.80427e-06,-4.72645,-0.111982,-0.52687,0.377593,0.255903,
2,0,0,1,0,57825,0.248799,0.24847,-0.0214312,30,0.0138647,10,-5.32502e-06,-4.66895,-0.11758,-0.501787,0.428095,0.24847,
2,0,0,1,0,57832.5,0.241308,0.240946,-0.0243385,30,0.0136327,10,-5.86426e-06,-4.61371,-0.145835,-0.404566,0.387841,0.240946,
2,0,0,1,0,57840,0.233817,0.233483,-0.02731,30,0.0133785,10,-6.37641e-06,-4.56368,-0.175233,-0.336694,0.358561,0.233483,
2,0,0,1,0,57847.5,0.226326,0.22603,-0.0304572,30,0.0131019,10,-6.88424e-06,-4.51631,-0.220219,-0.267915,0.315291,0.2260301,
2,0,0,1,0,57855,0.218835,0.218483,-0.0329834,30,0.0128049,10,-7.20632e-06,-4.4817,-0.232061,-0.254243,0.323822,0.218483,
2,0,0,1,0,57862.5,0.211344,0.211013,-0.0354758,30,0.0124863,10,-7.48583e-06,-4.45007,-0.367041,-0.160745,0.223337,0.211013,
2,0,0,1,0,57870,0.203853,0.203513,-0.0378763,30,0.012148,10,-7.70834e-06,-4.42163,-0.236831,-0.249123,0.370691,0.203513,
2,0,0,1,0,57877.4,0.196362,0.195998,-0.0409895,30,0.0117884,10,-8.03387e-06,-4.38733,-0.189422,-0.311474,0.496929,0.1959983,
2,0,0,1,0,57884.9,0.188871,0.18854,-0.0442734,30,0.0114039,10,-8.34733e-06,-4.35386,-0.205376,-0.287278,0.495394,0.18854,
2,0,0,1,0,57892.4,0.18138,0.181076,-0.0477776,30,0.010994,10,-8.6514e-06,-4.32078,-0.306864,-0.192267,0.358618,0.181076,
2,0,0,1,0,57899.9,0.173889,0.173569,-0.0513828,30,0.010557,10,-8.91845e-06,-4.28918,-0.187907,-0.313985,0.631838,0.173569,
2,0,0,1,0,57907.4,0.166398,0.166048,-0.0560555,30,0.010087,10,-9.30792e-06,-4.25138,-0.179676,-0.32837,0.718776,0.1660482,
2,0,0,1,0,57914.9,0.158907,0.158584,-0.0615658,30,0.00957649,10,-9.76334e-06,-4.21066,-0.161125,-0.366174,0.886696,0.158584,
2,0,0,1,0,57922.4,0.151417,0.151024,-0.0701892,30,0.00901191,10,-1.06003e-05,-4.15373,-0.11473,-0.514252,1.4084,0.151024,
2,0,0,1,0,57929.9,0.143926,0.143593,-0.0821552,30,0.00837173,10,-1.17969e-05,-4.08537,-0.0793943,-0.743126,2.37415,0.143593,
2,0,0,1,0,57937.4,0.136435,0.136117,-0.101346,30,0.00761306,10,-1.37949e-05,-3.9942,-0.0836327,-0.705465,2.78397,0.136117,
2,0,0,1,0,57944.9,0.128944,0.128605,-0.121605,30,0.00669763,10,-1.5639e-05,-3.91505,-0.129114,-0.456959,2.16718,0.128605,
2,0,0,1,0,57952.4,0.121453,0.121194,-0.133935,30,0.00565479,10,-1.62321e-05,-3.87311,-0.378686,-0.155802,0.81167,0.121194,
2,0,0,1,0,57959.8,0.113962,0.11361,-0.136746,30,0.00455898,10,-1.55358e-05,-3.86408,-3.70112,-0.0159411,0.0851513,0.1136101,
2,0,0,1,0,57967.3,0.106471,0.106108,-0.136931,30,0.00345297,10,-1.45294e-05,-3.8635,21.1669,0.00278737,-0.0149519,0.106108,
2,0,0,1,0,57974.8,0.0989798,0.0986169,-0.136026,30,0.00235097,10,-1.34145e-05,-3.86638,1.08285,0.054486,-0.287595,0.09861692,
2,0,0,1,0,57982.3,0.0914889,0.091123,-0.133196,30,0.0012672,10,-1.21372e-05,-3.87551,1.22284,0.0482482,-0.250305,0.09112303,
2,0,0,1,0,57989.8,0.083998,0.0836515,-0.128617,30,0.000211269,10,-1.0759e-05,-3.8907,0.412173,0.143144,-0.718524,0.0836515,
2,0,0,1,0,57997.3,0.076507,0.0761491,-0.124506,30,-0.000814876,10,-9.48103e-06,-3.90481,0.451023,0.130814,-0.635434,0.0761491,
2,0,0,1,0,58004.8,0.069016,0.068689,-0.120645,30,-0.00181043,10,-8.28702e-06,-3.91849,0.504037,0.117055,-0.553184,0.068689,
2,0,0,1,0,58012.3,0.0615251,0.0611984,-0.118083,30,-0.00278011,10,-7.22648e-06,-3.92781,0.578289,0.102025,-0.47033,0.0611984,
2,0,0,1,0,58019.8,0.0540342,0.0536611,-0.115035,30,-0.00372789,10,-6.17293e-06,-3.93917,0.848232,0.0695564,-0.312624,0.0536611,
2,0,0,1,0,58027.3,0.0465432,0.0461841,-0.112209,30,-0.00465393,10,-5.18228e-06,-3.94997,1.00536,0.0586856,-0.257231,0.0461841,
2,0,0,1,0,58034.8,0.0390522,0.038669,-0.109378,30,-0.00555932,10,-4.22952e-06,-3.96107,0.671784,0.0878259,-0.3761,0.038669,
2,0,0,1,0,58042.3,0.0315613,0.0312069,-0.106857,30,-0.00644562,10,-3.33467e-06,-3.9712,0.670104,0.088046,-0.370026,0.0312069,
2,0,0,1,0,58049.7,0.0240703,0.0237395,-0.105437,30,-0.00731497,10,-2.50301e-06,-3.97701,0.991056,0.0595325,-0.245657,0.0237395,
2,0,0,1,0,58057.2,0.0165794,0.0162552,-0.105552,30,-0.00817646,10,-1.71577e-06,-3.97653,2.44631,0.0241179,-0.0992681,0.0162552,
2,0,0,1,0,58064.7,0.00908843,0.00873159,-0.106407,30,-0.0090402,10,-9.29101e-07,-3.97303,-1.0124,-0.0582775,0.24178,0.00873159,
2,0,0,1,0,58072.2,0.00159744,0.00119312,-0.109715,30,-0.00992036,10,-1.30904e-07,-3.95973, , , ,0.00119312,
2,0,0,1,0,58073.6,0.000199235,-0.000212695,-0.109784,30,-0.0100867,10,2.33505e-08,-3.95946, , , ,-0.000212695,