File: Figure_codes/Fig_3-5/rawdata_trumpetplot_data/after 10th/20221101_1-115_003_TrumpetPlot_ParaChange_from10_every3_12_CV_C01_29.csv
mode,ox/red,error,control changes,counter inc.,time/s,control/V,Ewe/V,<I>/mA,cycle number,(Q-Qo)/C,I Range,P/W,log(|I|),Tafel slope mV/dec,alpha_eff,dI/d(E-IR),E-IR/V,
2,1,0,1,0,58330.3,2.44065e-05,-0.000382585,13.983,30,0.0000000E+000,10,-5.34969e-06,-1.8544, , , ,-0.000382585,
2,1,0,1,0,58330.3,0.0104008,0.0100306,16.9843,30,0.000269296,10,0.000170363,-1.76995,0.18203,0.324123,213.643,0.0100306,
2,1,0,1,0,58330.3,0.0212099,0.0208414,18.9838,30,0.00059381,10,0.00039565,-1.72162,0.265206,0.222469,164.314,0.0208414,
2,1,0,1,0,58330.4,0.0320052,0.0316131,20.6022,30,0.000950575,10,0.000651298,-1.68609,0.340174,0.17344,139.234,0.0316131,
2,1,0,1,0,58330.4,0.0428033,0.0424621,22.0252,30,0.00133456,10,0.000935234,-1.65708,0.404308,0.145928,125.317,0.0424621,
2,1,0,1,0,58330.4,0.0535986,0.0531976,23.3207,30,0.00174292,10,0.0012406,-1.63226,0.454306,0.129869,118.166,0.0531976,
2,1,0,1,0,58330.4,0.0644077,0.0640657,24.5748,30,0.00217423,10,0.0015744,-1.60951,0.494022,0.119428,114.529,0.0640657,
2,1,0,1,0,58330.4,0.075203,0.0748066,25.8187,30,0.00262794,10,0.00193141,-1.58807,0.512102,0.115212,116.125,0.0748066,
2,1,0,1,0,58330.4,0.0860011,0.0856694,27.0678,30,0.00310405,10,0.00231888,-1.56755,0.538094,0.109646,115.86,0.0856694,
2,1,0,1,0,58330.5,0.0968075,0.0964187,28.3486,30,0.00360299,10,0.00273334,-1.54747,0.552094,0.106866,118.218,0.0964187,
2,1,0,1,0,58330.5,0.107606,0.107207,29.6363,30,0.00412501,10,0.00317723,-1.52818,0.561517,0.105073,121.551,0.107207,
2,1,0,1,0,58330.5,0.118401,0.118001,30.9805,30,0.00467061,10,0.00365574,-1.50891,0.570827,0.103359,124.963,0.118001,
2,1,0,1,0,58330.5,0.129207,0.128776,32.3612,30,0.00524076,10,0.00416734,-1.48998,0.546662,0.107928,136.424,0.128776,
2,1,0,1,0,58330.5,0.140005,0.139597,33.9482,30,0.00583752,10,0.00473909,-1.46918,0.523188,0.11277,149.359,0.139597,
2,1,0,1,0,58330.6,0.150803,0.150391,35.5414,30,0.00646314,10,0.00534512,-1.44927,0.563262,0.104747,145.261,0.150391,
2,1,0,1,0,58330.6,0.161604,0.16123,37.0624,30,0.00711698,10,0.00597555,-1.43107,0.641386,0.0919883,133.004,0.16123,
2,1,0,1,0,58330.6,0.172405,0.172003,38.4026,30,0.00779675,10,0.00660538,-1.41564,0.789835,0.0746992,111.85,0.172003,
2,1,0,1,0,58330.6,0.183203,0.182792,39.3832,30,0.00849769,10,0.00719893,-1.40469,1.3564,0.0434973,66.7658,0.182792,
2,1,0,1,0,58330.6,0.194001,0.193608,39.7782,30,0.00921125,10,0.00770139,-1.40035,18.5189,0.00318594,4.93874,0.193608,
2,1,0,1,0,58330.6,0.204808,0.204438,39.5055,30,0.00992591,10,0.00807642,-1.40334,-1.59379,-0.0370187,-56.9822,0.204438,
2,1,0,1,0,58330.7,0.215603,0.215282,38.571,30,0.0106295,10,0.00830364,-1.41374,-0.763897,-0.0772355,-116.072,0.215282,
2,1,0,1,0,58330.7,0.226401,0.226049,37.0431,30,0.0113105,10,0.00837356,-1.43129,-0.523346,-0.112736,-162.762,0.226049,
2,1,0,1,0,58330.7,0.237207,0.236874,35.129,30,0.0119602,10,0.00832113,-1.45433,-0.431752,-0.136653,-187.161,0.236874,
2,1,0,1,0,58330.7,0.248005,0.247663,33.0539,30,0.0125735,10,0.00818624,-1.48078,-0.399103,-0.147831,-190.634,0.247663,
2,1,0,1,0,58330.7,0.258801,0.258463,31.0269,30,0.0131498,10,0.00801929,-1.50826,-0.396449,-0.148821,-180.265,0.258463,
2,1,0,1,0,58330.8,0.26961,0.269209,29.1824,30,0.0136912,10,0.00785615,-1.53488,-0.41961,-0.140607,-160.216,0.269209,
2,1,0,1,0,58330.8,0.280405,0.280045,27.5545,30,0.0142013,10,0.0077165,-1.55981,-0.455899,-0.129415,-139.257,0.280045,
2,1,0,1,0,58330.8,0.291203,0.290824,26.155,30,0.0146843,10,0.00760652,-1.58244,-0.4963,-0.11888,-121.451,0.290824,
2,1,0,0,0,58330.8,0.300012,0.299689,25.1492,30,0.0150612,10,0.00753693,-1.59948,0.00255882,23.0575,20586.6,0.2996892,
2,1,0,1,0,58330.8,0.290842,0.290509,14.8324,30,0.0153544,10,0.00430895,-1.82879,0.0427556,1.37994,803.962,0.290509,
2,1,0,1,0,58330.8,0.280047,0.279746,7.85185,30,0.0155536,10,0.00219652,-2.10503,0.033556,1.75826,532.14,0.279746,
2,1,0,1,0,58330.9,0.269244,0.268918,2.93646,30,0.0156479,10,0.000789667,-2.53218,0.0155845,3.78582,388.944,0.268918,
2,0,0,1,0,58330.9,0.258443,0.258099,-0.725885,30,0.015666,10,-0.00018735,-3.13913,-0.0230276,-2.56214,295.03,0.2580989,
2,0,0,1,0,58330.9,0.247645,0.247307,-3.55541,30,0.0156262,10,-0.00087928,-2.44911,-0.0334836,-1.76206,232.702,0.247307,
2,0,0,1,0,58330.9,0.236849,0.236478,-5.82025,30,0.0155409,10,-0.00137636,-2.23506,-0.0695694,-0.848074,189.515,0.236478,
2,0,0,1,0,58330.9,0.22604,0.225739,-7.67513,30,0.0154188,10,-0.00173257,-2.11491,-0.112819,-0.522961,155.358,0.2257385,
2,0,0,1,0,58330.9,0.215245,0.214877,-9.22034,30,0.0152663,10,-0.00198124,-2.03525,-0.157424,-0.374785,134.359,0.214877,
2,0,0,1,0,58331,0.204447,0.204076,-10.5573,30,0.0150879,10,-0.0021545,-1.97645,-0.208425,-0.283076,116.362,0.204076,
2,0,0,1,0,58331,0.19364,0.193257,-11.7352,30,0.014887,10,-0.00226791,-1.93051,-0.260697,-0.226317,103.475,0.193257,
2,0,0,1,0,58331,0.182842,0.182466,-12.7981,30,0.0146659,10,-0.00233522,-1.89285,-0.308464,-0.19127,95.5134,0.182466,
2,0,0,1,0,58331,0.172047,0.171707,-13.8168,30,0.0144262,10,-0.00237244,-1.85959,-0.340969,-0.173036,93.3132,0.171707,
2,0,0,1,0,58331,0.161241,0.160887,-14.8458,30,0.0141682,10,-0.0023885,-1.8284,-0.353654,-0.16683,96.6769,0.160887,
2,0,0,1,0,58331.1,0.150443,0.150041,-15.9592,30,0.0138911,10,-0.00239454,-1.79699,-0.332503,-0.177442,110.577,0.150041,
2,0,0,1,0,58331.1,0.139645,0.13931,-17.3024,30,0.0135921,10,-0.0024104,-1.76189,-0.280294,-0.210493,142.417,0.13931,
2,0,0,1,0,58331.1,0.128849,0.128516,-19.0809,30,0.0132653,10,-0.0024522,-1.7194,-0.23188,-0.254442,189.863,0.128516,
2,0,0,1,0,58331.1,0.118043,0.117713,-21.4203,30,0.0129015,10,-0.00252144,-1.66917,-0.205648,-0.286898,239.911,0.117713,
2,0,0,1,0,58331.1,0.107245,0.10691,-24.1482,30,0.0124915,10,-0.0025817,-1.61711,-0.212186,-0.278057,261.873,0.1069104,
2,0,0,1,0,58331.1,0.0964468,0.0961303,-26.9462,30,0.0120312,10,-0.00259034,-1.5695,-0.243648,-0.242153,254.278,0.0961303,
2,0,0,1,0,58331.2,0.0856404,0.0853481,-29.5682,30,0.0115221,10,-0.00252359,-1.52918,-0.290758,-0.202918,233.737,0.0853481,
2,0,0,1,0,58331.2,0.0748451,0.0744885,-31.8994,30,0.010968,10,-0.00237614,-1.49622,-0.373857,-0.157814,196.158,0.0744885,
2,0,0,1,0,58331.2,0.0640471,0.0637497,-33.784,30,0.0103758,10,-0.00215372,-1.47129,-0.505937,-0.116615,153.554,0.0637497,
2,0,0,1,0,58331.2,0.0532407,0.0529039,-35.2381,30,0.00975393,10,-0.00186424,-1.45299,-0.700339,-0.0842449,115.725,0.0529039,
2,0,0,1,0,58331.2,0.0424426,0.0421079,-36.3033,30,0.00910934,10,-0.00152866,-1.44005,-1.03821,-0.0568287,80.4379,0.0421079,
2,0,0,1,0,58331.3,0.0316473,0.0312663,-37.0245,30,0.00844888,10,-0.00115762,-1.43151,-1.57923,-0.03736,53.9391,0.0312663,
2,0,0,1,0,58331.3,0.0208437,0.0205212,-37.4714,30,0.00777806,10,-0.000768959,-1.4263,-2.93558,-0.0200983,29.3671,0.0205212,
2,0,0,1,0,58331.3,0.0100429,0.00964144,-37.6873,30,0.00710135,10,-0.000363359,-1.42381,-9.84388,-0.00599357,8.80799,0.00964144,
2,0,0,1,0,58331.3,-0.000755207,-0.00121394,-37.7156,30,0.00642259,10,4.57846e-05,-1.42348,11.7921,0.00500335,-7.3553,-0.00121394,
2,0,0,1,0,58331.3,-0.0115505,-0.0119209,-37.476,30,0.00574566,10,0.000446746,-1.42625,2.8678,0.0205733,-30.0757,-0.0119209,
2,0,0,1,0,58331.3,-0.0223597,-0.0227423,-37.0494,30,0.00507461,10,0.00084259,-1.43122,1.79191,0.0329258,-47.6008,-0.0227423,
2,0,0,1,0,58331.4,-0.033155,-0.0335532,-36.5017,30,0.00441249,10,0.00122475,-1.43769,1.61909,0.0364401,-51.9141,-0.0335532,
2,0,0,1,0,58331.4,-0.043953,-0.044398,-35.9147,30,0.00376079,10,0.00159454,-1.44473,1.52675,0.0386442,-54.1718,-0.044398,
2,0,0,1,0,58331.4,-0.0547594,-0.0551675,-35.3723,30,0.0031194,10,0.0019514,-1.45134,1.70532,0.0345975,-47.7683,-0.0551675,
2,0,0,1,0,58331.4,-0.0655575,-0.0659688,-34.9297,30,0.00248696,10,0.00230427,-1.45681,2.32833,0.0253401,-34.5513,-0.0659688,
2,0,0,1,0,58331.4,-0.0763528,-0.0767754,-34.6313,30,0.00186123,10,0.00265883,-1.46053,3.91027,0.0150885,-20.3987,-0.0767754,
2,0,0,1,0,58331.4,-0.0871592,-0.0875523,-34.477,30,0.00123958,10,0.00301854,-1.46247,9.26098,0.00637081,-8.5738,-0.0875523,
2,0,0,1,0,58331.5,-0.0979573,-0.0983833,-34.4732,30,0.000619321,10,0.00339159,-1.46252,23.4979,0.00251086,-3.37335,-0.0983833,
2,0,0,1,1,58331.5,-0.0955546,-0.0960249,-27.2657,30,0.000270783,10,0.00261818,-1.56438,-0.0481821,-1.22452,1325.56,-0.09602493,
2,0,0,1,1,58331.5,-0.0847538,-0.0852003,-16.8776,30,-0.000118659,10,0.00143798,-1.77269,-0.049494,-1.19206,785.02,-0.0852003,
2,0,0,1,1,58331.5,-0.0739557,-0.0743619,-9.50175,30,-0.000352531,10,0.000706568,-2.0222,-0.0356978,-1.65276,603.106,-0.0743619,
2,0,0,1,1,58331.5,-0.0631604,-0.0635934,-3.68153,30,-0.000468655,10,0.000234121,-2.43397,-0.0151396,-3.89707,489.302,-0.0635934,
2,1,0,1,1,58331.5,-0.0523512,-0.0527635,1.12048,30,-0.000489735,10,-5.91204e-05,-2.9506,0.018149,3.25086,406.73,-0.05276351,
2,1,0,1,1,58331.6,-0.0415559,-0.0420608,5.11865,30,-0.000432126,10,-0.000215294,-2.29084,0.0329519,1.79049,341.609,-0.0420608,
2,1,0,1,1,58331.6,-0.0307579,-0.0312468,8.52022,30,-0.000308132,10,-0.000266229,-2.06955,0.0670562,0.879859,288.599,-0.0312468,
2,1,0,1,1,58331.6,-0.0199515,-0.0203787,11.4206,30,-0.000127668,10,-0.000232737,-1.94231,0.106131,0.555918,245.778,-0.0203787,
2,1,0,1,1,58331.6,-0.0091534,-0.00958374,13.8807,30,0.00010076,10,-0.000133029,-1.85759,0.152062,0.387999,209.001,-0.00958374,
2,1,0,0,1,58331.6,-7.54729e-05,-0.000554371,15.582,30,0.000323858,10,-8.6382e-06,-1.80738, , , ,-0.000554371,