File: Figure_codes/Fig_3-5/rawdata_trumpetplot_data/after 10th/20221101_1-115_003_TrumpetPlot_ParaChange_from10_every3_12_CV_C01_19.csv
mode,ox/red,error,control changes,counter inc.,time/s,control/V,Ewe/V,<I>/mA,cycle number,(Q-Qo)/C,I Range,P/W,log(|I|),Tafel slope mV/dec,alpha_eff,dI/d(E-IR),E-IR/V,
2,1,0,1,0,38629,2.44065e-05,-0.000344411,16.1213,20,0.0000000E+000,10,-5.55236e-06,-1.7926, , , ,-0.000344411,
2,1,0,1,0,38629,0.0104008,0.0100741,19.4138,20,0.000308977,10,0.000195576,-1.71189,0.195819,0.301299,226.958,0.0100741,
2,1,0,1,0,38629,0.0212099,0.0208828,21.5064,20,0.000678254,10,0.000449114,-1.66743,0.291335,0.202516,169.518,0.0208828,
2,1,0,1,0,38629.1,0.0320052,0.0316226,23.1536,20,0.00108081,10,0.000732179,-1.63538,0.374883,0.157382,142.045,0.0316226,
2,1,0,1,0,38629.1,0.0428033,0.0424589,24.5861,20,0.00151089,10,0.0010439,-1.60931,0.445527,0.132427,127.036,0.0424589,
2,1,0,1,0,38629.1,0.0535986,0.0532273,25.9166,20,0.00196572,10,0.00137947,-1.58642,0.492233,0.119862,121.258,0.05322732,
2,1,0,1,0,38629.1,0.0644077,0.0640392,27.244,20,0.0024444,10,0.00174469,-1.56473,0.50813,0.116112,123.486,0.0640392,
2,1,0,1,0,38629.1,0.075203,0.0748681,28.6057,20,0.00294716,10,0.00214166,-1.54355,0.514197,0.114742,128.106,0.0748681,
2,1,0,1,0,38629.1,0.0860011,0.0855846,30.0046,20,0.00347471,10,0.00256793,-1.52281,0.529954,0.11133,130.37,0.0855846,
2,1,0,1,0,38629.2,0.0968075,0.0964463,31.4653,20,0.00402795,10,0.00303471,-1.50217,0.524495,0.112489,138.105,0.0964463,
2,1,0,1,0,38629.2,0.107606,0.107249,32.9584,20,0.00460789,10,0.00353474,-1.48203,0.543764,0.108503,139.516,0.107249,
2,1,0,1,0,38629.2,0.118401,0.118019,34.4578,20,0.00521448,10,0.00406668,-1.46271,0.539654,0.109329,147.125,0.118019,
2,1,0,1,0,38629.2,0.129207,0.128833,36.1412,20,0.00584991,10,0.00465619,-1.442,0.521543,0.113126,159.572,0.128833,
2,1,0,1,0,38629.2,0.140005,0.139626,37.9417,20,0.00651655,10,0.00529765,-1.42088,0.50096,0.117774,174.388,0.139626,
2,1,0,1,0,38629.3,0.150803,0.150423,39.8157,20,0.0072166,10,0.00598921,-1.39995,0.531974,0.110908,172.306,0.150423,
2,1,0,1,0,38629.3,0.161604,0.161255,41.6016,20,0.00794986,10,0.00670847,-1.38089,0.620534,0.0950794,154.277,0.161255,
2,1,0,1,0,38629.3,0.172405,0.172079,43.1266,20,0.00871315,10,0.00742118,-1.36525,0.804085,0.0733754,123.367,0.172079,
2,1,0,1,0,38629.3,0.183203,0.182868,44.1679,20,0.00949992,10,0.00807692,-1.35489,1.64526,0.0358607,61.6948,0.182868,
2,1,0,1,0,38629.3,0.194001,0.193646,44.3641,20,0.0102982,10,0.00859095,-1.35297,-3.40837,-0.0173103,-29.8997,0.193646,
2,1,0,1,0,38629.3,0.204808,0.204459,43.5203,20,0.0110907,10,0.00889814,-1.36131,-0.793229,-0.0743795,-126.026,0.204459,
2,1,0,1,0,38629.4,0.215603,0.215299,41.6533,20,0.0118585,10,0.00896791,-1.38035,-0.453496,-0.1301,-211.046,0.215299,
2,1,0,1,0,38629.4,0.226401,0.22609,38.986,20,0.0125848,10,0.00881433,-1.40909,-0.332624,-0.177377,-269.537,0.22609,
2,1,0,1,0,38629.4,0.237207,0.236906,35.968,20,0.0132593,10,0.00852103,-1.44408,-0.294628,-0.200253,-281.012,0.236906,
2,1,0,1,0,38629.4,0.248005,0.247677,33.0322,20,0.0138796,10,0.00818133,-1.48106,-0.296122,-0.199242,-256.933,0.247677,
2,1,0,1,0,38629.4,0.258801,0.258487,30.4289,20,0.0144498,10,0.00786547,-1.51671,-0.317847,-0.185624,-220.711,0.258487,
2,1,0,1,0,38629.4,0.26961,0.269257,28.2647,20,0.0149772,10,0.00761046,-1.54876,-0.354743,-0.166318,-183.63,0.269257,
2,1,0,1,0,38629.5,0.280405,0.280106,26.4916,20,0.0154693,10,0.00742045,-1.57689,-0.416816,-0.141549,-146.492,0.280106,
2,1,0,1,0,38629.5,0.291203,0.290925,25.0478,20,0.0159326,10,0.00728702,-1.60123,-0.475872,-0.123983,-121.345,0.290925,
2,1,0,0,0,38629.5,0.300012,0.299785,24.0533,20,0.0162934,10,0.00721081,-1.61883,0.00278716,21.1685,17614.5,0.299785,
2,1,0,1,0,38629.5,0.290842,0.290538,11.9968,20,0.0165539,10,0.00348553,-1.92093,0.0302721,1.94899,916.135,0.2905378,
2,1,0,1,0,38629.5,0.280047,0.279806,4.38848,20,0.0166952,10,0.00122793,-2.35769,0.0166795,3.53728,558.484,0.279806,
2,0,0,1,0,38629.6,0.269244,0.268915,-0.613591,20,0.0167259,10,-0.000165004,-3.21212,-0.0433644,-1.36056,383.518,0.268915,
2,0,0,1,0,38629.6,0.258443,0.258136,-4.11735,20,0.0166814,10,-0.00106284,-2.38538,-0.0320644,-1.84004,277.514,0.258136,
2,0,0,1,0,38629.6,0.247645,0.247416,-6.69875,20,0.0165827,10,-0.00165738,-2.17401,-0.0727407,-0.811101,208.795,0.247416,
2,0,0,1,0,38629.6,0.236849,0.236528,-8.696,20,0.0164432,10,-0.00205685,-2.06068,-0.120673,-0.488925,164.703,0.236528,
2,0,0,1,0,38629.6,0.22604,0.225706,-10.2912,20,0.0162717,10,-0.00232277,-1.98754,-0.178165,-0.331154,132.424,0.225706,
2,0,0,1,0,38629.6,0.215245,0.214948,-11.5955,20,0.0160742,10,-0.00249243,-1.93571,-0.235429,-0.250607,113.266,0.2149478,
2,0,0,1,0,38629.7,0.204447,0.204119,-12.7369,20,0.0158548,10,-0.00259984,-1.89494,-0.29958,-0.196942,97.79,0.204119,
2,0,0,1,0,38629.7,0.19364,0.193335,-13.7543,20,0.0156161,10,-0.00265917,-1.86156,-0.349727,-0.168703,90.474,0.193335,
2,0,0,1,0,38629.7,0.182842,0.182533,-14.6942,20,0.01536,10,-0.00268218,-1.83285,-0.388934,-0.151697,86.9603,0.182533,
2,0,0,1,0,38629.7,0.172047,0.171716,-15.6391,20,0.0150869,10,-0.00268549,-1.80579,-0.405941,-0.145341,88.7379,0.171716,
2,0,0,1,0,38629.7,0.161241,0.160932,-16.6654,20,0.0147964,10,-0.002682,-1.77818,-0.38454,-0.15343,99.8118,0.160932,
2,0,0,1,0,38629.7,0.150443,0.150113,-17.8744,20,0.014486,10,-0.00268319,-1.74777,-0.3212,-0.183686,128.251,0.150113,
2,0,0,1,0,38629.8,0.139645,0.139352,-19.4856,20,0.0141503,10,-0.00271537,-1.71029,-0.253856,-0.232416,177.257,0.139352,
2,0,0,1,0,38629.8,0.128849,0.128562,-21.7212,20,0.0137802,10,-0.00279252,-1.66312,-0.206125,-0.286234,243.395,0.128562,
2,0,0,1,0,38629.8,0.118043,0.117755,-24.6794,20,0.0133631,10,-0.00290612,-1.60767,-0.191421,-0.308221,297.056,0.117755,
2,0,0,1,0,38629.8,0.107245,0.106973,-28.0062,20,0.0128886,10,-0.00299591,-1.55275,-0.206298,-0.285994,312.505,0.106973,
2,0,0,1,0,38629.8,0.0964468,0.0961844,-31.2614,20,0.0123541,10,-0.00300685,-1.50499,-0.247054,-0.238814,291.466,0.09618438,
2,0,0,1,0,38629.9,0.0856404,0.0853523,-34.3148,20,0.0117629,10,-0.00292885,-1.46452,-0.30616,-0.19271,257.615,0.0853523,
2,0,0,1,0,38629.9,0.0748451,0.074638,-36.8249,20,0.0111215,10,-0.00274854,-1.43386,-0.411863,-0.143251,205.507,0.074638,
2,0,0,1,0,38629.9,0.0640471,0.0638091,-38.7829,20,0.0104401,10,-0.0024747,-1.41136,-0.581111,-0.10153,153.391,0.0638091,
2,0,0,1,0,38629.9,0.0532407,0.0529272,-40.1407,20,0.00972882,10,-0.00212454,-1.39641,-0.95436,-0.0618215,96.6669,0.0529272,
2,0,0,1,0,38629.9,0.0424426,0.0421652,-40.92,20,0.00899859,10,-0.0017254,-1.38806,-1.72927,-0.0341184,54.4349,0.04216516,
2,0,0,1,0,38629.9,0.0316473,0.0313267,-41.3187,20,0.00825785,10,-0.00129438,-1.38385,-4.27662,-0.0137959,22.2323,0.0313267,
2,0,0,1,0,38630,0.0208437,0.020518,-41.4163,20,0.00751287,10,-0.00084978,-1.38283,39.8229,0.00148156,-2.39373,0.020518,
2,0,0,1,0,38630,0.0100429,0.00970082,-41.2833,20,0.00676823,10,-0.000400482,-1.38423,4.03786,0.0146117,-23.5273,0.009700818,
2,0,0,1,0,38630,-0.000755207,-0.00115774,-40.9579,20,0.00602783,10,4.74187e-05,-1.38766,2.23646,0.026381,-42.1275,-0.00115774,
2,0,0,1,0,38630,-0.0115505,-0.0119283,-40.3314,20,0.0052959,10,0.000481085,-1.39436,1.34746,0.0437861,-68.8906,-0.0119283,
2,0,0,1,0,38630,-0.0223597,-0.0227275,-39.4842,20,0.00457733,10,0.000897377,-1.40358,1.03844,0.056816,-87.5092,-0.0227275,
2,0,0,1,0,38630.1,-0.033155,-0.0335065,-38.4966,20,0.00387545,10,0.00128989,-1.41458,0.983789,0.0599722,-90.1238,-0.0335065,
2,0,0,1,0,38630.1,-0.043953,-0.0443375,-37.5375,20,0.00319134,10,0.00166432,-1.42553,1.01326,0.0582276,-85.3423,-0.0443375,
2,0,0,1,0,38630.1,-0.0547594,-0.0551462,-36.7349,20,0.00252336,10,0.00202579,-1.43492,1.27303,0.0463463,-66.4532,-0.0551462,
2,0,0,1,0,38630.1,-0.0655575,-0.0659327,-36.1275,20,0.00186807,10,0.00238199,-1.44216,1.94938,0.030266,-42.7016,-0.0659327,
2,0,0,1,0,38630.1,-0.0763528,-0.0767202,-35.7722,20,0.00122133,10,0.00274445,-1.44645,3.80957,0.0154873,-21.634,-0.07672023,
2,0,0,1,0,38630.1,-0.0871592,-0.08753,-35.6559,20,0.000578902,10,0.00312096,-1.44787,32.9025,0.00179317,-2.49619,-0.08753,
2,0,0,1,0,38630.2,-0.0979573,-0.098308,-35.7341,20,-6.32377e-05,10,0.00351295,-1.44692,-12.7788,-0.00461701,6.42974,-0.098308,
2,0,0,1,1,38630.2,-0.0955546,-0.096008,-27.4152,20,-0.00042122,10,0.00263208,-1.56201,-0.0411379,-1.4342,1559.66,-0.096008,
2,0,0,1,1,38630.2,-0.0847538,-0.0851971,-15.3852,20,-0.000796823,10,0.00131077,-1.8129,-0.0388906,-1.51708,906.109,-0.0851971,
2,0,0,1,1,38630.2,-0.0739557,-0.0743672,-7.0073,20,-0.000993944,10,0.000521113,-2.15445,-0.0226818,-2.6012,676.241,-0.0743672,
2,0,0,1,1,38630.2,-0.0631604,-0.0635839,-0.542355,20,-0.0010589,10,3.4485e-05,-3.26572,-0.0418769,-1.40889,535.589,-0.0635839,
2,1,0,1,1,38630.2,-0.0523512,-0.0527868,4.65615,20,-0.00101969,10,-0.000245783,-2.33197,0.0222828,2.64778,436.43,-0.0527868,
2,1,0,1,1,38630.3,-0.0415559,-0.0420354,8.91996,20,-0.000895979,10,-0.000374954,-2.04964,0.0559638,1.05425,359.147,-0.0420354,
2,1,0,1,1,38630.3,-0.0307579,-0.0312171,12.4425,20,-0.000702312,10,-0.000388419,-1.90509,0.0954295,0.618257,297.581,-0.0312171,
2,1,0,1,1,38630.3,-0.0199515,-0.0203766,15.3671,20,-0.000450941,10,-0.000313128,-1.81341,0.144505,0.408291,243.234,-0.0203766,
2,1,0,1,1,38630.3,-0.0091534,-0.00952329,17.7387,20,-0.000152281,10,-0.000168931,-1.75108,0.20253,0.291315,200.795,-0.00952329,
2,1,0,0,1,38630.3,-7.54729e-05,-0.000363498,19.3212,20,0.000128467,10,-7.02322e-06,-1.71397, , , ,-0.000363498,