File: Figure_codes/Fig_3-5/rawdata_trumpetplot_data/after 10th/20221101_1-115_003_TrumpetPlot_ParaChange_from10_every3_10_CV_C01_34.csv
mode,ox/red,error,control changes,counter inc.,time/s,control/V,Ewe/V,<I>/mA,cycle number,(Q-Qo)/C,I Range,P/W,log(|I|),Tafel slope mV/dec,alpha_eff,dI/d(E-IR),E-IR/V,
2,1,0,0,0,68175,-2.44065e-05,-0.000306236,5.15741,35,0.0000000E+000,10,-1.57939e-06,-2.28757, , , ,-0.000306236,
2,1,0,1,0,68175,0.00977853,0.00946127,7.40039,35,0.000317745,10,7.0017e-05,-2.13075,0.122054,0.483394,139.26,0.00946127,
2,1,0,1,0,68175.1,0.0197755,0.019424,8.45711,35,0.000716633,10,0.000164271,-2.07278,0.23586,0.250148,82.529,0.019424,
2,1,0,1,0,68175.1,0.0297726,0.0294691,9.16922,35,0.00115847,10,0.000270209,-2.03767,0.351784,0.167717,60.0196,0.0294691,
2,1,0,1,0,68175.2,0.0397514,0.0394312,9.74604,35,0.00163076,10,0.000384298,-2.01117,0.387551,0.152238,57.8806,0.0394312,
2,1,0,1,0,68175.2,0.0497393,0.0494214,10.3065,35,0.00213085,10,0.000509364,-1.98689,0.429725,0.137297,55.1661,0.04942143,
2,1,0,1,0,68175.3,0.0597364,0.0593685,10.8589,35,0.00265964,10,0.000644676,-1.96421,0.428986,0.137534,58.2318,0.0593685,
2,1,0,1,0,68175.3,0.0697152,0.0694006,11.4244,35,0.00321582,10,0.000792862,-1.94217,0.455535,0.129518,57.8294,0.0694006,
2,1,0,1,0,68175.4,0.0796941,0.0793382,12.0311,35,0.0038013,10,0.000954529,-1.91969,0.491522,0.120035,56.3054,0.0793382,
2,1,0,1,0,68175.4,0.0896911,0.0893651,12.5681,35,0.00441665,10,0.00112315,-1.90073,0.539619,0.109336,53.7,0.0893651,
2,1,0,1,0,68175.5,0.099679,0.0993765,13.1316,35,0.00505799,10,0.00130497,-1.88168,0.563081,0.104781,53.6296,0.0993765,
2,1,0,1,0,68175.5,0.109658,0.109325,13.6889,35,0.00572654,10,0.00149655,-1.86363,0.488571,0.12076,64.5657,0.109325,
2,1,0,1,0,68175.6,0.119655,0.119327,14.427,35,0.00642878,10,0.00172153,-1.84082,0.413279,0.142761,80.3542,0.119327,
2,1,0,1,0,68175.6,0.129652,0.129349,15.2795,35,0.00717135,10,0.00197638,-1.81589,0.401319,0.147015,87.6981,0.129349,
2,1,0,1,0,68175.7,0.139631,0.139311,16.1058,35,0.00795524,10,0.00224371,-1.79302,0.503016,0.117293,73.6924,0.139311,
2,1,0,1,0,68175.7,0.149619,0.149252,16.7378,35,0.00877579,10,0.00249816,-1.7763,0.784264,0.0752298,49.1297,0.149252,
2,1,0,1,0,68175.8,0.159616,0.159279,16.971,35,0.00962102,10,0.00270312,-1.77029,-3.25313,-0.0181364,-11.9996,0.159279,
2,1,0,1,0,68175.8,0.169595,0.169285,16.4464,35,0.0104582,10,0.00278412,-1.78393,-0.389421,-0.151507,-97.1319,0.169285,
2,1,0,1,0,68175.9,0.179573,0.179279,15.0803,35,0.0112474,10,0.00270359,-1.82159,-0.21127,-0.279263,-164.255,0.1792794,
2,1,0,1,0,68175.9,0.18957,0.189318,13.3413,35,0.0119582,10,0.00252575,-1.8748,-0.180646,-0.326605,-170.202,0.189318,
2,1,0,1,0,68176,0.199558,0.199278,11.8194,35,0.0125844,10,0.00235534,-1.92741,-0.204361,-0.288705,-133.041,0.199278,
2,1,0,1,0,68176,0.209537,0.209215,10.6471,35,0.013143,10,0.00222754,-1.97277,-0.235894,-0.250113,-104.018,0.209215,
2,1,0,1,0,68176.1,0.219534,0.219187,9.79926,35,0.0136527,10,0.00214787,-2.00881,-0.3144,-0.187659,-71.7046,0.219187,
2,1,0,1,0,68176.1,0.229531,0.229241,9.1602,35,0.014126,10,0.0020999,-2.03809,-0.38381,-0.153722,-55.0398,0.229241,
2,1,0,1,0,68176.1,0.23951,0.239185,8.69982,35,0.0145711,10,0.00208086,-2.06049,-0.499162,-0.118198,-40.1284,0.239185,
2,1,0,1,0,68176.2,0.249498,0.249247,8.33596,35,0.0149957,10,0.00207771,-2.07904,-0.611243,-0.0965246,-31.4112,0.249247,
2,1,0,1,0,68176.2,0.259495,0.259235,8.05514,35,0.0154051,10,0.00208818,-2.09393,-0.660874,-0.0892757,-28.0345,0.259235,
2,1,0,1,0,68176.3,0.269474,0.26919,7.81498,35,0.0158008,10,0.00210371,-2.10707,-0.86188,-0.068455,-20.9095,0.26919,
2,1,0,1,0,68176.3,0.279453,0.279166,7.63016,35,0.016186,10,0.00213008,-2.11747,-0.945792,-0.0623816,-18.5608,0.279166,
2,1,0,1,0,68176.4,0.28945,0.289153,7.45354,35,0.016563,10,0.00215521,-2.12764,-1.23064,-0.0479424,-13.9566,0.289153,
2,1,0,1,0,68176.4,0.299438,0.299159,7.31676,35,0.0169314,10,0.00218887,-2.13568,-0.0723792,-0.815151,-224.826,0.2991586,
2,1,0,1,0,68176.5,0.291747,0.291433,1.4179,35,0.0171038,10,0.000413224,-2.84835,0.00793138,7.43881,389.455,0.291433,
2,0,0,1,0,68176.5,0.28175,0.281426,-1.18175,35,0.0171007,10,-0.000332574,-2.92748,-0.0147744,-3.9934,175.516,0.281426,
2,0,0,1,0,68176.6,0.27178,0.271453,-2.49992,35,0.0170057,10,-0.000678612,-2.60207,-0.0557034,-1.05918,102.633,0.271453,
2,0,0,1,0,68176.6,0.261783,0.261486,-3.30812,35,0.0168591,10,-0.000865026,-2.48042,-0.117561,-0.501867,64.632,0.261486,
2,0,0,1,0,68176.7,0.251786,0.251502,-3.86677,35,0.016679,10,-0.000972502,-2.41265,-0.181923,-0.324313,48.8806,0.251502,
2,0,0,1,0,68176.7,0.241807,0.241459,-4.29228,35,0.0164749,10,-0.00103641,-2.36731,-0.245293,-0.240528,40.341,0.241459,
2,0,0,1,0,68176.8,0.231824,0.231481,-4.65215,35,0.0162516,10,-0.00107688,-2.33235,-0.306269,-0.192641,34.8971,0.231481,
2,0,0,1,0,68176.8,0.221822,0.221505,-4.94461,35,0.0160115,10,-0.00109526,-2.30587,-0.395347,-0.149236,28.7863,0.221505,
2,0,0,1,0,68176.9,0.211843,0.211561,-5.22151,35,0.0157578,10,-0.00110467,-2.2822,-0.481811,-0.122455,24.925,0.211561,
2,0,0,1,0,68176.9,0.201865,0.20152,-5.46567,35,0.015491,10,-0.00110144,-2.26236,-0.518113,-0.113875,24.3316,0.20152,
2,0,0,1,0,68177,0.191868,0.191525,-5.72544,35,0.015211,10,-0.00109656,-2.24219,-0.490282,-0.120339,26.8817,0.191525,
2,0,0,1,0,68177,0.18188,0.181565,-5.99036,35,0.014919,10,-0.00108764,-2.22255,-0.46231,-0.12762,29.7864,0.181565,
2,0,0,1,0,68177.1,0.171901,0.17156,-6.27648,35,0.0146133,10,-0.00107679,-2.20228,-0.464304,-0.127072,31.0785,0.1715603,
2,0,0,1,0,68177.1,0.161904,0.161573,-6.61389,35,0.0142915,10,-0.00106863,-2.17954,-0.38673,-0.152561,39.4053,0.161573,
2,0,0,1,0,68177.2,0.151907,0.151611,-7.08175,35,0.0139497,10,-0.00107367,-2.14986,-0.297427,-0.198368,54.8696,0.151611,
2,0,0,1,0,68177.2,0.141928,0.141606,-7.81181,35,0.0135794,10,-0.0011062,-2.10725,-0.189872,-0.310736,94.882,0.141606,
2,0,0,1,0,68177.3,0.13194,0.131624,-9.00232,35,0.0131621,10,-0.00118493,-2.04565,-0.143823,-0.410225,144.126,0.131624,
2,0,0,1,0,68177.3,0.121943,0.121637,-10.6174,35,0.0126729,10,-0.00129147,-1.97398,-0.144245,-0.409026,169.431,0.121637,
2,0,0,1,0,68177.4,0.111964,0.111697,-12.3016,35,0.0121005,10,-0.00137404,-1.91004,-0.175958,-0.335308,160.896,0.111697,
2,0,0,1,0,68177.4,0.101985,0.101689,-13.7826,35,0.0114482,10,-0.00140154,-1.86067,-0.23875,-0.24712,132.855,0.101689,
2,0,0,1,0,68177.5,0.0919883,0.0916851,-14.9326,35,0.0107283,10,-0.0013691,-1.82586,-0.355985,-0.165737,96.548,0.0916851,
2,0,0,1,0,68177.5,0.0820004,0.0816897,-15.6201,35,0.00996358,10,-0.001276,-1.80632,-0.860556,-0.0685603,41.7555,0.0816897,
2,0,0,1,0,68177.6,0.0720215,0.0717024,-15.8129,35,0.00917777,10,-0.00113382,-1.80099,-36.0159,-0.00163817,1.01066,0.0717024,
2,0,0,1,0,68177.6,0.0620245,0.0616989,-15.7031,35,0.00838907,10,-0.000968865,-1.80401,2.07582,0.0284225,-17.4158,0.0616989,
2,0,0,1,0,68177.7,0.0520275,0.0516772,-15.5093,35,0.00760878,10,-0.000801478,-1.80941,1.48986,0.039601,-23.9527,0.0516772,
2,0,0,1,0,68177.7,0.0420486,0.041763,-15.2699,35,0.00684084,10,-0.000637718,-1.81616,1.56416,0.0377199,-22.4878,0.041763,
2,0,0,1,0,68177.8,0.0320607,0.03175,-14.9895,35,0.00608555,10,-0.000475916,-1.82421,1.08741,0.0542571,-31.7268,0.03175,
2,0,0,1,0,68177.8,0.0220637,0.0217604,-14.6208,35,0.0053449,10,-0.000318154,-1.83503,0.850509,0.0693702,-39.5783,0.0217604,
2,0,0,1,0,68177.9,0.0120848,0.0117784,-14.1524,35,0.00462662,10,-0.000166693,-1.84917,0.607731,0.0970824,-53.622,0.0117784,
2,0,0,1,0,68177.9,0.00210598,0.0017578,-13.6553,35,0.00393381,10,-2.40032e-05,-1.8647,0.671376,0.0878792,-46.7306,0.0017578,
2,0,0,1,0,68178,-0.00789103,-0.00823789,-13.1138,35,0.00326511,10,0.00010803,-1.88227,0.676868,0.0871662,-44.6365,-0.00823789,
2,0,0,1,0,68178,-0.017879,-0.0182531,-12.7404,35,0.00262055,10,0.000232551,-1.89482,0.968881,0.060895,-30.2658,-0.0182531,
2,0,0,1,0,68178.1,-0.0278578,-0.0282596,-12.4931,35,0.00199184,10,0.000353051,-1.90333,1.63716,0.036038,-17.5782,-0.0282596,
2,0,0,1,0,68178.1,-0.0378548,-0.0382406,-12.4,35,0.0013701,10,0.000474183,-1.90658,7.01449,0.00841115,-4.06862,-0.0382406,
2,0,0,1,0,68178.2,-0.0478519,-0.0481903,-12.4269,35,0.000749812,10,0.000598854,-1.90564,-2.01467,-0.0292851,14.2132,-0.0481903,
2,0,0,1,0,68178.2,-0.0578126,-0.0581955,-12.5681,35,0.00012761,10,0.000731405,-1.90073,-1.72898,-0.0341241,16.7408,-0.0581955,
2,0,0,1,0,68178.3,-0.0678187,-0.0681764,-12.7972,35,-0.000506109,10,0.00087247,-1.89288,-1.08795,-0.0542305,27.078,-0.0681764,
2,0,0,1,0,68178.3,-0.0778157,-0.0782094,-13.0968,35,-0.00115336,10,0.0010243,-1.88283,-0.908382,-0.0649507,33.2255,-0.0782094,
2,0,0,1,0,68178.4,-0.0877945,-0.0881541,-13.5051,35,-0.00181687,10,0.00119053,-1.8695,-0.711115,-0.0829683,43.7261,-0.0881541,
2,0,0,1,0,68178.4,-0.0977734,-0.0981539,-13.9848,35,-0.0025025,10,0.00137266,-1.85435,-0.6007,-0.0982188,53.6209,-0.0981539,
2,0,0,1,1,68178.5,-0.0936874,-0.0940807,-7.36118,35,-0.00297812,10,0.000692545,-2.13305,-0.0236743,-2.49216,717.665,-0.0940807,
2,0,0,1,1,68178.5,-0.0837086,-0.0840744,-1.95529,35,-0.00319841,10,0.00016439,-2.70879,-0.0100253,-5.88512,426.096,-0.08407443,
2,1,0,1,1,68178.6,-0.0737025,-0.0740701,1.58271,35,-0.00320186,10,-0.000117231,-2.8006,0.0115581,5.10466,294.011,-0.0740701,
2,1,0,1,1,68178.6,-0.0637236,-0.0641581,4.07562,35,-0.00305706,10,-0.000261484,-2.38981,0.0439877,1.34128,212.407,-0.0641581,
2,1,0,1,1,68178.7,-0.0537447,-0.0541221,5.91342,35,-0.0028052,10,-0.000320047,-2.22816,0.0881812,0.669077,153.809,-0.0541221,
2,1,0,1,1,68178.7,-0.0437477,-0.044168,7.23624,35,-0.00247425,10,-0.00031961,-2.14049,0.149047,0.395847,111.826,-0.044168,
2,1,0,1,1,68178.8,-0.0337507,-0.0340891,8.21007,35,-0.00208646,10,-0.000279874,-2.08565,0.236469,0.249504,79.8105,-0.0340891,
2,1,0,1,1,68178.8,-0.0237809,-0.0241654,8.8685,35,-0.00166012,10,-0.000214311,-2.05215,0.368023,0.160316,55.4625,-0.0241654,
2,1,0,1,1,68178.9,-0.0137839,-0.014109,9.31885,35,-0.00120465,10,-0.000131479,-2.03064,0.629713,0.0936935,34.037,-0.014109,
2,1,0,1,1,68178.9,-0.0037869,-0.00414452,9.58634,35,-0.000731448,10,-3.97308e-05,-2.01835,1.0696,0.0551607,20.6416,-0.00414452,
2,1,0,1,1,68179,-2.55332e-05,-0.000401673,9.64589,35,-0.000551476,10,-3.87449e-06,-2.01566, , , ,-0.000401673,