File: Figure_codes/Fig_3-5/rawdata_trumpetplot_data/after 10th/20221101_1-115_003_TrumpetPlot_ParaChange_from10_every3_02_CV_C01_6.csv
mode,ox/red,error,control changes,counter inc.,time/s,control/V,Ewe/V,<I>/mA,cycle number,(Q-Qo)/C,I Range,P/W,log(|I|),Tafel slope mV/dec,alpha_eff,dI/d(E-IR),E-IR/V,
2,0,0,1,0,12160.8,2.44065e-05,-0.000287149,-0.360167,7,0.0000000E+000,10,1.03422e-07,-3.4435, , , ,-0.0002871489,
2,0,0,1,0,12168.1,0.00729061,0.00699466,-0.0931926,7,-0.000904583,10,-6.5185e-07,-4.03062,-0.0301901,-1.95429,7.22656,0.00699466,
2,0,0,1,0,12175.6,0.0147815,0.0144567,-0.0582121,7,-0.00135477,10,-8.41554e-07,-4.23499,-0.0371502,-1.58815,3.58476,0.0144567,
2,0,0,1,0,12183.1,0.0222725,0.0219761,-0.0371035,7,-0.00160424,10,-8.15391e-07,-4.43058,-0.0362799,-1.62625,2.36357,0.0219761,
2,0,0,1,0,12190.6,0.0297635,0.029452,-0.0218923,7,-0.00172182,10,-6.44772e-07,-4.65971,-0.0286454,-2.05967,1.73246,0.029452,
2,0,0,1,0,12198,0.0372544,0.036933,-0.00855682,7,-0.00173127,10,-3.16029e-07,-5.06769,-0.01072,-5.50373,1.6575,0.036933,
2,1,0,1,0,12205.5,0.0447454,0.0444504,0.00316357,7,-0.00164848,10,1.40622e-07,-5.49982,0.00330125,17.872,1.27505,0.0444504,
2,1,0,1,0,12213,0.0522363,0.0519103,0.0127602,7,-0.00148317,10,6.62385e-07,-4.89414,0.0219129,2.69248,1.40074,0.0519103,
2,1,0,1,0,12220.5,0.0597273,0.0594212,0.0227944,7,-0.00124312,10,1.35447e-06,-4.64217,0.0465748,1.26678,1.1193,0.0594212,
2,1,0,1,0,12228,0.0672183,0.0668908,0.0323196,7,-0.00093397,10,2.16188e-06,-4.49053,0.0693784,0.850409,1.04264,0.0668908,
2,1,0,1,0,12235.5,0.0747092,0.0744058,0.0384801,7,-0.000565305,10,2.86314e-06,-4.41476,0.0948114,0.622288,0.94669,0.0744058,
2,1,0,1,0,12243,0.0822001,0.0818805,0.0461416,7,-0.000139107,10,3.7781e-06,-4.33591,0.106398,0.55452,1.00777,0.0818805,
2,1,0,1,0,12250.5,0.0896911,0.0893331,0.0545877,7,0.000344971,10,4.87649e-06,-4.26291,0.0973529,0.606043,1.30642,0.0893331,
2,1,0,1,0,12258,0.0971821,0.0968387,0.0662736,7,0.000904996,10,6.41786e-06,-4.17866,0.0888497,0.664043,1.70575,0.0968387,
2,1,0,1,0,12265.5,0.104673,0.104363,0.078933,7,0.00155165,10,8.23771e-06,-4.10274,0.113439,0.520105,1.58581,0.104363,
2,1,0,1,0,12273,0.112164,0.111848,0.0891547,7,0.00228727,10,9.97175e-06,-4.04986,0.217991,0.270654,0.940437,0.111848,
2,1,0,1,0,12280.4,0.119655,0.119329,0.0984003,7,0.003098,10,1.1742e-05,-4.007,0.173126,0.340793,1.31409,0.1193288,
2,1,0,1,0,12287.9,0.127146,0.126865,0.107805,7,0.00398444,10,1.36767e-05,-3.96736,0.230392,0.256085,1.07841,0.126865,
2,1,0,1,0,12295.4,0.134637,0.134301,0.110627,7,0.0049261,10,1.48573e-05,-3.95614,-0.330596,-0.178466,-0.768555,0.134301,
2,1,0,1,0,12302.9,0.142128,0.141825,0.0964681,7,0.00581929,10,1.36816e-05,-4.01562,-0.0798375,-0.739002,-2.75525,0.141825,
2,1,0,1,0,12310.4,0.149619,0.149303,0.0734467,7,0.00655521,10,1.09658e-05,-4.13403,-0.070055,-0.842196,-2.42818,0.149303,
2,1,0,1,0,12317.9,0.15711,0.15681,0.0610372,7,0.00715431,10,9.57125e-06,-4.21441,-0.102079,-0.577985,-1.37485,0.15681,
2,1,0,1,0,12325.4,0.164601,0.164251,0.0546334,7,0.00768467,10,8.97358e-06,-4.26254,-0.178843,-0.329898,-0.703125,0.164251,
2,1,0,1,0,12332.9,0.172091,0.171784,0.0518541,7,0.00817958,10,8.9077e-06,-4.28522,-0.431361,-0.136776,-0.275989,0.171784,
2,1,0,1,0,12340.4,0.179582,0.179292,0.0506178,7,0.00865895,10,9.07535e-06,-4.2957,-0.529229,-0.111483,-0.220331,0.179292,
2,1,0,1,0,12347.9,0.187073,0.186794,0.0504142,7,0.00913172,10,9.41707e-06,-4.29745,-3.85949,-0.015287,-0.0298169,0.186794,
2,1,0,1,0,12355.4,0.194564,0.19428,0.0500951,7,0.00960249,10,9.7325e-06,-4.3002,-54.4771,-0.00108302,-0.00212243,0.19428,
2,1,0,1,0,12362.8,0.202055,0.201736,0.0506982,7,0.0100739,10,1.02277e-05,-4.29501,2.02168,0.0291837,0.0576625,0.201736,
2,1,0,1,0,12370.3,0.209546,0.209247,0.0510187,7,0.0105475,10,1.06755e-05,-4.29227,2.81893,0.0209299,0.0416694,0.209247,
2,1,0,1,0,12377.8,0.217037,0.216684,0.0518097,7,0.0110241,10,1.12263e-05,-4.28559,1.57891,0.0373676,0.0757882,0.216684,
2,1,0,1,0,12385.3,0.224528,0.224235,0.052293,7,0.0115071,10,1.17259e-05,-4.28156,6.58966,0.00895342,0.0181625,0.224235,
2,1,0,1,0,12392.8,0.232019,0.231705,0.0531053,7,0.0119946,10,1.23048e-05,-4.27486,0.708121,0.0833191,0.173593,0.2317054,
2,1,0,1,0,12400.3,0.23951,0.239209,0.0537055,7,0.0124881,10,1.28468e-05,-4.26998,1.0077,0.058549,0.123256,0.239209,
2,1,0,1,0,12407.8,0.247001,0.246722,0.0551592,7,0.012988,10,1.3609e-05,-4.25838,0.640377,0.0921333,0.19757,0.246722,
2,1,0,1,0,12415.3,0.254492,0.254216,0.05609,7,0.0134966,10,1.4259e-05,-4.25111,2.90797,0.0202891,0.0449112,0.254216,
2,1,0,1,0,12422.8,0.261983,0.261679,0.0571391,7,0.0140122,10,1.49521e-05,-4.24307,4.03269,0.0146304,0.0328011,0.261679,
2,1,0,1,0,12430.3,0.269474,0.269124,0.0580808,7,0.0145346,10,1.56309e-05,-4.23597,0.476752,0.123754,0.280932,0.269124,
2,1,0,1,0,12437.8,0.276965,0.276678,0.059212,7,0.0150639,10,1.63827e-05,-4.22759,-5.18029,-0.0113893,-0.0261669,0.276678,
2,1,0,1,0,12445.2,0.284456,0.284116,0.0596589,7,0.0155966,10,1.695e-05,-4.22432,0.632272,0.0933143,0.218306,0.284116,
2,1,0,1,0,12452.7,0.291947,0.291618,0.0609025,7,0.016136,10,1.77603e-05,-4.21537,2.81401,0.0209665,0.0501515,0.291618,
2,1,0,1,0,12460.2,0.299438,0.299149,0.0610652,7,0.0166796,10,1.82676e-05,-4.21421,-0.00515233,-11.4511,-18.8393,0.2991493,
2,1,0,1,0,12467.1,0.293745,0.293428,0.0121233,7,0.0167724,10,3.55733e-06,-4.91638,0.0180675,3.26553,1.56756,0.293428,
2,1,0,1,0,12474.6,0.286254,0.285974,0.00404708,7,0.0167445,10,1.15736e-06,-5.39286,0.0100627,5.86325,0.852034,0.285974,
2,0,0,1,0,12482,0.278763,0.27847,-0.00214987,7,0.0166651,10,-5.98676e-07,-5.66759,-0.00557923,-10.5749,0.70668,0.2784704,
2,0,0,1,0,12489.5,0.271272,0.27095,-0.00682416,7,0.0165449,10,-1.84901e-06,-5.16595,-0.0284951,-2.07053,0.527689,0.27095,
2,0,0,1,0,12497,0.263781,0.263487,-0.0101834,7,0.0163937,10,-2.68318e-06,-4.99211,-0.0428772,-1.37602,0.57192,0.2634868,
2,0,0,1,0,12504.5,0.25629,0.255965,-0.0134881,7,0.0162141,10,-3.45248e-06,-4.87005,-0.0695819,-0.847922,0.454697,0.255965,
2,0,0,1,0,12512,0.248799,0.248484,-0.0179509,7,0.0160089,10,-4.4605e-06,-4.74591,-0.0756819,-0.779579,0.530817,0.248484,
2,0,0,1,0,12519.5,0.241308,0.240979,-0.0207719,7,0.0157773,10,-5.0056e-06,-4.68252,-0.137534,-0.428985,0.347299,0.240979,
2,0,0,1,0,12527,0.233817,0.233514,-0.0231149,7,0.015525,10,-5.39766e-06,-4.63611,-0.140115,-0.421083,0.378756,0.233514,
2,0,0,1,0,12534.5,0.226326,0.226019,-0.0258669,7,0.015251,10,-5.84641e-06,-4.58726,-0.189648,-0.311103,0.319487,0.226019,
2,0,0,1,0,12542,0.218835,0.218574,-0.0292309,7,0.0149549,10,-6.38912e-06,-4.53416,-0.193777,-0.304473,0.344038,0.218574,
2,0,0,1,0,12549.5,0.211344,0.21104,-0.031528,7,0.0146372,10,-6.65368e-06,-4.5013,-0.234478,-0.251623,0.313571,0.21104,
2,0,0,1,0,12557,0.203853,0.203509,-0.0347616,7,0.0142981,10,-7.0743e-06,-4.4589,-0.240893,-0.244922,0.332207,0.203509,
2,0,0,1,0,12564.5,0.196362,0.196031,-0.0382387,7,0.0139361,10,-7.49597e-06,-4.4175,-0.188984,-0.312196,0.459347,0.196031,
2,0,0,1,0,12571.9,0.188871,0.188527,-0.0412614,7,0.0135472,10,-7.77888e-06,-4.38446,-0.152254,-0.387511,0.628014,0.188527,
2,0,0,1,0,12579.4,0.18138,0.181085,-0.0453363,7,0.0131287,10,-8.20971e-06,-4.34355,-0.175421,-0.336333,0.593069,0.181085,
2,0,0,1,0,12586.9,0.173889,0.173546,-0.0498867,7,0.0126777,10,-8.65766e-06,-4.30202,-0.178809,-0.32996,0.640832,0.173546,
2,0,0,1,0,12594.4,0.166398,0.166038,-0.0554662,7,0.0121858,10,-9.20947e-06,-4.25597,-0.13435,-0.439153,0.964344,0.166038,
2,0,0,1,0,12601.9,0.158907,0.158605,-0.0644386,7,0.0116354,10,-1.02203e-05,-4.19085,-0.10171,-0.58008,1.47617,0.158605,
2,0,0,1,0,12609.4,0.151417,0.151089,-0.0791545,7,0.0109976,10,-1.19594e-05,-4.10152,-0.081838,-0.720936,2.22377,0.1510891,
2,0,0,1,0,12616.9,0.143926,0.143631,-0.100157,7,0.0102283,10,-1.43857e-05,-3.99932,-0.0612282,-0.963609,3.75699,0.143631,
2,0,0,1,0,12624.4,0.136435,0.136129,-0.12852,7,0.00926389,10,-1.74952e-05,-3.89103,-0.0840948,-0.70159,3.50119,0.136129,
2,0,0,1,0,12631.9,0.128944,0.128643,-0.149371,7,0.00810799,10,-1.92156e-05,-3.82573,-0.22543,-0.261722,1.51409,0.128643,
2,0,0,1,0,12639.4,0.121453,0.121152,-0.1553,7,0.00685387,10,-1.88148e-05,-3.80883,4.6338,0.0127325,-0.0766125,0.121152,
2,0,0,1,0,12646.9,0.113962,0.113622,-0.151791,7,0.00559321,10,-1.72468e-05,-3.81875,0.558501,0.10564,-0.628788,0.113622,
2,0,0,1,0,12654.3,0.106471,0.106148,-0.148864,7,0.00435702,10,-1.58016e-05,-3.82721,0.891622,0.0661716,-0.385057,0.106148,
2,0,0,1,0,12661.8,0.0989798,0.0986541,-0.142928,7,0.0031566,10,-1.41004e-05,-3.84488,0.415192,0.142103,-0.790235,0.0986541,
2,0,0,1,0,12669.3,0.0914889,0.0911601,-0.136152,7,0.00200582,10,-1.24116e-05,-3.86598,0.384249,0.153546,-0.818336,0.0911601,
2,0,0,1,0,12676.8,0.083998,0.0836929,-0.130168,7,0.000906146,10,-1.08942e-05,-3.88549,0.377838,0.156151,-0.789485,0.0836929,
2,0,0,1,0,12684.3,0.076507,0.076201,-0.125809,7,-0.000153463,10,-9.58675e-06,-3.90029,0.891588,0.0661741,-0.32401,0.076201,
2,0,0,1,0,12691.8,0.069016,0.0686976,-0.121178,7,-0.00118244,10,-8.32464e-06,-3.91658,0.909102,0.0648992,-0.308844,0.0686976,
2,0,0,1,0,12699.3,0.0615251,0.0612132,-0.118758,7,-0.00218755,10,-7.26958e-06,-3.92534,0.679091,0.0868808,-0.402682,0.0612132,
2,0,0,1,0,12706.8,0.0540342,0.0537237,-0.116084,7,-0.00316937,10,-6.23644e-06,-3.93523,0.634803,0.0929423,-0.42082,0.0537237,
2,0,0,1,0,12714.3,0.0465432,0.0462573,-0.112273,7,-0.00412894,10,-5.19347e-06,-3.94972,0.509193,0.11587,-0.511479,0.0462573,
2,0,0,1,0,12721.8,0.0390522,0.0386891,-0.110366,7,-0.00506625,10,-4.26995e-06,-3.95717,0.511831,0.115272,-0.495354,0.0386891,
2,0,0,1,0,12729.3,0.0315613,0.031243,-0.107051,7,-0.00598275,10,-3.3446e-06,-3.97041,0.489668,0.12049,-0.505658,0.031243,
2,0,0,1,0,12736.7,0.0240703,0.0237639,-0.104826,7,-0.0068777,10,-2.49107e-06,-3.97953,-5.33956,-0.0110496,0.0454064,0.0237639,
2,0,0,1,0,12744.2,0.0165794,0.0162807,-0.104605,7,-0.00776266,10,-1.70305e-06,-3.98045,3.74273,0.0157639,-0.0641783,0.0162807,
2,0,0,1,0,12751.7,0.00908843,0.00878779,-0.105047,7,-0.00864711,10,-9.2313e-07,-3.97862,-1.21448,-0.0485806,0.199705,0.008787795,
2,0,0,1,0,12759.2,0.00159744,0.00121326,-0.108532,7,-0.00954658,10,-1.31677e-07,-3.96444, , , ,0.001213257,
2,0,0,1,0,12760.6,0.000199235,-0.0001821,-0.108793,7,-0.00971677,10,1.98111e-08,-3.9634, , , ,-0.0001821,