File: Figure_codes/Fig_3-5/rawdata_trumpetplot_data/after 10th/20221101_1-115_003_TrumpetPlot_ParaChange_from10_every3_09_CV_C01_13.csv
mode,ox/red,error,control changes,counter inc.,time/s,control/V,Ewe/V,<I>/mA,cycle number,(Q-Qo)/C,I Range,P/W,log(|I|),Tafel slope mV/dec,alpha_eff,dI/d(E-IR),E-IR/V,
2,0,0,0,0,26794.2,2.44065e-05,-0.000363498,-5.32185,14,0.0000000E+000,10,1.93448e-06,-2.27394, , , ,-0.000363498,
2,1,0,1,0,26794.3,0.00978761,0.00941702,1.73917,14,-6.44451e-05,10,1.63778e-05,-2.75966,0.0131302,4.49346,280.011,0.00941702,
2,1,0,1,0,26794.4,0.0197755,0.0194686,3.41821,14,0.00020731,10,6.6548e-05,-2.4662,0.0768859,0.767371,101.822,0.0194686,
2,1,0,1,0,26794.5,0.0297635,0.0294591,4.22147,14,0.00059211,10,0.000124361,-2.37454,0.150851,0.391114,64.3112,0.0294591,
2,1,0,1,0,26794.6,0.0397514,0.0394211,4.81733,14,0.00104456,10,0.000189905,-2.31719,0.178992,0.329623,62.0419,0.0394211,
2,1,0,1,0,26794.7,0.0497484,0.0494167,5.37847,14,0.00155449,10,0.000265786,-2.26934,0.22751,0.25933,54.3284,0.0494167,
2,1,0,1,0,26794.8,0.0597273,0.0594332,5.89273,14,0.00211712,10,0.000350224,-2.22968,0.270432,0.218169,50.1048,0.0594332,
2,1,0,1,0,26794.9,0.0697152,0.0694135,6.36328,14,0.00272969,10,0.000441698,-2.19632,0.33921,0.173933,43.2087,0.0694135,
2,1,0,1,0,26795,0.0797031,0.0794024,6.7789,14,0.00338684,10,0.000538261,-2.16884,0.401164,0.147072,38.9027,0.0794024,
2,1,0,1,0,26795.1,0.0896911,0.0893506,7.13224,14,0.00408259,10,0.00063727,-2.14677,0.457704,0.128904,35.9243,0.0893506,
2,1,0,1,0,26795.2,0.099679,0.0993611,7.55048,14,0.00481428,10,0.000750224,-2.12203,0.340479,0.173285,51.0405,0.0993611,
2,1,0,1,0,26795.3,0.109667,0.109383,8.17144,14,0.00559769,10,0.000893816,-2.0877,0.26151,0.225613,71.9687,0.109383,
2,1,0,1,0,26795.4,0.119655,0.119343,8.97648,14,0.00645412,10,0.00107128,-2.04689,0.273078,0.216055,75.6553,0.119343,
2,1,0,1,0,26795.5,0.129643,0.12933,9.64065,14,0.00738633,10,0.00124683,-2.01589,0.408796,0.144326,54.2781,0.12933,
2,1,0,1,0,26795.6,0.139631,0.139303,10.0784,14,0.00837389,10,0.00140396,-1.99661,0.694166,0.0849941,33.443,0.139303,
2,1,0,1,0,26795.7,0.149619,0.149306,10.1384,14,0.00938896,10,0.00151372,-1.99403,-0.59231,-0.09961,-39.2936,0.149306,
2,1,0,1,0,26795.8,0.159607,0.159264,9.02544,14,0.0103581,10,0.00143743,-2.04453,-0.113537,-0.519653,-182.747,0.159264,
2,1,0,1,0,26795.9,0.169595,0.16928,7.05411,14,0.0111616,10,0.00119412,-2.15156,-0.0875838,-0.673641,-185.557,0.16928,
2,1,0,1,0,26796,0.179582,0.179279,5.62043,14,0.0117878,10,0.00100763,-2.25023,-0.124454,-0.474071,-104.324,0.179279,
2,1,0,1,0,26796.1,0.18957,0.189245,4.87648,14,0.0123083,10,0.000922846,-2.31189,-0.210237,-0.280636,-53.4606,0.189245,
2,1,0,1,0,26796.2,0.199558,0.199218,4.47569,14,0.0127731,10,0.000891636,-2.34914,-0.352074,-0.167578,-29.2724,0.199218,
2,1,0,1,0,26796.3,0.209546,0.209227,4.24808,14,0.0132077,10,0.000888811,-2.37181,-0.446496,-0.13214,-21.9178,0.2092265,
2,1,0,1,0,26796.4,0.219534,0.219227,4.08845,14,0.0136236,10,0.000896301,-2.38844,-0.726417,-0.0812206,-12.9758,0.219227,
2,1,0,1,0,26796.5,0.229522,0.229205,3.98728,14,0.0140272,10,0.000913905,-2.39932,-0.872838,-0.0675956,-10.5232,0.229205,
2,1,0,1,0,26796.6,0.23951,0.239207,3.91872,14,0.0144222,10,0.000937385,-2.40686,-1.93098,-0.0305545,-4.67464,0.239207,
2,1,0,1,0,26796.7,0.249498,0.249179,3.86362,14,0.0148105,10,0.000962734,-2.41301,-1.52957,-0.0385728,-5.81376,0.249179,
2,1,0,1,0,26796.8,0.259486,0.259201,3.81597,14,0.0151941,10,0.000989103,-2.4184,-1.25216,-0.0471187,-7.01265,0.259201,
2,1,0,1,0,26796.9,0.269474,0.26919,3.76733,14,0.0155731,10,0.00101413,-2.42397,-2.30811,-0.025562,-3.76373,0.26919,
2,1,0,1,0,26797,0.279462,0.279119,3.72574,14,0.0159479,10,0.00103992,-2.42879,-1.8334,-0.0321806,-4.68526,0.279119,
2,1,0,1,0,26797.1,0.28945,0.289132,3.68309,14,0.0163183,10,0.0010649,-2.43379,-3.50437,-0.0168361,-2.42117,0.289132,
2,1,0,1,0,26797.2,0.299438,0.299148,3.63946,14,0.0166839,10,0.00108874,-2.43896,-0.0291718,-2.0225,-263.982,0.299148,
2,0,0,1,0,26797.3,0.291747,0.291426,-0.935645,14,0.0167373,10,-0.000272671,-3.02889,-0.0128276,-4.59947,152.2,0.291426,
2,0,0,1,0,26797.4,0.281759,0.281431,-1.70639,14,0.0165979,10,-0.000480232,-2.76792,-0.088636,-0.665644,44.0363,0.281431,
2,0,0,1,0,26797.5,0.271771,0.271472,-2.03612,14,0.0164102,10,-0.000552749,-2.6912,-0.16374,-0.360327,28.5342,0.271472,
2,0,0,1,0,26797.6,0.261783,0.261444,-2.26325,14,0.0161953,10,-0.000591713,-2.64527,-0.293455,-0.201053,17.7509,0.261444,
2,0,0,1,0,26797.7,0.251795,0.25149,-2.43558,14,0.0159606,10,-0.000612522,-2.6134,-0.321288,-0.183636,17.4959,0.25149,
2,0,0,1,0,26797.8,0.241807,0.241498,-2.58705,14,0.0157093,10,-0.000624768,-2.58719,-0.372302,-0.158473,16.0533,0.2414981,
2,0,0,1,0,26797.9,0.231815,0.231458,-2.73773,14,0.0154437,10,-0.000633672,-2.56261,-0.38207,-0.154422,16.4624,0.231458,
2,0,0,1,0,26798,0.221831,0.221514,-2.86507,14,0.0151648,10,-0.000634654,-2.54286,-0.48655,-0.121262,13.5405,0.221514,
2,0,0,1,0,26798.1,0.211843,0.211536,-2.98903,14,0.014873,10,-0.000632288,-2.52447,-0.667674,-0.0883665,10.3016,0.211536,
2,0,0,1,0,26798.2,0.201856,0.201547,-3.11863,14,0.0145681,10,-0.000628552,-2.50604,-0.594236,-0.0992871,12.0949,0.201547,
2,0,0,1,0,26798.3,0.191868,0.191557,-3.26298,14,0.0142498,10,-0.000625047,-2.48639,-0.486627,-0.121243,15.4558,0.191557,
2,0,0,1,0,26798.4,0.18188,0.18159,-3.4335,14,0.0139169,10,-0.000623488,-2.46426,-0.358507,-0.164571,21.9732,0.18159,
2,0,0,1,0,26798.5,0.171892,0.171575,-3.62983,14,0.0135652,10,-0.00062279,-2.44011,-0.364479,-0.161875,22.9646,0.171575,
2,0,0,1,0,26798.6,0.161904,0.1616,-3.93272,14,0.013189,10,-0.000635527,-2.40531,-0.248826,-0.237113,36.3756,0.1616,
2,0,0,1,0,26798.7,0.151916,0.151613,-4.40443,14,0.0127748,10,-0.000667767,-2.35611,-0.159409,-0.370117,63.8592,0.151613,
2,0,0,1,0,26798.8,0.141928,0.1416,-5.28765,14,0.0122953,10,-0.00074873,-2.27674,-0.102162,-0.577511,119.176,0.1416,
2,0,0,1,0,26798.9,0.13194,0.131622,-6.6816,14,0.0117024,10,-0.000879442,-2.17512,-0.0967654,-0.609722,158.976,0.131622,
2,0,0,1,0,26799,0.121952,0.121664,-8.22455,14,0.0109567,10,-0.00100063,-2.08489,-0.138989,-0.424494,136.017,0.121664,
2,0,0,1,0,26799.1,0.111964,0.111651,-9.42977,14,0.0100714,10,-0.00105284,-2.0255,-0.219531,-0.268755,98.7835,0.111651,
2,0,0,1,0,26799.2,0.101976,0.101669,-10.1469,14,0.00908927,10,-0.00103163,-1.99367,-0.588824,-0.1002,39.6197,0.101669,
2,0,0,1,0,26799.3,0.0919883,0.0916486,-10.2585,14,0.00806552,10,-0.00094018,-1.98891,1.50646,0.0391648,-15.6666,0.0916486,
2,0,0,1,0,26799.4,0.0820004,0.0816709,-9.85144,14,0.00705929,10,-0.000804576,-2.0065,0.42479,0.138892,-53.3819,0.08167088,
2,0,0,1,0,26799.5,0.0720124,0.0716595,-9.34284,14,0.00610225,10,-0.000669503,-2.02952,0.478108,0.123403,-44.9918,0.0716595,
2,0,0,1,0,26799.6,0.0620245,0.0616885,-8.96798,14,0.00518934,10,-0.000553221,-2.04731,0.653673,0.0902593,-31.608,0.0616885,
2,0,0,1,0,26799.7,0.0520366,0.0517275,-8.67496,14,0.00430852,10,-0.000448734,-2.06173,0.669078,0.0881811,-29.8368,0.0517275,
2,0,0,1,0,26799.8,0.0420486,0.0417149,-8.36047,14,0.00345743,10,-0.000348756,-2.07777,0.618705,0.0953605,-31.1413,0.0417149,
2,0,0,1,0,26799.9,0.0320607,0.0317463,-8.02338,14,0.0026394,10,-0.000254713,-2.09564,0.469696,0.125613,-39.2992,0.0317463,
2,0,0,1,0,26800,0.0220728,0.021763,-7.59488,14,0.0018593,10,-0.000165288,-2.11948,0.387102,0.152414,-45.167,0.02176304,
2,0,0,1,0,26800.1,0.0120848,0.0117619,-7.15971,14,0.00112306,10,-8.4212e-05,-2.1451,0.376232,0.156818,-43.8249,0.0117619,
2,0,0,1,0,26800.2,0.0020969,0.00170878,-6.86258,14,0.000426646,10,-1.17266e-05,-2.16351,0.78663,0.0750035,-19.9855,0.00170878,
2,0,0,1,0,26800.3,-0.00789103,-0.00823121,-6.62355,14,-0.00024451,10,5.45199e-05,-2.17891,1.33756,0.0441101,-11.4236,-0.00823121,
2,0,0,1,0,26800.4,-0.017879,-0.0182761,-6.60031,14,-0.000902673,10,0.000120628,-2.18044,-3.23021,-0.0182651,4.69807,-0.0182761,
2,0,0,1,0,26800.5,-0.0278669,-0.0282496,-6.66869,14,-0.00156393,10,0.000188388,-2.17596,-1.72417,-0.0342193,8.91947,-0.0282496,
2,0,0,1,0,26800.6,-0.0378548,-0.0382456,-6.84555,14,-0.0022381,10,0.000261812,-2.16459,-0.818148,-0.0721141,19.2551,-0.0382456,
2,0,0,1,0,26800.7,-0.0478428,-0.0482063,-7.08309,14,-0.00293295,10,0.00034145,-2.14978,-0.564732,-0.104474,28.9015,-0.0482063,
2,0,0,1,0,26800.8,-0.0578216,-0.0581929,-7.38389,14,-0.00365423,10,0.00042969,-2.13171,-0.508883,-0.11594,33.4156,-0.0581929,
2,0,0,1,0,26800.9,-0.0678187,-0.068226,-7.76361,14,-0.0044098,10,0.00052968,-2.10994,-0.426362,-0.13838,41.8925,-0.068226,
2,0,0,1,0,26801,-0.0778066,-0.0781751,-8.20305,14,-0.00520613,10,0.000641274,-2.08602,-0.408079,-0.14458,46.3088,-0.0781751,
2,0,0,1,0,26801.1,-0.0877945,-0.0881378,-8.72452,14,-0.00605091,10,0.00076896,-2.05926,-0.359876,-0.163945,55.8212,-0.0881378,
2,0,0,1,0,26801.2,-0.0977825,-0.098147,-9.25245,14,-0.0069492,10,0.0009081,-2.03374,-0.399252,-0.147776,53.4216,-0.098147,
2,0,0,1,1,26801.3,-0.0927386,-0.0930854,-2.18238,14,-0.00751508,10,0.000203147,-2.66107,-0.00867389,-6.80203,556.408,-0.0930854,
2,1,0,1,1,26801.4,-0.0827529,-0.0831648,1.51016,14,-0.00752327,10,-0.000125592,-2.82098,0.0134522,4.3859,242.909,-0.0831648,
2,1,0,1,1,26801.5,-0.0727627,-0.0731244,3.32044,14,-0.00727258,10,-0.000242805,-2.4788,0.0573269,1.02918,132.238,-0.0731244,
2,1,0,1,1,26801.6,-0.0627748,-0.0631339,4.30866,14,-0.00688655,10,-0.000272023,-2.36566,0.129818,0.454482,76.393,-0.06313391,
2,1,0,1,1,26801.7,-0.0527868,-0.0531121,4.8806,14,-0.0064248,10,-0.000259219,-2.31153,0.279598,0.211017,40.0797,-0.0531121,
2,1,0,1,1,26801.8,-0.0427989,-0.0432072,5.18511,14,-0.00592073,10,-0.000224034,-2.28524,0.524551,0.112477,22.7381,-0.0432072,
2,1,0,1,1,26801.9,-0.0328109,-0.0331655,5.33608,14,-0.00539505,10,-0.000176974,-2.27278,1.3055,0.0451936,9.39765,-0.0331655,
2,1,0,1,1,26802,-0.022823,-0.0231977,5.37781,14,-0.00485959,10,-0.000124753,-2.26939,6.45099,0.00914589,1.91879,-0.0231977,
2,1,0,1,1,26802.1,-0.0128351,-0.0132067,5.37159,14,-0.00432236,10,-7.09408e-05,-2.2699,-2.87102,-0.0205502,-4.30905,-0.0132067,
2,1,0,1,1,26802.2,-0.00284713,-0.00322286,5.35766,14,-0.00378646,10,-1.7267e-05,-2.27102,-19.1058,-0.00308806,-0.645245,-0.00322286,
2,1,0,1,1,26802.2,-2.55332e-05,-0.000382585,5.37557,14,-0.00363595,10,-2.05661e-06,-2.26958, , , ,-0.000382585,