File: Figure_codes/Fig_3-5/rawdata_trumpetplot_data/after 10th/20221101_1-115_003_TrumpetPlot_ParaChange_from10_every3_12_CV_C01_7.csv
mode,ox/red,error,control changes,counter inc.,time/s,control/V,Ewe/V,<I>/mA,cycle number,(Q-Qo)/C,I Range,P/W,log(|I|),Tafel slope mV/dec,alpha_eff,dI/d(E-IR),E-IR/V,
2,1,0,1,0,14987.4,2.44065e-05,-0.000344411,18.5777,8,0.0000000E+000,10,-6.39836e-06,-1.73101, , , ,-0.000344411,
2,1,0,1,0,14987.5,0.0104008,0.0100667,22.3216,8,0.000355455,10,0.000224704,-1.65127,0.201343,0.293032,253.624,0.0100667,
2,1,0,1,0,14987.5,0.0212099,0.0208902,24.5752,8,0.000778751,10,0.000513381,-1.6095,0.322372,0.183019,174.953,0.0208902,
2,1,0,1,0,14987.5,0.0320052,0.0316618,26.2587,8,0.00123685,10,0.000831399,-1.58073,0.416324,0.141716,145.054,0.0316618,
2,1,0,1,0,14987.5,0.0428033,0.0424674,27.7568,8,0.00172323,10,0.00117876,-1.55663,0.473575,0.124584,134.887,0.0424674,
2,1,0,1,0,14987.5,0.0535986,0.0532496,29.2193,8,0.00223593,10,0.00155592,-1.53433,0.480776,0.122718,139.92,0.0532496,
2,1,0,1,0,14987.5,0.0644077,0.0640392,30.7481,8,0.00277577,10,0.00196909,-1.51218,0.479523,0.123039,147.715,0.06403923,
2,1,0,1,0,14987.6,0.075203,0.0748469,32.3831,8,0.00334409,10,0.00242378,-1.48968,0.471398,0.12516,158.255,0.0748469,
2,1,0,1,0,14987.6,0.0860011,0.0856111,34.1204,8,0.00394275,10,0.00292108,-1.46699,0.481556,0.122519,163.19,0.0856111,
2,1,0,1,0,14987.6,0.0968075,0.0964262,35.8663,8,0.00457311,10,0.00345845,-1.44531,0.502359,0.117446,164.526,0.0964262,
2,1,0,1,0,14987.6,0.107606,0.107224,37.7388,8,0.00523569,10,0.00404652,-1.42321,0.50175,0.117588,173.124,0.107224,
2,1,0,1,0,14987.6,0.118401,0.11807,39.6085,8,0.00593182,10,0.00467658,-1.40221,0.507223,0.11632,179.864,0.11807,
2,1,0,1,0,14987.6,0.129207,0.128864,41.6771,8,0.00666311,10,0.00537068,-1.3801,0.473527,0.124597,202.685,0.128864,
2,1,0,1,0,14987.7,0.140005,0.139657,44.0089,8,0.00743408,10,0.00614615,-1.35646,0.442919,0.133207,228.801,0.139657,
2,1,0,1,0,14987.7,0.150803,0.150452,46.5047,8,0.00824888,10,0.00699671,-1.3325,0.474606,0.124314,225.477,0.150452,
2,1,0,1,0,14987.7,0.161604,0.16125,48.8285,8,0.00910753,10,0.00787359,-1.31133,0.562957,0.104804,199.523,0.16125,
2,1,0,1,0,14987.7,0.172405,0.172118,50.712,8,0.0100046,10,0.00872845,-1.29489,0.830227,0.0710649,140.392,0.172118,
2,1,0,1,0,14987.7,0.183203,0.182848,51.6641,8,0.0109281,10,0.00944669,-1.28681,6.26868,0.00941187,18.9166,0.182848,
2,1,0,1,0,14987.8,0.194001,0.193667,50.8752,8,0.0118541,10,0.00985283,-1.29349,-0.661916,-0.0891352,-176.21,0.193667,
2,1,0,1,0,14987.8,0.204808,0.204489,47.8287,8,0.0127457,10,0.00978045,-1.32031,-0.29036,-0.203196,-377.669,0.204489,
2,1,0,1,0,14987.8,0.215603,0.215296,42.9656,8,0.0135643,10,0.00925031,-1.36688,-0.202645,-0.291149,-487.225,0.215296,
2,1,0,1,0,14987.8,0.226401,0.226105,37.5984,8,0.0142885,10,0.00850119,-1.42483,-0.182073,-0.324046,-475.854,0.226105,
2,1,0,1,0,14987.8,0.237207,0.236932,32.9527,8,0.0149213,10,0.00780755,-1.48211,-0.199357,-0.295951,-381.308,0.236932,
2,1,0,1,0,14987.8,0.248005,0.247693,29.43,8,0.0154805,10,0.0072896,-1.53121,-0.247754,-0.23814,-274.193,0.247693,
2,1,0,1,0,14987.9,0.258801,0.258499,26.9252,8,0.0159861,10,0.00696013,-1.56984,-0.320449,-0.184116,-193.878,0.2584987,
2,1,0,1,0,14987.9,0.26961,0.269285,25.1554,8,0.0164536,10,0.00677397,-1.59937,-0.418471,-0.14099,-138.594,0.269285,
2,1,0,1,0,14987.9,0.280405,0.280085,23.8499,8,0.016894,10,0.00668001,-1.62251,-0.535334,-0.110212,-102.75,0.280085,
2,1,0,1,0,14987.9,0.291203,0.290876,22.8837,8,0.0173143,10,0.00665631,-1.64047,-0.655078,-0.0900655,-80.5458,0.290876,
2,1,0,0,0,14987.9,0.300012,0.299613,22.226,8,0.0176458,10,0.00665918,-1.65314,0.00144817,40.741,29592.4,0.299613,
2,1,0,1,0,14987.9,0.290843,0.290591,7.07017,8,0.0178501,10,0.00205453,-2.15057,0.0139932,4.21633,1090.29,0.290591,
2,0,0,1,0,14988,0.280047,0.2798,-1.21372,8,0.0178936,10,-0.0003396,-2.91588,-0.0322741,-1.82809,554.761,0.2798,
2,0,0,1,0,14988,0.269244,0.268948,-5.7704,8,0.0178266,10,-0.00155194,-2.23879,-0.038735,-1.52317,324.458,0.268948,
2,0,0,1,0,14988,0.258443,0.258168,-8.5618,8,0.0176956,10,-0.00221038,-2.06744,-0.0935013,-0.631008,207.559,0.258168,
2,0,0,1,0,14988,0.247645,0.247353,-10.4396,8,0.0175234,10,-0.00258226,-1.98132,-0.160752,-0.367026,148.718,0.247353,
2,0,0,1,0,14988,0.236849,0.236565,-11.8256,8,0.0173223,10,-0.00279753,-1.92718,-0.237952,-0.247949,114.109,0.236565,
2,0,0,1,0,14988.1,0.22604,0.225718,-12.9411,8,0.017099,10,-0.00292103,-1.88803,-0.321144,-0.183718,92.5497,0.225718,
2,0,0,1,0,14988.1,0.215245,0.214983,-13.8722,8,0.0168574,10,-0.00298229,-1.85785,-0.378188,-0.156007,84.4036,0.214983,
2,0,0,1,0,14988.1,0.204447,0.204122,-14.7455,8,0.0165998,10,-0.00300988,-1.83134,-0.434756,-0.135708,78.0111,0.2041221,
2,0,0,1,0,14988.1,0.19364,0.193323,-15.5679,8,0.0163271,10,-0.00300963,-1.80777,-0.467777,-0.126128,76.5772,0.193323,
2,0,0,1,0,14988.1,0.182842,0.182539,-16.4106,8,0.0160393,10,-0.00299556,-1.78488,-0.456559,-0.129228,82.8169,0.182539,
2,0,0,1,0,14988.1,0.172047,0.171721,-17.3666,8,0.0157355,10,-0.00298222,-1.76028,-0.40901,-0.144251,97.9136,0.171721,
2,0,0,1,0,14988.2,0.161241,0.160964,-18.5563,8,0.0154125,10,-0.00298689,-1.73151,-0.341238,-0.1729,125.455,0.160964,
2,0,0,1,0,14988.2,0.150443,0.15013,-20.1622,8,0.0150647,10,-0.00302696,-1.69546,-0.265016,-0.222628,175.59,0.15013,
2,0,0,1,0,14988.2,0.139645,0.139367,-22.4634,8,0.0146821,10,-0.00313067,-1.64852,-0.205337,-0.287333,252.731,0.139367,
2,0,0,1,0,14988.2,0.128849,0.128559,-25.7081,8,0.0142499,10,-0.003305,-1.58993,-0.170231,-0.346588,348.438,0.128559,
2,0,0,1,0,14988.2,0.118043,0.117768,-29.8538,8,0.0137504,10,-0.00351582,-1.525,-0.168577,-0.349988,407.546,0.117768,
2,0,0,1,0,14988.3,0.107245,0.107002,-34.3357,8,0.0131722,10,-0.00367398,-1.46425,-0.191855,-0.307523,410.984,0.1070016,
2,0,0,1,0,14988.3,0.0964468,0.0961961,-38.5693,8,0.0125154,10,-0.00371022,-1.41376,-0.235989,-0.250012,375.511,0.0961961,
2,0,0,1,0,14988.3,0.0856404,0.0854234,-42.2576,8,0.0117864,10,-0.00360978,-1.3741,-0.317669,-0.185728,305.639,0.08542338,
2,0,0,1,0,14988.3,0.0748451,0.0745903,-45.1488,8,0.0109981,10,-0.00336766,-1.34535,-0.452111,-0.130499,229.477,0.0745903,
2,0,0,1,0,14988.3,0.0640471,0.0637635,-47.1113,8,0.0101658,10,-0.00300398,-1.32687,-0.831516,-0.0709548,130.167,0.0637635,
2,0,0,1,0,14988.3,0.0532407,0.0529145,-47.9802,8,0.00930842,10,-0.00253885,-1.31894,-3.19431,-0.0184704,34.5268,0.0529145,
2,0,0,1,0,14988.4,0.0424426,0.0421312,-47.9761,8,0.00844377,10,-0.00202129,-1.31898,3.89456,0.0151493,-28.3356,0.0421312,
2,0,0,1,0,14988.4,0.0316473,0.0313002,-47.4822,8,0.00758428,10,-0.0014862,-1.32347,1.84876,0.0319133,-59.1122,0.0313002,
2,0,0,1,0,14988.4,0.0208437,0.0205127,-46.7632,8,0.00673606,10,-0.00095924,-1.3301,1.43762,0.0410401,-74.8587,0.0205127,
2,0,0,1,0,14988.4,0.0100429,0.00971673,-45.8915,8,0.00590211,10,-0.000445915,-1.33827,1.16763,0.0505297,-90.426,0.00971673,
2,0,0,1,0,14988.4,-0.000755207,-0.00112699,-44.8484,8,0.00508541,10,5.05437e-05,-1.34825,0.950089,0.0620994,-108.526,-0.00112699,
2,0,0,1,0,14988.5,-0.0115505,-0.0119156,-43.4204,8,0.00429075,10,0.000517379,-1.36231,0.675942,0.0872856,-147.792,-0.0119156,
2,0,0,1,0,14988.5,-0.0223597,-0.0227126,-41.7016,8,0.00352447,10,0.000947154,-1.37985,0.577343,0.102192,-166.282,-0.0227126,
2,0,0,1,0,14988.5,-0.033155,-0.0335404,-39.9403,8,0.00278997,10,0.00133962,-1.39859,0.616134,0.0957584,-149.406,-0.03354045,
2,0,0,1,0,14988.5,-0.043953,-0.0443354,-38.4545,8,0.00208506,10,0.0017049,-1.41505,0.742822,0.0794268,-119.377,-0.0443354,
2,0,0,1,0,14988.5,-0.0547594,-0.0551272,-37.4245,8,0.00140297,10,0.0020631,-1.42684,1.13741,0.0518722,-75.842,-0.0551272,
2,0,0,1,0,14988.5,-0.0655575,-0.0659073,-36.8427,8,0.000735277,10,0.0024282,-1.43365,2.53241,0.023298,-33.5347,-0.0659073,
2,0,0,1,0,14988.6,-0.0763528,-0.0767393,-36.6768,8,7.42445e-05,10,0.00281455,-1.43561,244.43,0.000241378,-0.345752,-0.0767393,
2,0,0,1,0,14988.6,-0.0871592,-0.0875141,-36.8479,8,-0.00058681,10,0.00322471,-1.43359,-3.06425,-0.0192543,27.6918,-0.0875141,
2,0,0,1,0,14988.6,-0.0979573,-0.0983186,-37.2798,8,-0.00125345,10,0.0036653,-1.42853,-2.03337,-0.0290159,42.1063,-0.0983186,
2,0,0,1,1,14988.6,-0.0955546,-0.0960398,-27.1113,8,-0.00162172,10,0.00260377,-1.56685,-0.0322253,-1.83086,1950.52,-0.0960398,
2,0,0,1,1,14988.6,-0.0847538,-0.0852067,-11.7019,8,-0.00195852,10,0.000997079,-1.93174,-0.0227457,-2.59389,1145.47,-0.0852067,
2,0,0,1,1,14988.6,-0.0739557,-0.0743492,-1.40015,8,-0.0020704,10,0.0001041,-2.85383,-0.0241942,-2.4386,806.514,-0.07434915,
2,1,0,1,1,14988.7,-0.0631604,-0.0635934,6.10372,8,-0.00202399,10,-0.000388157,-2.21441,0.0206029,2.86367,607.733,-0.0635934,
2,1,0,1,1,14988.7,-0.0523512,-0.0528282,11.8408,8,-0.00185963,10,-0.000625526,-1.92662,0.0572752,1.03011,465.098,-0.0528282,
2,1,0,1,1,14988.7,-0.0415559,-0.0419972,16.2448,8,-0.00160462,10,-0.000682237,-1.78929,0.104998,0.561918,352.863,-0.0419972,
2,1,0,1,1,14988.7,-0.0307579,-0.0311429,19.5687,8,-0.00128047,10,-0.000609426,-1.70844,0.168385,0.350388,266.267,-0.0311429,
2,1,0,1,1,14988.7,-0.0199515,-0.0203299,22.0841,8,-0.000904233,10,-0.000448967,-1.65592,0.252366,0.233788,200.702,-0.0203299,
2,1,0,1,1,14988.8,-0.0091534,-0.00954344,23.9564,8,-0.000488954,10,-0.000228626,-1.62058,0.372336,0.158459,147.697,-0.00954344,
2,1,0,0,1,14988.8,-7.54729e-05,-0.000497109,25.0512,8,-0.000118017,10,-1.24532e-05,-1.60117, , , ,-0.000497109,