File: Figure_codes/Fig_3-5/rawdata_trumpetplot_data/after 10th/20221101_1-115_003_TrumpetPlot_ParaChange_from10_every3_06_CV_C01_4.csv
mode,ox/red,error,control changes,counter inc.,time/s,control/V,Ewe/V,<I>/mA,cycle number,(Q-Qo)/C,I Range,P/W,log(|I|),Tafel slope mV/dec,alpha_eff,dI/d(E-IR),E-IR/V,
2,0,0,0,0,9030.54,2.44065e-05,-0.000229887,-1.41852,5,0.0000000E+000,10,3.261e-07,-2.84816, , , ,-0.000229887,
2,1,0,1,0,9030.72,0.00729063,0.00700148,1.41712,5,0.000139143,10,9.9219e-06,-2.84859,0.0483416,1.22048,65.8112,0.00700148,
2,1,0,1,0,9030.91,0.014778,0.0144777,1.71206,5,0.000438324,10,2.47868e-05,-2.76648,0.125966,0.46838,31.1256,0.0144777,
2,1,0,1,0,9031.1,0.0222743,0.0220326,1.89836,5,0.00078057,10,4.18257e-05,-2.72162,0.169343,0.348406,25.9091,0.0220326,
2,1,0,1,0,9031.28,0.0297626,0.0294918,2.08977,5,0.0011571,10,6.16311e-05,-2.6799,0.188331,0.313279,25.4925,0.0294918,
2,1,0,1,0,9031.47,0.0372544,0.0369554,2.27134,5,0.0015684,10,8.39384e-05,-2.64372,0.217083,0.271785,24.0743,0.0369554,
2,1,0,1,0,9031.66,0.0447472,0.0444142,2.45287,5,0.00201467,10,0.000108942,-2.61033,0.23499,0.251074,24.1101,0.0444142,
2,1,0,1,0,9031.85,0.0522345,0.0519025,2.63815,5,0.0024948,10,0.000136927,-2.5787,0.238047,0.24785,25.4552,0.0519025,
2,1,0,1,0,9032.03,0.0597309,0.059435,2.80844,5,0.00300851,10,0.00016692,-2.55153,0.27927,0.211265,23.141,0.059435,
2,1,0,1,0,9032.22,0.0672182,0.0669242,2.96397,5,0.00355246,10,0.000198362,-2.52813,0.323392,0.182441,21.1125,0.0669242,
2,1,0,1,0,9032.41,0.0747074,0.0743937,3.11489,5,0.00412458,10,0.000231728,-2.50656,0.383987,0.153651,18.5992,0.0743937,
2,1,0,1,0,9032.59,0.0822019,0.0818815,3.2333,5,0.00472312,10,0.000264747,-2.49035,0.425235,0.138747,17.5511,0.0818815,
2,1,0,1,0,9032.78,0.0896911,0.0893972,3.3771,5,0.00534588,10,0.000301903,-2.47146,0.3777,0.156209,20.6445,0.08939717,
2,1,0,1,0,9032.97,0.097182,0.0968464,3.57791,5,0.0059995,10,0.000346507,-2.44637,0.236833,0.249121,34.7613,0.0968464,
2,1,0,1,0,9033.16,0.104675,0.10439,3.86657,5,0.00669838,10,0.000403631,-2.41267,0.198018,0.297953,45.0084,0.10439,
2,1,0,1,0,9033.34,0.112162,0.111829,4.19787,5,0.00745692,10,0.000469445,-2.37697,0.224608,0.262679,43.0102,0.1118292,
2,1,0,1,0,9033.53,0.119655,0.119346,4.48329,5,0.00827474,10,0.000535062,-2.3484,0.365976,0.161213,28.159,0.119346,
2,1,0,1,0,9033.72,0.127146,0.126788,4.67114,5,0.00913662,10,0.000592244,-2.33058,0.416538,0.141644,25.8876,0.126788,
2,1,0,1,0,9033.91,0.134635,0.134302,4.85881,5,0.0100334,10,0.00065255,-2.31347,0.579111,0.10188,19.308,0.134302,
2,1,0,1,0,9034.09,0.14213,0.141809,4.88178,5,0.0109544,10,0.00069228,-2.31142,-0.548226,-0.10762,-20.436,0.141809,
2,1,0,1,0,9034.28,0.149619,0.149314,4.42862,5,0.0118382,10,0.000661256,-2.35373,-0.105777,-0.557778,-96.0719,0.1493143,
2,1,0,1,0,9034.47,0.157106,0.156809,3.59376,5,0.0125935,10,0.000563534,-2.44445,-0.0751584,-0.785009,-109.838,0.156809,
2,1,0,1,0,9034.65,0.164602,0.164289,2.90843,5,0.0132004,10,0.000477822,-2.53634,-0.0959128,-0.615142,-70.0051,0.164289,
2,1,0,1,0,9034.84,0.172091,0.171787,2.4933,5,0.0137062,10,0.000428317,-2.60322,-0.1344,-0.438987,-42.8648,0.171787,
2,1,0,1,0,9035.03,0.179582,0.179301,2.24962,5,0.0141515,10,0.000403359,-2.64789,-0.192917,-0.305831,-26.8115,0.179301,
2,1,0,1,0,9035.22,0.187074,0.186758,2.0797,5,0.0145589,10,0.000388402,-2.682,-0.30298,-0.194733,-15.8622,0.186758,
2,1,0,1,0,9035.4,0.194563,0.194239,1.98235,5,0.014942,10,0.000385051,-2.70282,-0.422805,-0.139544,-10.7952,0.194239,
2,1,0,1,0,9035.59,0.202059,0.20176,1.91591,5,0.0153098,10,0.000386553,-2.71763,-0.520891,-0.113267,-8.45007,0.20176,
2,1,0,1,0,9035.78,0.209546,0.209244,1.86327,5,0.0156669,10,0.000389878,-2.72972,-0.584923,-0.100868,-7.36871,0.2092437,
2,1,0,1,0,9035.97,0.217035,0.216741,1.82592,5,0.016016,10,0.000395752,-2.73852,-1.17846,-0.0500652,-3.57614,0.216741,
2,1,0,1,0,9036.15,0.22453,0.224204,1.80044,5,0.0163595,10,0.000403665,-2.74462,-1.50706,-0.039149,-2.75211,0.224204,
2,1,0,1,0,9036.34,0.232019,0.231731,1.77704,5,0.0166978,10,0.000411796,-2.7503,-2.78886,-0.0211556,-1.47051,0.231731,
2,1,0,1,0,9036.53,0.23951,0.239174,1.76298,5,0.0170323,10,0.00042166,-2.75375,-2.598,-0.0227098,-1.55768,0.239174,
2,1,0,1,0,9036.71,0.247003,0.246699,1.74132,5,0.0173632,10,0.000429583,-2.75912,-1.12817,-0.0522971,-3.54934,0.246699,
2,1,0,1,0,9036.9,0.25449,0.254182,1.71946,5,0.0176905,10,0.000437055,-2.76461,-1.39042,-0.0424332,-2.85532,0.254182,
2,1,0,1,0,9037.09,0.261983,0.261701,1.71048,5,0.0180146,10,0.000447636,-2.76688,-1.5216,-0.038775,-2.5716,0.261701,
2,1,0,1,0,9037.28,0.269474,0.269186,1.68169,5,0.0183356,10,0.000452689,-2.77425,-2.70223,-0.0218338,-1.44098,0.269186,
2,1,0,1,0,9037.46,0.276963,0.276666,1.67089,5,0.0186533,10,0.000462279,-2.77705,-4.14648,-0.0142289,-0.927955,0.276666,
2,1,0,1,0,9037.65,0.284458,0.284192,1.65693,5,0.0189681,10,0.000470887,-2.7807,-1.83005,-0.0322395,-2.07555,0.284192,
2,1,0,1,0,9037.84,0.291947,0.291674,1.62987,5,0.0192792,10,0.00047539,-2.78785,-0.964931,-0.0611443,-3.91098,0.291674,
2,1,0,1,0,9038.03,0.299434,0.299136,1.61805,5,0.0195871,10,0.000484017,-2.79101,-0.0107677,-5.47936,-275.477,0.299136,
2,0,0,1,0,9038.18,0.294196,0.293912,-0.441379,5,0.0195983,10,-0.000129726,-3.35519,-0.0225061,-2.62151,42.9016,0.293912,
2,0,0,1,0,9038.37,0.286701,0.286373,-0.635664,5,0.0194908,10,-0.000182037,-3.19677,-0.0788441,-0.748312,18.6347,0.286373,
2,0,0,1,0,9038.56,0.279212,0.278924,-0.762571,5,0.0193553,10,-0.000212699,-3.11772,-0.130726,-0.451325,13.3604,0.278924,
2,0,0,1,0,9038.75,0.271725,0.271401,-0.848221,5,0.0192006,10,-0.000230208,-3.07149,-0.145405,-0.405763,13.4497,0.2714012,
2,0,0,1,0,9038.93,0.264228,0.263889,-0.92151,5,0.0190309,10,-0.000243177,-3.0355,-0.265449,-0.222265,7.98992,0.263889,
2,0,0,1,0,9039.12,0.256741,0.25642,-0.985882,5,0.0188487,10,-0.0002528,-3.00617,-0.36128,-0.163308,6.25034,0.2564199,
2,0,0,1,0,9039.31,0.249248,0.248922,-1.03817,5,0.0186554,10,-0.000258424,-2.98373,-0.401979,-0.146774,5.97603,0.248922,
2,0,0,1,0,9039.5,0.241756,0.241432,-1.08946,5,0.0184518,10,-0.000263031,-2.96279,-0.419492,-0.140646,5.98511,0.241432,
2,0,0,1,0,9039.68,0.234268,0.233974,-1.14085,5,0.0182391,10,-0.000266928,-2.94277,-0.360184,-0.163805,7.31092,0.233974,
2,0,0,1,0,9039.87,0.226772,0.226487,-1.18914,5,0.0180169,10,-0.000269325,-2.92477,-0.324166,-0.182005,8.45651,0.226487,
2,0,0,1,0,9040.06,0.219284,0.218974,-1.24455,5,0.0177862,10,-0.000272524,-2.90499,-0.399069,-0.147844,7.11317,0.218974,
2,0,0,1,0,9040.24,0.211796,0.211502,-1.28726,5,0.0175465,10,-0.000272258,-2.89033,-0.643666,-0.0916624,4.58433,0.211502,
2,0,0,1,0,9040.43,0.204301,0.203932,-1.34099,5,0.0172969,10,-0.00027347,-2.87258,-0.612779,-0.0962827,5.03984,0.203932,
2,0,0,1,0,9040.62,0.196812,0.196484,-1.39081,5,0.0170381,10,-0.000273271,-2.85673,-0.425498,-0.138661,7.50782,0.196484,
2,0,0,1,0,9040.81,0.189321,0.18902,-1.45118,5,0.0167681,10,-0.000274303,-2.83828,-0.359324,-0.164197,9.3476,0.18902,
2,0,0,1,0,9040.99,0.181828,0.181517,-1.5285,5,0.0164853,10,-0.000277449,-2.81574,-0.296173,-0.199208,11.8916,0.181517,
2,0,0,1,0,9041.18,0.174341,0.174013,-1.63204,5,0.0161864,10,-0.000283997,-2.78727,-0.219816,-0.268406,17.0329,0.174013,
2,0,0,1,0,9041.37,0.166848,0.166524,-1.76422,5,0.0158655,10,-0.000293785,-2.75345,-0.192507,-0.306483,21.1728,0.166524,
2,0,0,1,0,9041.56,0.159357,0.159051,-1.9691,5,0.0155135,10,-0.000313188,-2.70573,-0.137328,-0.429628,33.0185,0.159051,
2,0,0,1,0,9041.74,0.151868,0.151543,-2.2896,5,0.0151139,10,-0.000346973,-2.64024,-0.0980535,-0.601712,53.8599,0.151543,
2,0,0,1,0,9041.93,0.144373,0.144057,-2.79817,5,0.0146368,10,-0.000403095,-2.55313,-0.0758124,-0.778237,85.3766,0.144057,
2,0,0,1,0,9042.12,0.136884,0.136586,-3.52206,5,0.014043,10,-0.000481065,-2.4532,-0.07911,-0.745797,102.35,0.136586,
2,0,0,1,0,9042.3,0.129393,0.129069,-4.24377,5,0.0133104,10,-0.000547738,-2.37225,-0.111995,-0.526809,87.0604,0.129069,
2,0,0,1,0,9042.49,0.1219,0.121603,-4.75875,5,0.0124594,10,-0.000578678,-2.32251,-0.22799,-0.258783,47.9488,0.121603,
2,0,0,1,0,9042.68,0.114413,0.114114,-4.99188,5,0.0115393,10,-0.000569645,-2.30174,-0.893909,-0.0660022,12.8222,0.114114,
2,0,0,1,0,9042.87,0.10692,0.106595,-4.97642,5,0.0105988,10,-0.000530462,-2.30308,0.704571,0.0837389,-16.2524,0.106595,
2,0,0,1,0,9043.05,0.0994284,0.0991327,-4.78603,5,0.00967788,10,-0.000474453,-2.32002,0.340219,0.173418,-32.3802,0.0991327,
2,0,0,1,0,9043.24,0.0919401,0.0916249,-4.50247,5,0.00880454,10,-0.000412539,-2.34655,0.278868,0.21157,-37.1172,0.0916249,
2,0,0,1,0,9043.43,0.0844447,0.0841523,-4.23296,5,0.00798369,10,-0.000356213,-2.37336,0.349611,0.168759,-27.9151,0.0841523,
2,0,0,1,0,9043.62,0.0769565,0.0766417,-4.0525,5,0.00720563,10,-0.000310591,-2.39228,0.419016,0.140806,-22.2619,0.0766417,
2,0,0,1,0,9043.8,0.0694682,0.0691407,-3.91876,5,0.00645687,10,-0.000270946,-2.40685,0.557368,0.105855,-16.165,0.0691407,
2,0,0,1,0,9043.99,0.0619728,0.0616756,-3.79041,5,0.00573041,10,-0.000233776,-2.42131,0.513918,0.114804,-17.0319,0.0616756,
2,0,0,1,0,9044.18,0.0544836,0.0541494,-3.67744,5,0.0050271,10,-0.000199131,-2.43445,0.600873,0.0981904,-14.0742,0.0541494,
2,0,0,1,0,9044.36,0.0469927,0.0466846,-3.55205,5,0.00434655,10,-0.000165826,-2.44952,0.467738,0.126139,-17.4648,0.0466846,
2,0,0,1,0,9044.55,0.0394999,0.0391999,-3.40556,5,0.00369144,10,-0.000133498,-2.46781,0.373012,0.158172,-21.0232,0.0391999,
2,0,0,1,0,9044.74,0.0320125,0.0316921,-3.24878,5,0.00306508,10,-0.000102961,-2.48828,0.333731,0.176789,-22.3808,0.0316921,
2,0,0,1,0,9044.93,0.0245198,0.0241953,-3.08319,5,0.00246825,10,-7.45989e-05,-2.511,0.347048,0.170005,-20.5072,0.0241953,
2,0,0,1,0,9045.11,0.0170289,0.0167036,-2.95227,5,0.0018991,10,-4.93137e-05,-2.52984,0.46983,0.125577,-14.5195,0.01670363,
2,0,0,1,0,9045.3,0.0095397,0.00921646,-2.86534,5,0.00135172,10,-2.64083e-05,-2.54282,0.828637,0.0712012,-7.93566,0.00921646,
2,0,0,1,0,9045.49,0.00204518,0.00169674,-2.8541,5,0.000817582,10,-4.84267e-06,-2.54453,3.088,0.0191062,-2.10194,0.00169674,
2,0,0,1,0,9045.53,0.000177222,-0.000231796,-2.81475,5,0.000684484,10,6.52447e-07,-2.55056, , , ,-0.0002317957,