File: Figure_codes/Fig_3-5/rawdata_trumpetplot_data/after 10th/20221101_1-115_003_TrumpetPlot_ParaChange_from10_every3_10_CV_C01_7.csv
mode,ox/red,error,control changes,counter inc.,time/s,control/V,Ewe/V,<I>/mA,cycle number,(Q-Qo)/C,I Range,P/W,log(|I|),Tafel slope mV/dec,alpha_eff,dI/d(E-IR),E-IR/V,
2,1,0,0,0,14981.4,-2.44065e-05,-0.000229887,5.23691,8,0.0000000E+000,10,-1.2039e-06,-2.28092, , , ,-0.000229887,
2,1,0,1,0,14981.5,0.00977853,0.00942049,8.41097,8,0.00035082,10,7.92355e-05,-2.07515,0.111518,0.529063,172.775,0.00942049,
2,1,0,1,0,14981.5,0.0197755,0.0194179,9.60856,8,0.000804795,10,0.000186578,-2.01734,0.24463,0.24118,90.4634,0.0194179,
2,1,0,1,0,14981.6,0.0297726,0.0294327,10.3851,8,0.00130558,10,0.00030566,-1.98359,0.338025,0.174543,70.666,0.0294327,
2,1,0,1,0,14981.6,0.0397514,0.0394025,11.0789,8,0.00184122,10,0.000436537,-1.9555,0.336489,0.17534,75.875,0.0394025,
2,1,0,1,0,14981.7,0.0497393,0.049424,11.8211,8,0.00241235,10,0.000584245,-1.92734,0.360139,0.163826,75.4892,0.049424,
2,1,0,1,0,14981.7,0.0597364,0.059411,12.5836,8,0.00302238,10,0.000747605,-1.9002,0.369971,0.159472,78.3313,0.059411,
2,1,0,1,0,14981.8,0.0697152,0.0693728,13.3437,8,0.00366961,10,0.000925688,-1.87472,0.392092,0.150475,78.3972,0.06937281,
2,1,0,1,0,14981.8,0.0796941,0.0793694,14.1068,8,0.00435524,10,0.00111965,-1.85057,0.458006,0.128819,70.948,0.0793694,
2,1,0,1,0,14981.9,0.0896911,0.0893452,14.7936,8,0.00507831,10,0.00132173,-1.82993,0.509993,0.115688,66.8124,0.0893452,
2,1,0,1,0,14981.9,0.099679,0.0993423,15.4701,8,0.0058333,10,0.00153683,-1.81051,0.497579,0.118574,71.5671,0.0993423,
2,1,0,1,0,14982,0.109658,0.109294,16.2823,8,0.00662425,10,0.00177956,-1.78828,0.392736,0.150228,95.4968,0.109294,
2,1,0,1,0,14982,0.119655,0.119324,17.4263,8,0.00746592,10,0.00207937,-1.75879,0.325391,0.18132,123.357,0.119324,
2,1,0,1,0,14982.1,0.129652,0.129317,18.7115,8,0.00836966,10,0.0024197,-1.72789,0.340575,0.173237,126.457,0.1293166,
2,1,0,1,0,14982.1,0.139631,0.139317,19.8346,8,0.00933293,10,0.00276331,-1.70258,0.457877,0.128856,99.7548,0.139317,
2,1,0,1,0,14982.2,0.149619,0.149296,20.6698,8,0.0103449,10,0.00308591,-1.68466,0.817188,0.0721988,58.1381,0.149296,
2,1,0,1,0,14982.2,0.159616,0.15929,20.7254,8,0.0113847,10,0.00330134,-1.6835,-0.703825,-0.0838277,-67.7372,0.15929,
2,1,0,1,0,14982.3,0.169595,0.169271,19.0226,8,0.0123857,10,0.00321997,-1.72073,-0.156115,-0.377927,-279.882,0.169271,
2,1,0,1,0,14982.3,0.179573,0.179259,15.5703,8,0.0132518,10,0.00279112,-1.8077,-0.0986426,-0.598119,-363.595,0.179259,
2,1,0,1,0,14982.4,0.18957,0.189275,12.4971,8,0.0139479,10,0.00236538,-1.90319,-0.122105,-0.483191,-235.922,0.189275,
2,1,0,1,0,14982.4,0.199558,0.199189,10.7032,8,0.0145216,10,0.00213197,-1.97048,-0.193116,-0.305516,-127.618,0.199189,
2,1,0,1,0,14982.5,0.209537,0.209263,9.71163,8,0.0150282,10,0.00203228,-2.01271,-0.274171,-0.215194,-81.5747,0.209263,
2,1,0,1,0,14982.5,0.219534,0.219216,9.08871,8,0.0154969,10,0.00199239,-2.0415,-0.429195,-0.137467,-48.7949,0.219216,
2,1,0,1,0,14982.6,0.229531,0.229236,8.66718,8,0.0159404,10,0.00198683,-2.06212,-0.552557,-0.106776,-36.1389,0.229236,
2,1,0,1,0,14982.6,0.23951,0.239224,8.37044,8,0.0163653,10,0.00200241,-2.07725,-0.810885,-0.07276,-23.7803,0.2392237,
2,1,0,1,0,14982.7,0.249498,0.249177,8.13997,8,0.0167769,10,0.00202829,-2.08938,-0.904825,-0.065206,-20.7023,0.249177,
2,1,0,1,0,14982.7,0.259495,0.259174,7.94785,8,0.0171789,10,0.00205987,-2.09975,-0.9365,-0.0630005,-19.5398,0.259174,
2,1,0,1,0,14982.8,0.269474,0.269222,7.78498,8,0.0175714,10,0.00209588,-2.10874,-1.20537,-0.0489477,-14.8851,0.269222,
2,1,0,1,0,14982.8,0.279453,0.279135,7.64695,8,0.0179567,10,0.00213453,-2.11651,-1.31553,-0.0448489,-13.3979,0.279135,
2,1,0,1,0,14982.9,0.28945,0.289136,7.51531,8,0.0183358,10,0.00217294,-2.12405,-1.6466,-0.0358313,-10.5106,0.289136,
2,1,0,1,0,14982.9,0.299438,0.29917,7.39859,8,0.0187079,10,0.00221343,-2.13085,-0.0523284,-1.12749,-310.431,0.29917,
2,0,0,1,0,14983,0.291747,0.291446,-0.695399,8,0.0188151,10,-0.000202671,-3.15777,-0.00461117,-12.795,384.748,0.291446,
2,0,0,1,0,14983,0.28175,0.281438,-2.72217,8,0.0187189,10,-0.000766123,-2.56508,-0.0554186,-1.06463,112.221,0.2814382,
2,0,0,1,0,14983.1,0.27178,0.271429,-3.5194,8,0.0185614,10,-0.000955268,-2.45353,-0.130442,-0.452308,61.8361,0.271429,
2,0,0,1,0,14983.1,0.261783,0.261499,-4.00762,8,0.0183725,10,-0.00104799,-2.39711,-0.232343,-0.253935,39.7148,0.2614989,
2,0,0,1,0,14983.2,0.251786,0.251477,-4.38662,8,0.0181623,10,-0.00110314,-2.35787,-0.287004,-0.205572,35.1368,0.251477,
2,0,0,1,0,14983.2,0.241807,0.241482,-4.69518,8,0.0179352,10,-0.0011338,-2.32835,-0.357356,-0.165101,30.3821,0.241482,
2,0,0,1,0,14983.3,0.231824,0.231521,-4.99889,8,0.0176933,10,-0.00115735,-2.30113,-0.404781,-0.145758,28.3113,0.231521,
2,0,0,1,0,14983.3,0.221822,0.221494,-5.24443,8,0.0174373,10,-0.00116161,-2.2803,-0.462566,-0.127549,26.1298,0.221494,
2,0,0,1,0,14983.4,0.211843,0.211557,-5.51191,8,0.0171689,10,-0.00116608,-2.2587,-0.565614,-0.104311,22.4015,0.2115574,
2,0,0,1,0,14983.4,0.201865,0.20155,-5.76278,8,0.0168875,10,-0.00116149,-2.23937,-0.553496,-0.106595,24.0118,0.20155,
2,0,0,1,0,14983.5,0.191868,0.191555,-6.04917,8,0.0165922,10,-0.00115875,-2.2183,-0.43859,-0.134522,31.7666,0.191555,
2,0,0,1,0,14983.5,0.18188,0.181566,-6.3855,8,0.0162824,10,-0.00115939,-2.19481,-0.372707,-0.158301,39.4025,0.181566,
2,0,0,1,0,14983.6,0.171901,0.171591,-6.79256,8,0.0159543,10,-0.00116554,-2.16797,-0.324689,-0.181712,48.1112,0.171591,
2,0,0,1,0,14983.6,0.161904,0.161599,-7.35593,8,0.0156014,10,-0.00118871,-2.13336,-0.249663,-0.236319,67.9829,0.161599,
2,0,0,1,0,14983.7,0.151907,0.151592,-8.24939,8,0.0152127,10,-0.00125054,-2.08358,-0.171667,-0.343689,110.776,0.151592,
2,0,0,1,0,14983.7,0.141928,0.141625,-9.71242,8,0.0147674,10,-0.00137552,-2.01267,-0.118339,-0.498569,189.233,0.141625,
2,0,0,1,0,14983.8,0.13194,0.131643,-11.9418,8,0.0142298,10,-0.00157205,-1.92293,-0.107383,-0.549435,256.029,0.131643,
2,0,0,1,0,14983.8,0.121943,0.121658,-14.5313,8,0.0135671,10,-0.00176785,-1.8377,-0.13249,-0.445315,252.953,0.121658,
2,0,0,1,0,14983.9,0.111964,0.111639,-16.9299,8,0.0127791,10,-0.00189003,-1.77135,-0.186996,-0.315515,208.258,0.1116385,
2,0,0,1,0,14983.9,0.101985,0.101672,-18.6564,8,0.011888,10,-0.00189684,-1.72917,-0.310599,-0.189955,138.207,0.101672,
2,0,0,1,0,14984,0.0919883,0.0916755,-19.6543,8,0.0109265,10,-0.00180182,-1.70654,-0.768533,-0.0767696,58.8256,0.0916755,
2,0,0,1,0,14984,0.0820004,0.0816881,-19.744,8,0.0099396,10,-0.00161285,-1.70456,1.23182,0.0478966,-36.8771,0.0816881,
2,0,0,1,0,14984.1,0.0720215,0.0717172,-19.0504,8,0.00896973,10,-0.00136624,-1.7201,0.482581,0.122259,-90.8548,0.0717172,
2,0,0,1,0,14984.1,0.0620245,0.0617206,-18.1255,8,0.00804064,10,-0.00111872,-1.74171,0.481047,0.122649,-86.8487,0.0617206,
2,0,0,1,0,14984.2,0.0520275,0.051685,-17.4117,8,0.00715318,10,-0.000899927,-1.75916,0.615696,0.0958265,-65.0558,0.051685,
2,0,0,1,0,14984.2,0.0420486,0.0417702,-16.8004,8,0.00629985,10,-0.000701755,-1.77468,0.70194,0.0840528,-55.18,0.0417702,
2,0,0,1,0,14984.3,0.0320607,0.0317466,-16.2492,8,0.00547504,10,-0.000515858,-1.78917,0.634706,0.0929564,-58.8969,0.0317466,
2,0,0,1,0,14984.3,0.0220637,0.0217084,-15.5856,8,0.00467872,10,-0.000338339,-1.80728,0.485138,0.121615,-73.9961,0.0217084,
2,0,0,1,0,14984.4,0.0120848,0.0117562,-14.788,8,0.00392025,10,-0.00017385,-1.83009,0.380633,0.155005,-89.4483,0.0117562,
2,0,0,1,0,14984.4,0.00210598,0.00173784,-13.9831,8,0.003204,10,-2.43004e-05,-1.8544,0.466487,0.126477,-68.8617,0.001737842,
2,0,0,1,0,14984.5,-0.00789103,-0.00827606,-13.2244,8,0.00252503,10,0.000109446,-1.87862,0.528554,0.111625,-57.6773,-0.008276063,
2,0,0,1,0,14984.5,-0.017879,-0.0182968,-12.7986,8,0.00187671,10,0.000234174,-1.89284,1.17381,0.0502638,-25.1126,-0.0182968,
2,0,0,1,0,14984.6,-0.0278578,-0.0282136,-12.6222,8,0.00124343,10,0.000356118,-1.89887,3.09255,0.0190781,-9.40768,-0.0282136,
2,0,0,1,0,14984.6,-0.0378549,-0.0382371,-12.6639,8,0.000611949,10,0.00048423,-1.89743,-3.03552,-0.0194365,9.60202,-0.0382371,
2,0,0,1,0,14984.7,-0.0478519,-0.0482146,-12.8353,8,-2.5087e-05,10,0.000618849,-1.89159,-1.08359,-0.0544489,27.2922,-0.0482146,
2,0,0,1,0,14984.7,-0.0578126,-0.0581669,-13.1385,8,-0.000671639,10,0.000764225,-1.88145,-0.908223,-0.064962,33.3151,-0.0581669,
2,0,0,1,0,14984.8,-0.0678187,-0.0682441,-13.5362,8,-0.00133805,10,0.000923765,-1.8685,-0.670159,-0.0880387,46.5023,-0.0682441,
2,0,0,1,0,14984.8,-0.0778157,-0.0781973,-14.0221,8,-0.00202682,10,0.00109649,-1.85319,-0.614409,-0.0960272,52.5979,-0.0781973,
2,0,0,1,0,14984.9,-0.0877945,-0.0881739,-14.6432,8,-0.00274171,10,0.00129115,-1.83436,-0.505766,-0.116655,66.6704,-0.0881739,
2,0,0,1,0,14984.9,-0.0977734,-0.0981557,-15.3422,8,-0.00348989,10,0.00150593,-1.81411,-0.459836,-0.128307,76.9032,-0.0981557,
2,0,0,1,1,14985,-0.0936874,-0.0940425,-5.75646,8,-0.00397135,10,0.000541352,-2.23984,-0.0130295,-4.52819,1007.7,-0.0940425,
2,1,0,1,1,14985,-0.0837086,-0.0840779,1.3479,8,-0.00405952,10,-0.000113328,-2.87034,0.00449124,13.1367,499.26,-0.0840779,
2,1,0,1,1,14985.1,-0.0737025,-0.0740944,5.18427,8,-0.00388727,10,-0.000384125,-2.28531,0.0403446,1.4624,291.861,-0.0740944,
2,1,0,1,1,14985.1,-0.0637236,-0.0640977,7.42628,8,-0.00356771,10,-0.000476007,-2.12923,0.100044,0.58974,170.614,-0.0640977,
2,1,0,1,1,14985.2,-0.0537447,-0.0540935,8.77503,8,-0.0031605,10,-0.000474672,-2.05675,0.204739,0.288172,98.3855,-0.05409345,
2,1,0,1,1,14985.2,-0.0437477,-0.0441012,9.55376,8,-0.00270028,10,-0.000421333,-2.01983,0.377926,0.156115,58.2182,-0.0441012,
2,1,0,1,1,14985.3,-0.0337507,-0.0341325,10.0022,8,-0.00221,10,-0.0003414,-1.9999,0.741302,0.0795897,31.0313,-0.0341325,
2,1,0,1,1,14985.3,-0.0237809,-0.0241177,10.1964,8,-0.0017062,10,-0.000245913,-1.99155,1.58762,0.0371626,14.7996,-0.0241177,
2,1,0,1,1,14985.4,-0.0137839,-0.0141524,10.2732,8,-0.00119379,10,-0.00014539,-1.9883,-20.8007,-0.00283644,-1.1371,-0.0141524,
2,1,0,1,1,14985.4,-0.0037869,-0.00420179,10.2843,8,-0.000679608,10,-4.32123e-05,-1.98783,-53.0548,-0.00111206,-0.446435,-0.00420179,
2,1,0,1,1,14985.4,-2.55332e-05,-0.000363498,10.2762,8,-0.000487271,10,-3.73538e-06,-1.98817, , , ,-0.000363498,