File: Figure_codes/Fig_3-5/rawdata_trumpetplot_data/after 10th/20221101_1-115_003_TrumpetPlot_ParaChange_from10_every3_02_CV_C01_31.csv
mode,ox/red,error,control changes,counter inc.,time/s,control/V,Ewe/V,<I>/mA,cycle number,(Q-Qo)/C,I Range,P/W,log(|I|),Tafel slope mV/dec,alpha_eff,dI/d(E-IR),E-IR/V,
2,0,0,1,0,61414.1,2.44065e-05,-0.000325324,-0.393877,32,0.0000000E+000,10,1.28137e-07,-3.40464, , , ,-0.000325324,
2,0,0,1,0,61421.3,0.00729061,0.00701905,-0.0949947,32,-0.000983559,10,-6.66773e-07,-4.0223,-0.0293455,-2.01053,7.59542,0.00701905,
2,0,0,1,0,61428.8,0.0147815,0.0144185,-0.058129,32,-0.00147567,10,-8.38131e-07,-4.23561,-0.0413485,-1.4269,3.26303,0.0144185,
2,0,0,1,0,61436.3,0.0222725,0.0219029,-0.03759,32,-0.0017664,10,-8.2333e-07,-4.42493,-0.0362666,-1.62684,2.38416,0.0219029,
2,0,0,1,0,61443.8,0.0297635,0.0293915,-0.0221134,32,-0.00192493,10,-6.49945e-07,-4.65535,-0.0291896,-2.02127,1.74488,0.0293915,
2,0,0,1,0,61451.3,0.0372544,0.036914,-0.00978598,32,-0.00197975,10,-3.61239e-07,-5.0094,-0.0120907,-4.87977,1.72493,0.036914,
2,1,0,1,0,61458.8,0.0447454,0.044392,0.00182596,32,-0.00194333,10,8.10579e-08,-5.73851,0.00831777,7.09325,1.25673,0.044392,
2,1,0,1,0,61466.3,0.0522363,0.0519156,0.0114843,32,-0.00182822,10,5.96212e-07,-4.9399,0.0162882,3.62226,1.55767,0.0519156,
2,1,0,1,0,61473.8,0.0597273,0.0593692,0.020138,32,-0.0016399,10,1.19558e-06,-4.69598,0.0413025,1.42848,1.12931,0.0593692,
2,1,0,1,0,61481.3,0.0672183,0.0668515,0.028447,32,-0.00139077,10,1.90173e-06,-4.54596,0.0518369,1.13819,1.23563,0.0668515,
2,1,0,1,0,61488.8,0.0747092,0.0743984,0.0349677,32,-0.0010821,10,2.60154e-06,-4.45633,0.119651,0.493103,0.684464,0.0743984,
2,1,0,1,0,61496.2,0.0822001,0.0818636,0.0420572,32,-0.000722329,10,3.44295e-06,-4.37616,0.0897788,0.657171,1.10333,0.08186356,
2,1,0,1,0,61503.7,0.0896911,0.0893353,0.0507634,32,-0.000303209,10,4.53496e-06,-4.29445,0.0959194,0.6151,1.22254,0.08933527,
2,1,0,1,0,61511.2,0.0971821,0.0968567,0.0604215,32,0.000181562,10,5.85223e-06,-4.21881,0.0818857,0.720516,1.69404,0.0968567,
2,1,0,1,0,61518.7,0.104673,0.104378,0.0713528,32,0.000743869,10,7.44768e-06,-4.14659,0.130234,0.453031,1.24393,0.104378,
2,1,0,1,0,61526.2,0.112164,0.111835,0.0796901,32,0.00137885,10,8.91213e-06,-4.0986,0.253623,0.232629,0.717903,0.111835,
2,1,0,1,0,61533.7,0.119655,0.119313,0.0868838,32,0.00207508,10,1.03664e-05,-4.06106,0.267518,0.220546,0.749742,0.119313,
2,1,0,1,0,61541.2,0.127146,0.126787,0.0914669,32,0.00281893,10,1.15968e-05,-4.03874,0.564282,0.104558,0.374409,0.126787,
2,1,0,1,0,61548.7,0.134637,0.134319,0.0889715,32,0.00357676,10,1.19505e-05,-4.05075,-0.17219,-0.342646,-1.19182,0.134319,
2,1,0,1,0,61556.2,0.142128,0.141764,0.0751038,32,0.00426513,10,1.0647e-05,-4.12434,-0.0740917,-0.796311,-2.31594,0.141764,
2,1,0,1,0,61563.7,0.149619,0.149285,0.0589286,32,0.00482941,10,8.79718e-06,-4.22967,-0.0886373,-0.665634,-1.54531,0.149285,
2,1,0,1,0,61571.2,0.15711,0.156788,0.0525156,32,0.00530921,10,8.23379e-06,-4.27971,-0.22653,-0.260451,-0.536518,0.156788,
2,1,0,1,0,61578.6,0.164601,0.164251,0.0506588,32,0.00575782,10,8.32075e-06,-4.29534,-0.729438,-0.0808842,-0.159018,0.164251,
2,1,0,1,0,61586.1,0.172091,0.171727,0.0505543,32,0.00619757,10,8.68152e-06,-4.29624,2.0444,0.0288594,0.0570385,0.171727,
2,1,0,1,0,61593.6,0.179582,0.179239,0.0510254,32,0.0066387,10,9.14573e-06,-4.29221,1.30484,0.0452164,0.089813,0.179239,
2,1,0,1,0,61601.1,0.187073,0.186696,0.0517437,32,0.00708366,10,9.66036e-06,-4.28614,2.0947,0.0281663,0.0568987,0.1866965,
2,1,0,1,0,61608.6,0.194564,0.194199,0.0524822,32,0.00753334,10,1.0192e-05,-4.27999,1.47728,0.0399381,0.0817405,0.194199,
2,1,0,1,0,61616.1,0.202055,0.201696,0.0533367,32,0.00798827,10,1.07578e-05,-4.27297,1.13475,0.0519937,0.108104,0.201696,
2,1,0,1,0,61623.6,0.209546,0.209201,0.053661,32,0.00844868,10,1.1226e-05,-4.27034,-6.82728,-0.00864181,-0.0181034,0.209201,
2,1,0,1,0,61631.1,0.217037,0.216666,0.0549134,32,0.00891419,10,1.18978e-05,-4.26032,1.91803,0.0307607,0.0660404,0.216666,
2,1,0,1,0,61638.6,0.224528,0.224211,0.055443,32,0.00938555,10,1.24309e-05,-4.25615,0.819005,0.0720387,0.155854,0.224211,
2,1,0,1,0,61646.1,0.232019,0.231683,0.056641,32,0.00986398,10,1.31228e-05,-4.24687,-2.16252,-0.0272829,-0.0602124,0.231683,
2,1,0,1,0,61653.6,0.23951,0.239123,0.0572508,32,0.0103458,10,1.369e-05,-4.24222,0.608864,0.0969018,0.215546,0.239123,
2,1,0,1,0,61661,0.247001,0.246644,0.0588135,32,0.010836,10,1.4506e-05,-4.23052,1.21841,0.0484236,0.110521,0.246644,
2,1,0,1,0,61668.5,0.254492,0.254169,0.0596577,32,0.0113336,10,1.51631e-05,-4.22433,1.1471,0.051434,0.119632,0.254169,
2,1,0,1,0,61676,0.261983,0.261658,0.0606893,32,0.0118395,10,1.58798e-05,-4.21689,1.25893,0.0468651,0.110942,0.2616576,
2,1,0,1,0,61683.5,0.269474,0.269107,0.061624,32,0.0123523,10,1.65835e-05,-4.21025,0.63115,0.0934801,0.224842,0.269107,
2,1,0,1,0,61691,0.276965,0.276638,0.062416,32,0.0128714,10,1.72666e-05,-4.2047,28.3708,0.0020796,0.00507791,0.276638,
2,1,0,1,0,61698.5,0.284456,0.284166,0.0635573,32,0.0133956,10,1.80608e-05,-4.19683,1.10397,0.0534437,0.132324,0.284166,
2,1,0,1,0,61706,0.291947,0.291606,0.0641231,32,0.0139278,10,1.86987e-05,-4.19299,-3.15813,-0.0186819,-0.0469734,0.291606,
2,1,0,1,0,61713.5,0.299438,0.299125,0.0644086,32,0.0144624,10,1.92662e-05,-4.19106,-0.00414347,-14.2393,-22.6675,0.2991249,
2,1,0,1,0,61720.3,0.293745,0.293402,0.0068509,32,0.0145561,10,2.01007e-06,-5.16425,0.00979087,6.02602,1.66468,0.293402,
2,1,0,1,0,61727.8,0.286254,0.285883,-0.00120154,32,0.0145235,10,-3.43499e-07,-5.92026,-0.00484461,-12.1785,0.801976,0.285883,
2,1,0,1,0,61735.3,0.278763,0.278438,-0.00707471,32,0.0144396,10,-1.96987e-06,-5.15029,-0.0231645,-2.547,0.673347,0.278438,
2,0,0,1,0,61742.8,0.271272,0.270925,-0.0116534,32,0.0143181,10,-3.15721e-06,-4.93355,-0.0389484,-1.51483,0.692783,0.270925,
2,0,0,1,0,61750.3,0.263781,0.263459,-0.0149511,32,0.0141622,10,-3.93899e-06,-4.82533,-0.0785884,-0.750747,0.457214,0.263459,
2,0,0,1,0,61757.8,0.25629,0.255961,-0.0192154,32,0.0139803,10,-4.91839e-06,-4.71635,-0.0872734,-0.676036,0.492665,0.255961,
2,0,0,1,0,61765.3,0.248799,0.248479,-0.022126,32,0.013773,10,-5.49783e-06,-4.6551,-0.0958737,-0.615393,0.536946,0.248479,
2,0,0,1,0,61772.8,0.241308,0.240956,-0.0249283,32,0.0135407,10,-6.00665e-06,-4.60331,-0.130157,-0.453297,0.440575,0.240956,
2,0,0,1,0,61780.3,0.233817,0.233473,-0.0277845,32,0.013288,10,-6.48692e-06,-4.5562,-0.116896,-0.504722,0.541186,0.233473,
2,0,0,1,0,61787.7,0.226326,0.22599,-0.0305961,32,0.0130134,10,-6.9144e-06,-4.51433,-0.211277,-0.279254,0.334275,0.22599,
2,0,0,1,0,61795.2,0.218835,0.218471,-0.0337013,32,0.0127165,10,-7.36278e-06,-4.47235,-0.190034,-0.31047,0.405103,0.218471,
2,0,0,1,0,61802.7,0.211344,0.210989,-0.0362304,32,0.0123966,10,-7.64423e-06,-4.44093,-0.292143,-0.201956,0.285747,0.2109894,
2,0,0,1,0,61810.2,0.203853,0.203456,-0.0385948,32,0.0120577,10,-7.85235e-06,-4.41347,-0.164454,-0.358763,0.545874,0.203456,
2,0,0,1,0,61817.7,0.196362,0.196008,-0.0424893,32,0.0116948,10,-8.32824e-06,-4.37172,-0.287183,-0.205444,0.336121,0.196008,
2,0,0,1,0,61825.2,0.188871,0.188514,-0.0445782,32,0.0113098,10,-8.40361e-06,-4.35088,-0.256514,-0.230007,0.399631,0.188514,
2,0,0,1,0,61832.7,0.18138,0.181022,-0.0485834,32,0.0109004,10,-8.79468e-06,-4.31351,-0.228192,-0.258554,0.488533,0.181022,
2,0,0,1,0,61840.2,0.173889,0.173503,-0.05177,32,0.0104645,10,-8.98224e-06,-4.28592,-0.254016,-0.232269,0.466134,0.173503,
2,0,0,1,0,61847.7,0.166398,0.16601,-0.0560168,32,0.00999903,10,-9.29934e-06,-4.25168,-0.237129,-0.24881,0.548318,0.16601,
2,0,0,1,0,61855.2,0.158907,0.158549,-0.0615092,32,0.00949428,10,-9.75223e-06,-4.21106,-0.171019,-0.344991,0.834269,0.158549,
2,0,0,1,0,61862.7,0.151417,0.151069,-0.0697655,32,0.00893673,10,-1.05394e-05,-4.15636,-0.150171,-0.392886,1.07548,0.1510689,
2,0,0,1,0,61870.1,0.143926,0.143603,-0.0812358,32,0.00830721,10,-1.16657e-05,-4.09025,-0.0889582,-0.663233,2.10373,0.143603,
2,0,0,1,0,61877.6,0.136435,0.136056,-0.0990783,32,0.00756553,10,-1.34802e-05,-4.00402,-0.0807912,-0.730278,2.81431,0.136056,
2,0,0,1,0,61885.1,0.128944,0.128556,-0.1194,32,0.00667409,10,-1.53496e-05,-3.923,-0.118964,-0.495947,2.30068,0.1285564,
2,0,0,1,0,61892.6,0.121453,0.12105,-0.132553,32,0.00565279,10,-1.60455e-05,-3.87761,-0.322859,-0.182742,0.941385,0.12105,
2,0,0,1,0,61900.1,0.113962,0.113556,-0.135484,32,0.00457171,10,-1.5385e-05,-3.86811,-2.55301,-0.02311,0.122922,0.113556,
2,0,0,1,0,61907.6,0.106471,0.106101,-0.136775,32,0.00347659,10,-1.4512e-05,-3.86399,-6.12404,-0.00963417,0.0515362,0.106101,
2,0,0,1,0,61915.1,0.0989798,0.0986169,-0.135798,32,0.00238188,10,-1.3392e-05,-3.86711,1.79945,0.0327877,-0.173862,0.0986169,
2,0,0,1,0,61922.6,0.0914889,0.0911305,-0.133872,32,0.00130098,10,-1.21999e-05,-3.87331,0.62075,0.0950463,-0.494813,0.0911305,
2,0,0,1,0,61930.1,0.083998,0.0835974,-0.129689,32,0.000245634,10,-1.08416e-05,-3.8871,0.410082,0.143874,-0.726247,0.0835974,
2,0,0,1,0,61937.6,0.076507,0.0761268,-0.125495,32,-0.000780294,10,-9.55356e-06,-3.90137,0.42004,0.140463,-0.68624,0.0761268,
2,0,0,1,0,61945.1,0.069016,0.0686286,-0.121834,32,-0.00177612,10,-8.36131e-06,-3.91423,0.5211,0.113222,-0.538991,0.0686286,
2,0,0,1,0,61952.5,0.0615251,0.0611836,-0.11872,32,-0.00274865,10,-7.26373e-06,-3.92548,0.682408,0.0864585,-0.401521,0.0611836,
2,0,0,1,0,61960,0.0540342,0.0537046,-0.115552,32,-0.00369669,10,-6.20569e-06,-3.93722,0.851965,0.0692517,-0.313236,0.0537046,
2,0,0,1,0,61967.5,0.0465432,0.0461926,-0.112933,32,-0.00462334,10,-5.21667e-06,-3.94718,0.906717,0.0650699,-0.286664,0.0461926,
2,0,0,1,0,61975,0.0390522,0.0386934,-0.1106,32,-0.00552821,10,-4.27949e-06,-3.95624,1.03418,0.05705,-0.245017,0.0386934,
2,0,0,1,0,61982.5,0.0315613,0.0311773,-0.107846,32,-0.0064137,10,-3.36234e-06,-3.9672,0.710122,0.0830844,-0.349848,0.0311773,
2,0,0,1,0,61990,0.0240703,0.0237226,-0.10609,32,-0.00728128,10,-2.51673e-06,-3.97433,1.31288,0.0449395,-0.186185,0.0237226,
2,0,0,1,0,61997.5,0.0165794,0.0162287,-0.105918,32,-0.00813982,10,-1.71891e-06,-3.97503,-2.55279,-0.023112,0.0950101,0.0162287,
2,0,0,1,0,62005,0.00908843,0.00870612,-0.106179,32,-0.00899914,10,-9.24412e-07,-3.97396,-1.39113,-0.0424115,0.176256,0.00870612,
2,0,0,1,0,62012.5,0.00159744,0.00116447,-0.110225,32,-0.00987409,10,-1.28354e-07,-3.95772, , , ,0.00116447,
2,0,0,1,0,62013.9,0.000199235,-0.000151627,-0.110632,32,-0.0100402,10,1.67749e-08,-3.95612, , , ,-0.000151627,