File: Figure_codes/Fig_3-5/rawdata_trumpetplot_data/after 10th/20221101_1-115_003_TrumpetPlot_ParaChange_from10_every3_09_CV_C01_34.csv
mode,ox/red,error,control changes,counter inc.,time/s,control/V,Ewe/V,<I>/mA,cycle number,(Q-Qo)/C,I Range,P/W,log(|I|),Tafel slope mV/dec,alpha_eff,dI/d(E-IR),E-IR/V,
2,0,0,0,0,68167,2.44065e-05,-0.000325324,-5.19973,35,0.0000000E+000,10,1.6916e-06,-2.28402, , , ,-0.000325324,
2,1,0,1,0,68167,0.00978761,0.00947558,0.831366,35,-0.000131847,10,7.87768e-06,-3.08021,0.00474748,12.4276,287.42,0.00947558,
2,1,0,1,0,68167.1,0.0197755,0.0194699,2.68122,35,5.7072e-05,10,5.2203e-05,-2.57167,0.0520421,1.1337,117.783,0.0194699,
2,1,0,1,0,68167.2,0.0297635,0.0294505,3.59489,35,0.00037475,10,0.000105871,-2.44431,0.117866,0.50057,70.0578,0.0294505,
2,1,0,1,0,68167.3,0.0397514,0.0394087,4.20804,35,0.000765953,10,0.000165833,-2.37592,0.165661,0.35615,58.5022,0.0394087,
2,1,0,1,0,68167.4,0.0497484,0.0494375,4.73151,35,0.00121306,10,0.000233914,-2.325,0.223577,0.263891,48.6702,0.0494375,
2,1,0,1,0,68167.5,0.0597273,0.0594418,5.20562,35,0.00170895,10,0.000309432,-2.28353,0.262082,0.225121,45.6642,0.0594418,
2,1,0,1,0,68167.6,0.0697152,0.0693986,5.6284,35,0.0022505,10,0.000390603,-2.24962,0.332813,0.177277,38.9654,0.0693986,
2,1,0,1,0,68167.7,0.0797031,0.0793937,6.01271,35,0.00283261,10,0.000477371,-2.22093,0.385116,0.1532,35.9493,0.0793937,
2,1,0,1,0,68167.8,0.0896911,0.0893722,6.33495,35,0.00344997,10,0.000566168,-2.19826,0.470421,0.125419,31.0244,0.0893722,
2,1,0,1,0,68167.9,0.099679,0.0993524,6.67903,35,0.00409876,10,0.000663578,-2.17529,0.38476,0.153342,39.9312,0.0993524,
2,1,0,1,0,68168,0.109667,0.109355,7.15784,35,0.00478817,10,0.000782744,-2.14522,0.284338,0.2075,58.0099,0.109355,
2,1,0,1,0,68168.1,0.119655,0.11933,7.80147,35,0.00553492,10,0.000930947,-2.10782,0.292186,0.201926,61.4372,0.11933,
2,1,0,1,0,68168.2,0.129643,0.129321,8.37519,35,0.00634415,10,0.00108309,-2.07701,0.391334,0.150766,49.2306,0.129321,
2,1,0,1,0,68168.3,0.139631,0.139305,8.73766,35,0.00720133,10,0.0012172,-2.0586,0.76061,0.0775694,26.4509,0.139305,
2,1,0,1,0,68168.4,0.149619,0.149327,8.78209,35,0.00808,10,0.0013114,-2.0564,-0.751049,-0.0785568,-26.8554,0.149327,
2,1,0,1,0,68168.5,0.159607,0.159274,8.07493,35,0.00892935,10,0.00128612,-2.09286,-0.161728,-0.36481,-114.854,0.159274,
2,1,0,1,0,68168.6,0.169595,0.169258,6.76681,35,0.00967216,10,0.00114534,-2.16962,-0.116641,-0.505824,-133.571,0.169258,
2,1,0,1,0,68168.7,0.179582,0.179249,5.64021,35,0.0102885,10,0.001011,-2.2487,-0.14381,-0.410263,-90.5265,0.179249,
2,1,0,1,0,68168.8,0.18957,0.189226,4.93758,35,0.0108144,10,0.000934318,-2.30649,-0.211496,-0.278966,-53.8235,0.189226,
2,1,0,1,0,68168.9,0.199558,0.199228,4.50678,35,0.0112841,10,0.000897876,-2.34613,-0.315886,-0.186776,-32.8248,0.199228,
2,1,0,1,0,68169,0.209546,0.209237,4.23085,35,0.0117195,10,0.000885252,-2.37357,-0.381757,-0.154549,-25.5213,0.209237,
2,1,0,1,0,68169.1,0.219534,0.219219,4.03945,35,0.0121321,10,0.000885523,-2.39368,-0.636895,-0.0926369,-14.6191,0.219219,
2,1,0,1,0,68169.2,0.229522,0.229237,3.91217,35,0.0125295,10,0.000896812,-2.40758,-0.825328,-0.0714867,-10.9183,0.229237,
2,1,0,1,0,68169.3,0.23951,0.239179,3.82393,35,0.0129162,10,0.000914606,-2.41749,-1.2797,-0.0461044,-6.88438,0.239179,
2,1,0,1,0,68169.4,0.249498,0.249206,3.76028,35,0.0132947,10,0.000937087,-2.42478,-1.3753,-0.0428998,-6.29154,0.2492065,
2,1,0,1,0,68169.5,0.259486,0.259165,3.70319,35,0.0136675,10,0.000959738,-2.43142,-1.38353,-0.0426447,-6.15973,0.259165,
2,1,0,1,0,68169.6,0.269474,0.269174,3.64943,35,0.0140353,10,0.000982334,-2.43777,-2.02493,-0.0291368,-4.15536,0.269174,
2,1,0,1,0,68169.7,0.279462,0.279118,3.61025,35,0.0143986,10,0.00100768,-2.44246,-2.08738,-0.0282652,-3.98531,0.279118,
2,1,0,1,0,68169.8,0.28945,0.289126,3.5694,35,0.0147577,10,0.00103201,-2.44741,-1.96681,-0.0299979,-4.17851,0.289126,
2,1,0,1,0,68169.9,0.299438,0.299163,3.52762,35,0.0151122,10,0.00105533,-2.45252,-0.0386641,-1.52596,-196.857,0.299163,
2,0,0,1,0,68170,0.291747,0.291422,-0.419408,35,0.0152058,10,-0.000122225,-3.37736,-0.00140447,-42.0086,183.175,0.291422,
2,0,0,1,0,68170.1,0.281759,0.28144,-1.44914,35,0.015103,10,-0.000407847,-2.83889,-0.0547726,-1.07718,60.299,0.28144,
2,0,0,1,0,68170.2,0.271771,0.271443,-1.88205,35,0.0149345,10,-0.00051087,-2.72537,-0.125501,-0.470117,34.4502,0.271443,
2,0,0,1,0,68170.3,0.261783,0.26142,-2.14984,35,0.0147323,10,-0.000562013,-2.66759,-0.233678,-0.252485,21.1712,0.26142,
2,0,0,1,0,68170.4,0.251795,0.251478,-2.34563,35,0.0145073,10,-0.000589874,-2.62974,-0.306592,-0.192438,17.6348,0.251478,
2,0,0,1,0,68170.5,0.241807,0.241507,-2.50377,35,0.0142644,10,-0.000604678,-2.60141,-0.374154,-0.157689,15.4561,0.241507,
2,0,0,1,0,68170.6,0.231815,0.231507,-2.65065,35,0.0140068,10,-0.000613645,-2.57665,-0.385719,-0.152961,15.8107,0.231507,
2,0,0,1,0,68170.7,0.221831,0.221532,-2.77585,35,0.0137361,10,-0.000614939,-2.5566,-0.469971,-0.12554,13.5896,0.221532,
2,0,0,1,0,68170.8,0.211843,0.211509,-2.89623,35,0.0134528,10,-0.000612578,-2.53817,-0.602594,-0.0979101,11.0576,0.211509,
2,0,0,1,0,68170.9,0.201856,0.201556,-3.01576,35,0.0131575,10,-0.000607846,-2.5206,-0.607757,-0.0970783,11.4181,0.201556,
2,0,0,1,0,68171,0.191868,0.19154,-3.13948,35,0.0128501,10,-0.000601337,-2.50314,-0.548844,-0.107499,13.1697,0.19154,
2,0,0,1,0,68171.1,0.18188,0.181576,-3.27984,35,0.0125303,10,-0.000595538,-2.48415,-0.453412,-0.130125,16.62,0.181576,
2,0,0,1,0,68171.2,0.171892,0.171555,-3.43754,35,0.0121952,10,-0.000589727,-2.46375,-0.487716,-0.120972,16.2282,0.171555,
2,0,0,1,0,68171.3,0.161904,0.161567,-3.64188,35,0.0118422,10,-0.000588406,-2.43867,-0.33604,-0.175574,24.9727,0.161567,
2,0,0,1,0,68171.4,0.151916,0.151614,-3.9439,35,0.0114639,10,-0.000597948,-2.40407,-0.227319,-0.259547,40.0979,0.151614,
2,0,0,1,0,68171.5,0.141928,0.141624,-4.4989,35,0.0110443,10,-0.000637153,-2.34689,-0.137429,-0.429314,75.5155,0.141624,
2,0,0,1,0,68171.6,0.13194,0.131629,-5.4431,35,0.0105514,10,-0.00071647,-2.26415,-0.110881,-0.5321,113.042,0.131629,
2,0,0,1,0,68171.7,0.121952,0.121627,-6.60774,35,0.00994952,10,-0.000803677,-2.17995,-0.135625,-0.435022,111.998,0.121627,
2,0,0,1,0,68171.8,0.111964,0.111635,-7.6597,35,0.00923477,10,-0.000855095,-2.11579,-0.184304,-0.320124,95.6253,0.111635,
2,0,0,1,0,68171.9,0.101976,0.101683,-8.44379,35,0.00842709,10,-0.00085859,-2.07346,-0.33994,-0.17356,57.087,0.101683,
2,0,0,1,0,68172,0.0919883,0.091683,-8.80114,35,0.00756166,10,-0.000806915,-2.05546,-1.34591,-0.0438364,15.0474,0.091683,
2,0,0,1,0,68172.1,0.0820004,0.0816813,-8.73819,35,0.00668289,10,-0.000713747,-2.05858,0.929367,0.063484,-21.6505,0.0816813,
2,0,0,1,0,68172.2,0.0720124,0.0716625,-8.50083,35,0.00582107,10,-0.00060919,-2.07054,0.803808,0.0734007,-24.3667,0.0716625,
2,0,0,1,0,68172.3,0.0620245,0.0616798,-8.29201,35,0.00498243,10,-0.00051145,-2.08134,0.90495,0.065197,-21.0941,0.0616798,
2,0,0,1,0,68172.4,0.0520366,0.0517162,-8.10219,35,0.00416318,10,-0.000419015,-2.0914,0.866351,0.0681017,-21.5236,0.0517162,
2,0,0,1,0,68172.5,0.0420486,0.0416888,-7.87775,35,0.00336433,10,-0.000328414,-2.1036,0.810948,0.0727544,-22.3743,0.0416888,
2,0,0,1,0,68172.6,0.0320607,0.0317277,-7.61312,35,0.00259053,10,-0.000241547,-2.11844,0.576761,0.102295,-30.3731,0.0317277,
2,0,0,1,0,68172.7,0.0220728,0.0216876,-7.28034,35,0.00184611,10,-0.000157893,-2.13785,0.478684,0.123255,-35.0305,0.0216876,
2,0,0,1,0,68172.8,0.0120848,0.0117607,-6.94377,35,0.00113557,10,-8.16635e-05,-2.1584,0.472537,0.124858,-33.832,0.0117607,
2,0,0,1,0,68172.9,0.0020969,0.00173828,-6.70557,35,0.00045651,10,-1.16561e-05,-2.17356,0.935672,0.0630563,-16.4237,0.00173828,
2,0,0,1,0,68173,-0.00789103,-0.00826897,-6.49257,35,-0.000201412,10,5.36869e-05,-2.18758,1.20021,0.0491581,-12.4768,-0.008268971,
2,0,0,1,0,68173.1,-0.017879,-0.018284,-6.44741,35,-0.000846562,10,0.000117884,-2.19061,-88.3414,-0.000667864,0.167848,-0.018284,
2,0,0,1,0,68173.2,-0.0278669,-0.0282857,-6.48409,35,-0.00149189,10,0.000183407,-2.18815,-1.9403,-0.0304076,7.70307,-0.0282857,
2,0,0,1,0,68173.3,-0.0378548,-0.0382456,-6.62117,35,-0.00214623,10,0.000253231,-2.17906,-0.988078,-0.0597119,15.4223,-0.0382456,
2,0,0,1,0,68173.4,-0.0478428,-0.0482033,-6.81129,35,-0.00281701,10,0.000328326,-2.16677,-0.584042,-0.10102,26.8782,-0.0482033,
2,0,0,1,0,68173.5,-0.0578216,-0.058182,-7.07098,35,-0.00350962,10,0.000411404,-2.15052,-0.554555,-0.106392,29.3432,-0.058182,
2,0,0,1,0,68173.6,-0.0678187,-0.0681729,-7.38239,35,-0.00423132,10,0.000503279,-2.1318,-0.459231,-0.128476,37.0059,-0.0681729,
2,0,0,1,0,68173.7,-0.0778066,-0.07816,-7.76031,35,-0.00498765,10,0.000606546,-2.11012,-0.454764,-0.129738,39.3063,-0.07816,
2,0,0,1,0,68173.8,-0.0877945,-0.0881669,-8.21591,35,-0.00578554,10,0.000724371,-2.08534,-0.397441,-0.14845,47.5992,-0.0881669,
2,0,0,1,0,68173.9,-0.0977825,-0.0981188,-8.69547,35,-0.00663067,10,0.00085319,-2.06071,-0.408254,-0.144518,49.0595,-0.0981188,
2,0,0,1,1,68174,-0.0927386,-0.0931105,-3.05702,35,-0.0072098,10,0.000284641,-2.5147,-0.014568,-4.04997,479.35,-0.0931105,
2,1,0,1,1,68174.1,-0.0827529,-0.0831131,0.37158,35,-0.00732488,10,-3.08832e-05,-3.42995,0.00564895,10.4444,246.67,-0.0831131,
2,1,0,1,1,68174.2,-0.0727627,-0.0731364,2.31623,35,-0.00718247,10,-0.000169401,-2.63522,0.0344731,1.71148,152.475,-0.0731364,
2,1,0,1,1,68174.3,-0.0627747,-0.0631539,3.51833,35,-0.00688595,10,-0.000222196,-2.45366,0.0840861,0.701662,96.2143,-0.0631539,
2,1,0,1,1,68174.4,-0.0527868,-0.0532039,4.286,35,-0.00649217,10,-0.000228032,-2.36795,0.168769,0.34959,58.4025,-0.0532039,
2,1,0,1,1,68174.5,-0.0427989,-0.0431573,4.75663,35,-0.0060377,10,-0.000205283,-2.3227,0.289737,0.203633,37.8233,-0.0431573,
2,1,0,1,1,68174.6,-0.0328109,-0.0331343,5.03894,35,-0.00554703,10,-0.000166962,-2.29766,0.587832,0.100369,19.7107,-0.0331343,
2,1,0,1,1,68174.7,-0.022823,-0.0231637,5.16962,35,-0.00503607,10,-0.000119748,-2.28654,1.53734,0.0383779,7.74045,-0.0231637,
2,1,0,1,1,68174.8,-0.0128351,-0.0131906,5.21002,35,-0.00451649,10,-6.87233e-05,-2.28316,-736.007,-8.01623e-05,-0.0163112,-0.0131906,
2,1,0,1,1,68174.9,-0.00284713,-0.00319714,5.21445,35,-0.00399511,10,-1.66713e-05,-2.28279,-3.84995,-0.0153249,-3.11521,-0.00319714,
2,1,0,1,1,68175,-2.55332e-05,-0.000439847,5.22356,35,-0.00384861,10,-2.29757e-06,-2.28203, , , ,-0.000439847,