File: Figure_codes/Fig_3-5/rawdata_trumpetplot_data/after 10th/20221101_1-115_003_TrumpetPlot_ParaChange_from10_every3_14_CV_C01_0.csv
mode,ox/red,error,control changes,counter inc.,time/s,control/V,Ewe/V,<I>/mA,cycle number,(Q-Qo)/C,I Range,P/W,log(|I|),Tafel slope mV/dec,alpha_eff,dI/d(E-IR),E-IR/V,
2,1,0,0,0,1199.11,2.44065e-05,-0.000248974,48.7097,1,0.0000000E+000,10,-1.21275e-05,-1.31238, , , ,-0.000248974,
2,1,0,1,0,1199.12,0.0133084,0.0129754,52.2258,1,0.00066563,10,0.000677648,-1.28212,0.647436,0.0911286,184.946,0.0129754,
2,1,0,1,0,1199.13,0.0273414,0.026995,54.1931,1,0.00141198,10,0.00146294,-1.26606,1.14476,0.0515394,108.687,0.026995,
2,1,0,1,0,1199.15,0.0413245,0.0409658,55.355,1,0.00217946,10,0.00226766,-1.25684,1.85852,0.0317457,68.5041,0.04096584,
2,1,0,1,0,1199.16,0.0553076,0.0549579,56.1583,1,0.00296041,10,0.00308634,-1.25059,2.1341,0.0276463,60.6501,0.0549579,
2,1,0,1,0,1199.18,0.0693407,0.0690231,57.2017,1,0.00375309,10,0.00394824,-1.24259,1.44442,0.0408468,91.1736,0.06902314,
2,1,0,1,0,1199.19,0.0833238,0.0829898,58.5921,1,0.00456323,10,0.00486254,-1.23216,1.09786,0.0537408,123.149,0.0829898,
2,1,0,1,0,1199.2,0.0973069,0.0969829,60.698,1,0.00539767,10,0.00588666,-1.21683,0.773956,0.0762317,181.015,0.0969829,
2,1,0,1,0,1199.22,0.11134,0.110996,63.5917,1,0.00626723,10,0.00705844,-1.1966,0.640937,0.0920527,228.65,0.110996,
2,1,0,1,0,1199.23,0.125323,0.124988,67.0291,1,0.00718126,10,0.00837785,-1.17374,0.583705,0.101078,264.654,0.124988,
2,1,0,1,0,1199.25,0.139306,0.138962,70.9623,1,0.00814709,10,0.00986108,-1.14897,0.542739,0.108708,301.418,0.138962,
2,1,0,1,0,1199.26,0.153339,0.152977,75.4641,1,0.00917201,10,0.0115442,-1.12226,0.514962,0.114571,337.66,0.152977,
2,1,0,1,0,1199.27,0.167322,0.166964,80.4322,1,0.0102632,10,0.0134293,-1.09457,0.499405,0.118141,370.957,0.1669644,
2,1,0,1,0,1199.29,0.181305,0.181001,85.6961,1,0.0114268,10,0.0155111,-1.06704,0.524819,0.11242,375.862,0.181001,
2,1,0,1,0,1199.3,0.195338,0.194995,90.7534,1,0.0126634,10,0.0176965,-1.04214,0.64831,0.0910058,321.522,0.194995,
2,1,0,1,0,1199.32,0.209322,0.209033,94.5279,1,0.0139626,10,0.0197594,-1.02444,1.16669,0.0505704,185.618,0.209033,
2,1,0,1,0,1199.33,0.223305,0.223074,95.4477,1,0.0152971,10,0.0212919,-1.02023,-2.33468,-0.0252712,-93.3542,0.223074,
2,1,0,1,0,1199.34,0.237338,0.237105,91.4257,1,0.0166118,10,0.0216775,-1.03893,-0.418237,-0.141068,-498.009,0.237105,
2,1,0,1,0,1199.36,0.251321,0.251108,81.8889,1,0.0178293,10,0.0205629,-1.08678,-0.231203,-0.255187,-809.122,0.251108,
2,1,0,1,0,1199.37,0.265304,0.265086,69.57,1,0.0188891,10,0.018442,-1.15758,-0.185444,-0.318155,-863.799,0.265086,
2,1,0,1,0,1199.39,0.279337,0.279169,58.3151,1,0.0197808,10,0.0162798,-1.23422,-0.189251,-0.311756,-713.407,0.2791692,
2,1,0,1,0,1199.4,0.29332,0.293111,49.8927,1,0.0205339,10,0.0146241,-1.30196,-0.227467,-0.259378,-511.674,0.293111,
2,1,0,1,0,1199.41,0.298714,0.298759,42.7067,1,0.0209142,10,0.012759,-1.3695,0.0252511,2.33653,3043.92,0.298759,
2,1,0,1,0,1199.42,0.28473,0.284616,12.2397,1,0.0212684,10,0.00348363,-1.91223,0.0151808,3.8865,1516.31,0.2846165,
2,0,0,1,0,1199.44,0.270747,0.270551,-3.08132,1,0.0213201,10,-0.000833656,-2.51126,-0.0575554,-1.0251,809.121,0.270551,
2,0,0,1,0,1199.45,0.256714,0.256506,-11.6599,1,0.0212104,10,-0.00299084,-1.9333,-0.0526079,-1.1215,467.54,0.256506,
2,0,0,1,0,1199.46,0.242731,0.242518,-16.7964,1,0.0210081,10,-0.00407343,-1.77478,-0.127247,-0.463663,296.951,0.242518,
2,0,0,1,0,1199.48,0.228748,0.228517,-20.2241,1,0.0207472,10,-0.00462155,-1.69413,-0.218845,-0.269597,211.214,0.228517,
2,0,0,1,0,1199.49,0.214715,0.214525,-22.8385,1,0.0204443,10,-0.00489941,-1.64133,-0.317407,-0.185881,165.027,0.214525,
2,0,0,1,0,1199.51,0.200732,0.200475,-25.016,1,0.0201089,10,-0.00501509,-1.60178,-0.375579,-0.157091,153.22,0.200475,
2,0,0,1,0,1199.52,0.186735,0.186476,-27.1822,1,0.0197435,10,-0.00506882,-1.56572,-0.38223,-0.154357,163.917,0.186476,
2,0,0,1,0,1199.53,0.172716,0.172449,-29.6519,1,0.0193458,10,-0.00511344,-1.52795,-0.349868,-0.168635,195.686,0.172449,
2,0,0,1,0,1199.55,0.158733,0.158438,-32.8113,1,0.0189095,10,-0.00519855,-1.48398,-0.282262,-0.209025,269.003,0.158438,
2,0,0,1,0,1199.56,0.144719,0.144446,-37.3017,1,0.0184202,10,-0.00538806,-1.42827,-0.227662,-0.259156,379.416,0.1444456,
2,0,0,1,0,1199.58,0.130717,0.130539,-43.512,1,0.0178558,10,-0.00568004,-1.36139,-0.199239,-0.296127,504.473,0.130539,
2,0,0,1,0,1199.59,0.116733,0.116568,-51.3156,1,0.0171929,10,-0.00598173,-1.28975,-0.196816,-0.299772,600.534,0.116568,
2,0,0,1,0,1199.6,0.102703,0.102493,-60.0699,1,0.0164127,10,-0.00615673,-1.22134,-0.22454,-0.26276,613.195,0.102493,
2,0,0,1,0,1199.62,0.0887173,0.0885887,-68.3619,1,0.0155124,10,-0.00605609,-1.16519,-0.278391,-0.211932,563.346,0.0885887,
2,0,0,1,0,1199.63,0.0747341,0.0746359,-75.6458,1,0.0145021,10,-0.00564589,-1.12122,-0.367554,-0.160521,472.186,0.0746359,
2,0,0,1,0,1199.65,0.0607011,0.0605144,-81.6251,1,0.0133992,10,-0.0049395,-1.08818,-0.52869,-0.111597,353.527,0.0605144,
2,0,0,1,0,1199.66,0.046718,0.0465001,-85.3686,1,0.0122272,10,-0.00396965,-1.0687,-1.06033,-0.0556431,184.534,0.0465001,
2,0,0,1,0,1199.67,0.0327349,0.0325112,-86.8053,1,0.0110193,10,-0.00282215,-1.06145,-6.45281,-0.0091433,30.8659,0.0325112,
2,0,0,1,0,1199.69,0.0187018,0.0184428,-86.4692,1,0.00980523,10,-0.00159474,-1.06314,2.95047,0.0199968,-67.3245,0.0184428,
2,0,0,1,0,1199.7,0.00471873,0.00444014,-85.0151,1,0.0086041,10,-0.000377479,-1.0705,1.54216,0.038258,-126.81,0.00444014,
2,0,0,1,0,1199.72,-0.00926438,-0.00960176,-82.8846,1,0.00742783,10,0.000795838,-1.08153,1.01346,0.0582163,-187.938,-0.00960176,
2,0,0,1,0,1199.73,-0.0232974,-0.0236256,-79.8153,1,0.00628829,10,0.00188569,-1.09791,0.708903,0.0832272,-258.492,-0.0236256,
2,0,0,1,0,1199.74,-0.0372805,-0.0376506,-75.6614,1,0.00519952,10,0.0028487,-1.12113,0.558668,0.105608,-311.601,-0.0376506,
2,0,0,1,0,1199.76,-0.0512636,-0.0515769,-71.3341,1,0.00417149,10,0.00367919,-1.1467,0.574645,0.102672,-286.293,-0.0515769,
2,0,0,1,0,1199.77,-0.0652967,-0.0655732,-67.9213,1,0.00319869,10,0.00445382,-1.16799,0.781605,0.0754857,-200.532,-0.0655732,
2,0,0,1,0,1199.79,-0.0792798,-0.0796363,-65.6657,1,0.00226526,10,0.00522938,-1.18266,1.27339,0.046333,-119.051,-0.0796363,
2,0,0,1,0,1199.8,-0.0932629,-0.0935892,-64.5334,1,0.00135514,10,0.00603963,-1.19022,3.13668,0.0188097,-47.4735,-0.0935892,
2,0,0,1,0,1199.81,-0.107296,-0.107629,-64.3233,1,0.000454216,10,0.00692305,-1.19163,-19.1007,-0.00308889,7.76147,-0.107629,
2,0,0,1,0,1199.83,-0.121279,-0.121575,-64.6555,1,-0.000447968,10,0.00786052,-1.18939,-3.61064,-0.0163406,41.276,-0.121575,
2,0,0,1,0,1199.84,-0.135262,-0.135556,-65.4502,1,-0.00135829,10,0.00887216,-1.18409,-2.1367,-0.0276127,70.6006,-0.135556,
2,0,0,1,0,1199.86,-0.149295,-0.149556,-66.6666,1,-0.00228287,10,0.00997042,-1.17609,-1.61226,-0.0365945,95.2299,-0.149556,
2,0,0,1,0,1199.87,-0.163278,-0.163538,-68.0623,1,-0.00322597,10,0.0111308,-1.16709,-1.4606,-0.0403945,107.353,-0.163538,
2,0,0,1,0,1199.88,-0.177261,-0.177565,-69.6632,1,-0.00419002,10,0.0123697,-1.157,-1.3215,-0.0446464,121.428,-0.177565,
2,0,0,1,0,1199.9,-0.191295,-0.191555,-71.5195,1,-0.00517813,10,0.0136999,-1.14558,-1.17654,-0.0501472,139.958,-0.191555,
2,0,0,1,1,1199.91,-0.199984,-0.200456,-72.4413,1,-0.00584921,10,0.0145213,-1.14001,-0.0345928,-1.70556,4175.16,-0.200456,
2,0,0,1,1,1199.92,-0.186686,-0.18714,-42.3678,1,-0.00657606,10,0.00792873,-1.37296,-0.0543577,-1.0854,1792.38,-0.18714,
2,0,0,1,1,1199.93,-0.172667,-0.173067,-21.2423,1,-0.00701143,10,0.00367633,-1.6728,-0.0358625,-1.64517,1301.46,-0.173067,
2,0,0,1,1,1199.95,-0.158684,-0.159122,-5.17892,1,-0.00719015,10,0.000824082,-2.28576,-0.0212698,-2.77389,1025.89,-0.159122,
2,1,0,1,1,1199.96,-0.14467,-0.14515,7.70556,1,-0.00716845,10,-0.00111847,-2.1132,0.0118951,4.96004,835.145,-0.14515,
2,1,0,1,1,1199.98,-0.130668,-0.131182,18.255,1,-0.00698371,10,-0.00239472,-1.73862,0.0579193,1.01866,690.959,-0.131182,
2,1,0,1,1,1199.99,-0.116685,-0.117081,27.0714,1,-0.00666361,10,-0.00316956,-1.56749,0.107069,0.551049,571.158,-0.117081,
2,1,0,1,1,1200,-0.102654,-0.103023,34.4058,1,-0.00623134,10,-0.00354458,-1.46337,0.164948,0.357688,474.814,-0.103023,
2,1,0,1,1,1200.02,-0.0886685,-0.0890464,40.3876,1,-0.00570598,10,-0.00359637,-1.39375,0.237449,0.248475,389.226,-0.0890464,
2,1,0,1,1,1200.03,-0.0746854,-0.0749907,45.3427,1,-0.00510415,10,-0.00340028,-1.34349,0.321673,0.183416,323.319,-0.0749907,
2,1,0,1,1,1200.05,-0.0606523,-0.0610177,49.5199,1,-0.00443916,10,-0.00302159,-1.30522,0.428437,0.13771,264.96,-0.0610177,
2,1,0,1,1,1200.06,-0.0466692,-0.046997,52.8017,1,-0.00372202,10,-0.00248152,-1.27735,0.570151,0.103481,212.664,-0.046997,
2,1,0,1,1,1200.07,-0.0326861,-0.0330399,55.4091,1,-0.00296356,10,-0.00183071,-1.25642,0.776374,0.0759943,164.022,-0.0330399,
2,1,0,1,1,1200.09,-0.018653,-0.0189789,57.4766,1,-0.00217268,10,-0.00109085,-1.24051,1.07538,0.0548644,122.756,-0.0189789,
2,1,0,1,1,1200.1,-0.00466992,-0.00501656,58.8485,1,-0.00135772,10,-0.000295217,-1.23026, , , ,-0.00501656,
2,1,0,1,1,1200.11,-0.000175352,-0.000516197,59.1419,1,-0.00109217,10,-3.05288e-05,-1.2281, , , ,-0.000516197,