File: Figure_codes/Fig_3-5/rawdata_trumpetplot_data/after 10th/20221101_1-115_003_TrumpetPlot_ParaChange_from10_every3_03_CV_C01_20.csv
mode,ox/red,error,control changes,counter inc.,time/s,control/V,Ewe/V,<I>/mA,cycle number,(Q-Qo)/C,I Range,P/W,log(|I|),Tafel slope mV/dec,alpha_eff,dI/d(E-IR),E-IR/V,
2,0,0,1,0,40342.6,2.44065e-05,-0.00042076,-0.104482,21,0.0000000E+000,10,4.3962e-08,-3.98096, , , ,-0.00042076,
2,1,0,1,0,40344.1,0.00729041,0.00697217,0.201921,21,0.000250026,10,1.40783e-06,-3.69482,0.083782,0.704209,5.5011,0.00697217,
2,1,0,1,0,40345.6,0.0147815,0.0144534,0.233021,21,0.000597726,10,3.36795e-06,-3.6326,0.158346,0.372602,3.39617,0.0144534,
2,1,0,1,0,40347.1,0.0222725,0.0219423,0.261068,21,0.00098849,10,5.72844e-06,-3.58325,0.165607,0.356266,3.62398,0.0219423,
2,1,0,1,0,40348.6,0.0297635,0.0293977,0.288314,21,0.00141874,10,8.47577e-06,-3.54013,0.208426,0.283074,3.17229,0.0293977,
2,1,0,1,0,40350.1,0.0372545,0.0368951,0.312695,21,0.00188873,10,1.15369e-05,-3.50488,0.220986,0.266985,3.26911,0.0368951,
2,1,0,1,0,40351.6,0.0447456,0.0444369,0.339481,21,0.0023977,10,1.50855e-05,-3.46918,0.215091,0.274302,3.63493,0.0444369,
2,1,0,1,0,40353.1,0.0522367,0.0518925,0.363172,21,0.00294429,10,1.88459e-05,-3.43989,0.227759,0.259046,3.66917,0.0518925,
2,1,0,1,0,40354.6,0.0597277,0.0593983,0.384661,21,0.00352545,10,2.28482e-05,-3.41492,0.354832,0.166276,2.49565,0.05939829,
2,1,0,1,0,40356.1,0.0672187,0.0669174,0.405793,21,0.00413725,10,2.71546e-05,-3.3917,0.377694,0.156211,2.45972,0.0669174,
2,1,0,1,0,40357.6,0.0747092,0.0744386,0.420087,21,0.00477535,10,3.12707e-05,-3.37666,0.503386,0.117206,1.92213,0.0744386,
2,1,0,0,0,40359.1,0.0822001,0.081889,0.433314,21,0.00543607,10,3.54836e-05,-3.3632,0.487467,0.121034,2.05669,0.081889,
2,1,0,1,0,40360.6,0.0896911,0.0893511,0.454228,21,0.00612143,10,4.05857e-05,-3.34273,0.304371,0.193842,3.44655,0.0893511,
2,1,0,0,0,40362.1,0.097182,0.0968641,0.486203,21,0.00684545,10,4.70956e-05,-3.31318,0.199772,0.295336,5.60115,0.0968641,
2,1,0,1,0,40363.6,0.104673,0.104346,0.52884,21,0.00762428,10,5.51826e-05,-3.27668,0.211787,0.278582,5.71729,0.104346,
2,1,0,0,0,40365.1,0.112164,0.111817,0.564719,21,0.00846327,10,6.31451e-05,-3.24817,0.355674,0.165882,3.64745,0.1118169,
2,1,0,1,0,40366.5,0.119655,0.119346,0.591083,21,0.00934994,10,7.05433e-05,-3.22835,0.571238,0.103284,2.38163,0.119346,
2,1,0,0,0,40368,0.127146,0.12684,0.606377,21,0.0102702,10,7.69127e-05,-3.21726,0.856868,0.0688554,1.63597,0.12684,
2,1,0,1,0,40369.5,0.134637,0.134325,0.60717,21,0.0112076,10,8.15581e-05,-3.21669,-0.395062,-0.149344,-3.53574,0.134325,
2,1,0,1,0,40371,0.142127,0.141822,0.546325,21,0.0121005,10,7.74808e-05,-3.26255,-0.110046,-0.536137,-11.3814,0.141822,
2,1,0,1,0,40372.5,0.149618,0.149297,0.441026,21,0.0128599,10,6.58437e-05,-3.35554,-0.0789597,-0.747217,-12.8794,0.1492966,
2,1,0,1,0,40374,0.157109,0.156777,0.365936,21,0.0134779,10,5.73703e-05,-3.43659,-0.122264,-0.482563,-6.91344,0.156777,
2,1,0,1,0,40375.5,0.1646,0.164286,0.33397,21,0.0140182,10,5.48665e-05,-3.47629,-0.241205,-0.244605,-3.18773,0.164286,
2,1,0,1,0,40377,0.172091,0.171733,0.315474,21,0.0145224,10,5.41772e-05,-3.50104,-0.4227,-0.139579,-1.72603,0.171733,
2,1,0,1,0,40378.5,0.179582,0.179257,0.306837,21,0.0150075,10,5.50026e-05,-3.51309,-0.626294,-0.094205,-1.12961,0.1792568,
2,1,0,1,0,40380,0.187074,0.186757,0.300891,21,0.0154809,10,5.61935e-05,-3.52159,-1.12247,-0.0525625,-0.615626,0.186757,
2,1,0,1,0,40381.5,0.194564,0.194301,0.296637,21,0.0159463,10,5.76367e-05,-3.52777,-1.12538,-0.0524269,-0.605829,0.194301,
2,1,0,1,0,40383,0.202056,0.201735,0.293199,21,0.0164062,10,5.91487e-05,-3.53284,-1.34195,-0.043966,-0.501338,0.201735,
2,1,0,1,0,40384.5,0.209547,0.209227,0.290072,21,0.0168614,10,6.06911e-05,-3.53749,-1.70664,-0.0345708,-0.391293,0.209227,
2,1,0,1,0,40386,0.217038,0.216724,0.287623,21,0.0173123,10,6.23348e-05,-3.54118,-2.21919,-0.0265862,-0.298569,0.216724,
2,1,0,1,0,40387.5,0.224529,0.22418,0.285317,21,0.0177599,10,6.39624e-05,-3.54467,-5.10622,-0.0115545,-0.128494,0.2241801,
2,1,0,1,0,40389,0.232019,0.231671,0.283171,21,0.0182035,10,6.56026e-05,-3.54795,-3.3923,-0.0173923,-0.19208,0.231671,
2,1,0,0,0,40390.5,0.23951,0.239189,0.281788,21,0.0186446,10,6.74004e-05,-3.55008,-1.23794,-0.04766,-0.523945,0.239189,
2,1,0,1,0,40392,0.247001,0.246694,0.279431,21,0.0190829,10,6.89339e-05,-3.55373,-1.3002,-0.0453778,-0.495232,0.246694,
2,1,0,0,0,40393.5,0.254492,0.254153,0.277584,21,0.0195185,10,7.05489e-05,-3.5566,-1.64626,-0.0358388,-0.388644,0.254153,
2,1,0,1,0,40395,0.261983,0.261677,0.276089,21,0.0199515,10,7.22459e-05,-3.55895,-1.80157,-0.0327491,-0.35268,0.2616767,
2,1,0,0,0,40396.5,0.269474,0.269163,0.274503,21,0.0203822,10,7.38861e-05,-3.56145,-5.36497,-0.0109973,-0.11787,0.269163,
2,1,0,1,0,40398,0.276965,0.276652,0.272938,21,0.0208106,10,7.55087e-05,-3.56394,-2.51192,-0.023488,-0.250495,0.276652,
2,1,0,0,0,40399.5,0.284456,0.284133,0.271496,21,0.0212359,10,7.71411e-05,-3.56624,-3.4338,-0.0171821,-0.181591,0.284133,
2,1,0,1,0,40401,0.291947,0.291693,0.268777,21,0.0216584,10,7.84003e-05,-3.57061,-3.39697,-0.0173684,-0.182784,0.291693,
2,1,0,1,0,40402.5,0.299437,0.299155,0.266855,21,0.0220782,10,7.98311e-05,-3.57372,-0.00266816,-22.1127,-118.385,0.299155,
2,0,0,1,0,40403.9,0.293744,0.293398,-0.0182329,21,0.0221193,10,-5.34949e-06,-4.73915,-0.00489017,-12.065,5.80225,0.293398,
2,0,0,1,0,40405.4,0.286253,0.285976,-0.047264,21,0.0220507,10,-1.35164e-05,-4.32547,-0.0350097,-1.68525,3.1666,0.285976,
2,0,0,0,0,40406.9,0.278763,0.278485,-0.0690139,21,0.0219443,10,-1.92194e-05,-4.16106,-0.0686464,-0.859477,2.28382,0.278485,
2,0,0,1,0,40408.4,0.271272,0.270985,-0.0856899,21,0.0218102,10,-2.32207e-05,-4.06707,-0.0792912,-0.744093,2.45761,0.270985,
2,0,0,0,0,40409.9,0.263781,0.26346,-0.099319,21,0.021653,10,-2.61666e-05,-4.00297,-0.142928,-0.412795,1.60034,0.26346,
2,0,0,1,0,40411.4,0.25629,0.255938,-0.111227,21,0.0214767,10,-2.84672e-05,-3.95379,-0.212656,-0.277444,1.20054,0.255938,
2,0,0,0,0,40412.9,0.248799,0.24848,-0.121898,21,0.0212841,10,-3.02892e-05,-3.914,-0.201855,-0.292289,1.39516,0.24848,
2,0,0,1,0,40414.4,0.241308,0.240982,-0.131076,21,0.0210759,10,-3.1587e-05,-3.88248,-0.220704,-0.267327,1.37565,0.240982,
2,0,0,0,0,40415.9,0.233817,0.233511,-0.140043,21,0.0208534,10,-3.27015e-05,-3.85374,-0.268897,-0.219415,1.20482,0.233511,
2,0,0,1,0,40417.4,0.226326,0.226038,-0.148982,21,0.0206177,10,-3.36756e-05,-3.82686,-0.311472,-0.189423,1.10668,0.2260375,
2,0,0,0,0,40418.9,0.218835,0.218499,-0.158202,21,0.0203686,10,-3.4567e-05,-3.80079,-0.301544,-0.19566,1.20439,0.218499,
2,0,0,1,0,40420.4,0.211344,0.210991,-0.166622,21,0.0201067,10,-3.51558e-05,-3.77827,-0.423944,-0.139169,0.901503,0.210991,
2,0,0,1,0,40421.9,0.203854,0.203567,-0.17515,21,0.0198313,10,-3.56547e-05,-3.75659,-0.409019,-0.144248,0.989416,0.203567,
2,0,0,1,0,40423.4,0.196363,0.196039,-0.185125,21,0.0195424,10,-3.62916e-05,-3.73254,-0.323851,-0.182183,1.30971,0.196039,
2,0,0,1,0,40424.8,0.188871,0.188515,-0.195165,21,0.0192382,10,-3.67916e-05,-3.7096,-0.227006,-0.259905,1.97453,0.188515,
2,0,0,1,0,40426.3,0.181381,0.181058,-0.206738,21,0.0189174,10,-3.74317e-05,-3.68458,-0.238383,-0.247501,1.99692,0.181058,
2,0,0,1,0,40427.8,0.173889,0.173534,-0.221413,21,0.0185775,10,-3.84227e-05,-3.6548,-0.278752,-0.211658,1.82136,0.173534,
2,0,0,1,0,40429.3,0.166398,0.166069,-0.238002,21,0.0182145,10,-3.95248e-05,-3.62342,-0.210627,-0.280116,2.61653,0.1660693,
2,0,0,1,0,40430.8,0.158907,0.158566,-0.260289,21,0.0178215,10,-4.1273e-05,-3.58454,-0.149298,-0.395183,4.04232,0.1585658,
2,0,0,1,0,40432.3,0.151416,0.151108,-0.296328,21,0.0173864,10,-4.47776e-05,-3.52823,-0.113951,-0.517765,5.99795,0.151108,
2,0,0,1,0,40433.8,0.143925,0.143606,-0.354716,21,0.0168825,10,-5.09392e-05,-3.45012,-0.0766048,-0.770187,10.6577,0.143606,
2,0,0,1,0,40435.3,0.136434,0.136099,-0.44082,21,0.0162687,10,-5.9995e-05,-3.35574,-0.0776314,-0.760002,13.0544,0.136099,
2,0,0,1,0,40436.8,0.128943,0.128647,-0.533666,21,0.0155163,10,-6.86546e-05,-3.27273,-0.116496,-0.506457,10.4883,0.128647,
2,0,0,0,0,40438.3,0.121453,0.12112,-0.59647,21,0.0146434,10,-7.22444e-05,-3.22441,-0.260336,-0.22663,5.2636,0.12112,
2,0,0,1,0,40439.8,0.113962,0.113644,-0.61529,21,0.0137085,10,-6.9924e-05,-3.21092,-29.2665,-0.00201596,0.0484757,0.113644,
2,0,0,0,0,40441.3,0.106471,0.106146,-0.612352,21,0.0127663,10,-6.49986e-05,-3.213,1.56216,0.0377683,-0.903951,0.106146,
2,0,0,1,0,40442.8,0.0989798,0.0986657,-0.599991,21,0.0118378,10,-5.91985e-05,-3.22186,0.8335,0.0707858,-1.6513,0.0986657,
2,0,0,0,0,40444.3,0.0914889,0.0912015,-0.584564,21,0.0109314,10,-5.33132e-05,-3.23317,0.604667,0.0975744,-2.21491,0.0912015,
2,0,0,1,0,40445.8,0.083998,0.0836642,-0.562618,21,0.0100526,10,-4.7071e-05,-3.24979,0.426242,0.138419,-3.03666,0.0836642,
2,0,0,0,0,40447.3,0.076507,0.0761766,-0.543358,21,0.00920414,10,-4.13912e-05,-3.26491,0.483444,0.122041,-2.58527,0.0761766,
2,0,0,1,0,40448.8,0.069016,0.0686955,-0.523548,21,0.00838419,10,-3.59654e-05,-3.28104,0.589689,0.100053,-2.05419,0.0686955,
2,0,0,0,0,40450.3,0.0615251,0.0612313,-0.508542,21,0.00758928,10,-3.11387e-05,-3.29367,0.581854,0.1014,-2.01751,0.0612313,
2,0,0,1,0,40451.8,0.0540342,0.0537596,-0.491848,21,0.0068191,10,-2.64416e-05,-3.30817,0.579343,0.10184,-1.95708,0.0537596,
2,0,0,1,0,40453.3,0.0465436,0.0461783,-0.475074,21,0.00607363,10,-2.19381e-05,-3.32324,0.509772,0.115738,-2.1491,0.0461783,
2,0,0,1,0,40454.8,0.0390526,0.0386905,-0.459549,21,0.00535373,10,-1.77802e-05,-3.33767,0.405931,0.145345,-2.59672,0.0386905,
2,0,0,1,0,40456.3,0.0315615,0.0312665,-0.443362,21,0.0046594,10,-1.38623e-05,-3.35324,0.424858,0.13887,-2.39442,0.0312665,
2,0,0,1,0,40457.8,0.0240706,0.023781,-0.427249,21,0.00398894,10,-1.01604e-05,-3.36932,0.604255,0.0976409,-1.63228,0.023781,
2,0,0,1,0,40459.3,0.0165795,0.0162341,-0.417748,21,0.00333727,10,-6.78177e-06,-3.37909,1.95014,0.0302542,-0.492849,0.0162341,
2,0,0,1,0,40460.8,0.00908846,0.00879629,-0.412141,21,0.00269649,10,-3.62531e-06,-3.38495,13.731,0.00429684,-0.0692944,0.00879629,
2,0,0,1,0,40462.3,0.00159739,0.00124715,-0.417776,21,0.00205678,10,-5.21029e-07,-3.37906, , , ,0.00124715,
2,0,0,0,0,40462.6,0.000199195,-0.000184077,-0.415785,21,0.00193664,10,7.65367e-08,-3.38113, , , ,-0.000184077,