File: Figure_codes/Fig_3-5/rawdata_trumpetplot_data/after 10th/20221101_1-115_003_TrumpetPlot_ParaChange_from10_every3_03_CV_C01_12.csv
mode,ox/red,error,control changes,counter inc.,time/s,control/V,Ewe/V,<I>/mA,cycle number,(Q-Qo)/C,I Range,P/W,log(|I|),Tafel slope mV/dec,alpha_eff,dI/d(E-IR),E-IR/V,
2,0,0,1,0,24581.6,2.44065e-05,-0.000344411,-0.121655,13,0.0000000E+000,10,4.18994e-08,-3.91487, , , ,-0.000344411,
2,1,0,1,0,24583,0.00729041,0.00699237,0.204906,13,0.000265472,10,1.43278e-06,-3.68845,0.0777911,0.758441,6.0231,0.00699237,
2,1,0,1,0,24584.5,0.0147815,0.0144355,0.237777,13,0.000623927,10,3.43243e-06,-3.62383,0.131403,0.448999,4.16929,0.0144355,
2,1,0,1,0,24586,0.0222725,0.0219824,0.266425,13,0.00102744,10,5.85667e-06,-3.57443,0.176094,0.335047,3.48399,0.0219824,
2,1,0,1,0,24587.5,0.0297635,0.0294181,0.293935,13,0.00147113,10,8.647e-06,-3.53175,0.188853,0.312412,3.5664,0.0294181,
2,1,0,1,0,24589,0.0372545,0.0368992,0.320221,13,0.00195592,10,1.18159e-05,-3.49455,0.212273,0.277944,3.4804,0.0368992,
2,1,0,1,0,24590.5,0.0447456,0.0443785,0.34617,13,0.00248061,10,1.53625e-05,-3.46071,0.220001,0.26818,3.61331,0.0443785,
2,1,0,1,0,24592,0.0522367,0.0518767,0.370351,13,0.00304329,10,1.92126e-05,-3.43139,0.241977,0.243825,3.52182,0.0518767,
2,1,0,1,0,24593.5,0.0597277,0.0594355,0.393095,13,0.00364148,10,2.33638e-05,-3.4055,0.283315,0.208248,3.18918,0.0594355,
2,1,0,1,0,24595,0.0672187,0.0669176,0.414771,13,0.0042717,10,2.77555e-05,-3.38219,0.433648,0.136055,2.19342,0.0669176,
2,1,0,1,0,24596.5,0.0747092,0.0744153,0.43012,13,0.00492912,10,3.20075e-05,-3.36641,0.552747,0.10674,1.79194,0.0744153,
2,1,0,0,0,24598,0.0822001,0.0818774,0.445619,13,0.00561093,10,3.64861e-05,-3.35104,0.50166,0.11761,2.04766,0.0818774,
2,1,0,1,0,24599.5,0.0896911,0.0893575,0.467789,13,0.00631923,10,4.18004e-05,-3.32995,0.276925,0.213054,3.89753,0.0893575,
2,1,0,0,0,24601,0.097182,0.0968503,0.501504,13,0.00706988,10,4.85709e-05,-3.29973,0.183996,0.32066,6.27093,0.0968503,
2,1,0,1,0,24602.5,0.104673,0.104397,0.547734,13,0.00787978,10,5.7182e-05,-3.26143,0.210662,0.28007,5.9551,0.104397,
2,1,0,0,0,24604,0.112164,0.111839,0.584813,13,0.00875325,10,6.5405e-05,-3.23298,0.333532,0.176894,4.02393,0.111839,
2,1,0,1,0,24605.5,0.119655,0.11935,0.612028,13,0.00967649,10,7.30456e-05,-3.21323,0.536755,0.10992,2.62657,0.11935,
2,1,0,0,0,24607,0.127146,0.126825,0.632795,13,0.0106382,10,8.02541e-05,-3.19874,0.524713,0.112442,2.78617,0.126825,
2,1,0,1,0,24608.5,0.134637,0.134275,0.636333,13,0.0116255,10,8.54438e-05,-3.19632,-0.411975,-0.143212,-3.55587,0.134275,
2,1,0,1,0,24610,0.142127,0.141843,0.572901,13,0.0125688,10,8.1262e-05,-3.24192,-0.103894,-0.567886,-12.6373,0.141843,
2,1,0,1,0,24611.5,0.149618,0.149284,0.458602,13,0.0133684,10,6.84618e-05,-3.33856,-0.0757988,-0.778377,-13.9621,0.1492839,
2,1,0,1,0,24613,0.157109,0.156796,0.378998,13,0.0140151,10,5.94254e-05,-3.42136,-0.108563,-0.543463,-8.03529,0.156796,
2,1,0,1,0,24614.5,0.1646,0.164308,0.341921,13,0.0145763,10,5.61803e-05,-3.46607,-0.239455,-0.246393,-3.28293,0.164308,
2,1,0,1,0,24616,0.172091,0.171774,0.322164,13,0.0150965,10,5.53395e-05,-3.49192,-0.361358,-0.163273,-2.05725,0.171774,
2,1,0,1,0,24617.5,0.179582,0.179256,0.31031,13,0.0155939,10,5.56247e-05,-3.5082,-0.566889,-0.104077,-1.26181,0.179256,
2,1,0,1,0,24619,0.187074,0.186744,0.303005,13,0.0160774,10,5.65844e-05,-3.51855,-1.56843,-0.0376171,-0.444121,0.1867443,
2,1,0,1,0,24620.5,0.194564,0.19421,0.297779,13,0.0165513,10,5.78318e-05,-3.52611,-1.94211,-0.0303793,-0.353105,0.19421,
2,1,0,1,0,24622,0.202056,0.201693,0.293077,13,0.0170175,10,5.91115e-05,-3.53302,-1.04927,-0.0562295,-0.642682,0.201693,
2,1,0,1,0,24623.5,0.209547,0.209216,0.290001,13,0.0174781,10,6.06726e-05,-3.5376,-1.2287,-0.0480183,-0.54264,0.209216,
2,1,0,1,0,24625,0.217038,0.216716,0.285759,13,0.017933,10,6.19286e-05,-3.544,-1.95109,-0.0302395,-0.338297,0.216716,
2,1,0,1,0,24626.5,0.224529,0.224207,0.283845,13,0.0183835,10,6.36399e-05,-3.54692,-3.1499,-0.0187307,-0.207285,0.224207,
2,1,0,1,0,24628,0.232019,0.231715,0.28013,13,0.0188298,10,6.49104e-05,-3.55264,-2.63645,-0.0223786,-0.246265,0.231715,
2,1,0,0,0,24629.5,0.23951,0.239223,0.279002,13,0.0192731,10,6.67436e-05,-3.55439,32.1462,0.00183537,0.0200102,0.239223,
2,1,0,1,0,24631,0.247001,0.246673,0.277135,13,0.0197135,10,6.83618e-05,-3.55731,-2.10975,-0.0279654,-0.302823,0.246673,
2,1,0,0,0,24632.5,0.254492,0.254217,0.274925,13,0.0201505,10,6.98907e-05,-3.56079,-1.24615,-0.0473458,-0.508777,0.254217,
2,1,0,1,0,24634,0.261983,0.261634,0.273212,13,0.0205846,10,7.14815e-05,-3.5635,-4.67296,-0.0126258,-0.134861,0.261634,
2,1,0,0,0,24635.5,0.269474,0.26914,0.271602,13,0.0210163,10,7.30991e-05,-3.56607,-6.70137,-0.00880417,-0.0932204,0.26914,
2,1,0,1,0,24637,0.276965,0.276668,0.268982,13,0.0214449,10,7.44186e-05,-3.57028,-4.76837,-0.0123732,-0.130186,0.276668,
2,1,0,0,0,24638.5,0.284456,0.284127,0.267598,13,0.0218702,10,7.60317e-05,-3.57252,-3.68563,-0.0160081,-0.167012,0.284127,
2,1,0,1,0,24640,0.291947,0.291591,0.266021,13,0.0222925,10,7.75693e-05,-3.57508,-4.11465,-0.014339,-0.149093,0.291591,
2,1,0,1,0,24641.5,0.299437,0.29912,0.263519,13,0.0227124,10,7.8824e-05,-3.57919,-0.00249202,-23.6756,-118.707,0.29912,
2,0,0,1,0,24642.8,0.293744,0.293442,-0.0166616,13,0.0227462,10,-4.88922e-06,-4.77828,-0.00455991,-12.9388,5.72895,0.293442,
2,0,0,1,0,24644.3,0.286253,0.285928,-0.045772,13,0.0226746,10,-1.30875e-05,-4.3394,-0.0361747,-1.63097,2.92446,0.285928,
2,0,0,0,0,24645.8,0.278763,0.278479,-0.0662739,13,0.0225662,10,-1.84559e-05,-4.17866,-0.0706091,-0.835586,2.16232,0.278479,
2,0,0,1,0,24647.3,0.271272,0.270949,-0.0823566,13,0.022431,10,-2.23144e-05,-4.0843,-0.0981187,-0.601312,1.92669,0.270949,
2,0,0,0,0,24648.8,0.263781,0.263509,-0.0965584,13,0.0222735,10,-2.5444e-05,-4.01521,-0.131987,-0.447014,1.67867,0.263509,
2,0,0,1,0,24650.3,0.25629,0.25597,-0.108536,13,0.0220969,10,-2.77818e-05,-3.96443,-0.189105,-0.311995,1.30799,0.25597,
2,0,0,0,0,24651.8,0.248799,0.248515,-0.118927,13,0.0219036,10,-2.95551e-05,-3.92472,-0.19255,-0.306414,1.41417,0.248515,
2,0,0,1,0,24653.3,0.241308,0.241,-0.128351,13,0.0216949,10,-3.09326e-05,-3.8916,-0.202839,-0.290871,1.45817,0.241,
2,0,0,0,0,24654.8,0.233817,0.233503,-0.137543,13,0.0214719,10,-3.21166e-05,-3.86156,-0.363912,-0.162127,0.864596,0.233503,
2,0,0,1,0,24656.3,0.226326,0.226048,-0.14581,13,0.0212353,10,-3.296e-05,-3.83621,-0.293879,-0.200763,1.15159,0.226048,
2,0,0,0,0,24657.8,0.218835,0.21857,-0.155082,13,0.0209857,10,-3.38963e-05,-3.80944,-0.319951,-0.184403,1.11222,0.21857,
2,0,0,1,0,24659.3,0.211344,0.211049,-0.164221,13,0.0207228,10,-3.46586e-05,-3.78457,-0.320223,-0.184247,1.17808,0.211049,
2,0,0,1,0,24660.8,0.203854,0.203516,-0.172661,13,0.020446,10,-3.51393e-05,-3.76281,-0.298234,-0.197831,1.3366,0.203516,
2,0,0,1,0,24662.3,0.196363,0.196031,-0.182986,13,0.0201549,10,-3.58709e-05,-3.73758,-0.302212,-0.195227,1.38607,0.196031,
2,0,0,1,0,24663.8,0.188871,0.188543,-0.192099,13,0.0198479,10,-3.62188e-05,-3.71648,-0.271294,-0.217476,1.63782,0.188543,
2,0,0,1,0,24665.3,0.181381,0.181067,-0.207354,13,0.0195238,10,-3.7545e-05,-3.68329,-0.244282,-0.241524,1.94129,0.181067,
2,0,0,1,0,24666.8,0.173889,0.173546,-0.220894,13,0.0191791,10,-3.83354e-05,-3.65582,-0.225622,-0.261499,2.25518,0.173546,
2,0,0,1,0,24668.3,0.166398,0.16605,-0.241294,13,0.0188083,10,-4.0067e-05,-3.61745,-0.215735,-0.273484,2.58055,0.16605,
2,0,0,1,0,24669.8,0.158907,0.158557,-0.265999,13,0.018403,10,-4.2176e-05,-3.57512,-0.140484,-0.419976,4.40458,0.158557,
2,0,0,1,0,24671.3,0.151416,0.151107,-0.311536,13,0.0179464,10,-4.70752e-05,-3.50649,-0.0980329,-0.601839,7.32591,0.151107,
2,0,0,1,0,24672.8,0.143925,0.143626,-0.382068,13,0.0174053,10,-5.48748e-05,-3.41786,-0.0693951,-0.850204,12.6946,0.143626,
2,0,0,1,0,24674.3,0.136434,0.136109,-0.4863,13,0.0167323,10,-6.61901e-05,-3.3131,-0.0782166,-0.754316,14.2063,0.136109,
2,0,0,1,0,24675.8,0.128943,0.128633,-0.584137,13,0.0159011,10,-7.51395e-05,-3.23349,-0.129654,-0.455056,10.3239,0.128633,
2,0,0,0,0,24677.3,0.121453,0.12117,-0.639214,13,0.0149508,10,-7.74533e-05,-3.19435,-0.359427,-0.16415,4.08737,0.12117,
2,0,0,1,0,24678.8,0.113962,0.113616,-0.645996,13,0.013955,10,-7.33957e-05,-3.18977,1.3019,0.0453185,-1.14431,0.113616,
2,0,0,0,0,24680.3,0.106471,0.106186,-0.633715,13,0.012967,10,-6.72918e-05,-3.19811,0.775178,0.0761116,-1.88596,0.106186,
2,0,0,1,0,24681.8,0.0989799,0.0986562,-0.614144,13,0.0120048,10,-6.05891e-05,-3.21173,0.688883,0.0856459,-2.04722,0.0986562,
2,0,0,0,0,24683.3,0.0914889,0.0911867,-0.592189,13,0.0110747,10,-5.39998e-05,-3.22754,0.425402,0.138692,-3.1979,0.0911867,
2,0,0,1,0,24684.8,0.083998,0.0836631,-0.567988,13,0.0101802,10,-4.75196e-05,-3.24566,0.359958,0.163908,-3.62966,0.0836631,
2,0,0,0,0,24686.3,0.076507,0.0761989,-0.548134,13,0.00931921,10,-4.17672e-05,-3.26111,0.430714,0.136982,-2.92509,0.0761989,
2,0,0,1,0,24687.8,0.0690161,0.0686849,-0.527305,13,0.00848842,10,-3.62179e-05,-3.27794,0.591077,0.0998177,-2.06336,0.0686849,
2,0,0,0,0,24689.3,0.0615251,0.0612111,-0.513061,13,0.0076832,10,-3.1405e-05,-3.28983,0.626157,0.0942255,-1.88662,0.0612111,
2,0,0,1,0,24690.8,0.0540342,0.0537088,-0.49601,13,0.00690316,10,-2.66401e-05,-3.30451,0.541447,0.108967,-2.10493,0.0537088,
2,0,0,1,0,24692.3,0.0465436,0.0462492,-0.47701,13,0.00614852,10,-2.20613e-05,-3.32147,0.510301,0.115618,-2.16138,0.0462492,
2,0,0,1,0,24693.8,0.0390526,0.0387296,-0.461065,13,0.00541936,10,-1.78569e-05,-3.33624,0.3844,0.153486,-2.7567,0.0387296,
2,0,0,1,0,24695.3,0.0315615,0.0312461,-0.444082,13,0.00471708,10,-1.38758e-05,-3.35254,0.45565,0.129485,-2.24048,0.03124612,
2,0,0,1,0,24696.8,0.0240706,0.0237547,-0.426523,13,0.00403928,10,-1.01319e-05,-3.37006,0.710285,0.0830652,-1.39179,0.0237547,
2,0,0,1,0,24698.3,0.0165795,0.0163062,-0.417015,13,0.00338138,10,-6.79992e-06,-3.37985,1.09902,0.0536841,-0.876498,0.0163062,
2,0,0,1,0,24699.8,0.00908846,0.00878568,-0.412387,13,0.00273581,10,-3.6231e-06,-3.3847,1.73592,0.0339878,-0.548046,0.00878568,
2,0,0,1,0,24701.3,0.00159739,0.0012334,-0.417334,13,0.00209168,10,-5.14738e-07,-3.37952, , , ,0.0012334,
2,0,0,0,0,24701.5,0.000199195,-0.000142085,-0.414524,13,0.00197093,10,5.88978e-08,-3.38245, , , ,-0.000142085,