File: Figure_codes/Fig_3-5/rawdata_trumpetplot_data/after 10th/20221101_1-115_003_TrumpetPlot_ParaChange_from10_every3_10_CV_C01_21.csv
mode,ox/red,error,control changes,counter inc.,time/s,control/V,Ewe/V,<I>/mA,cycle number,(Q-Qo)/C,I Range,P/W,log(|I|),Tafel slope mV/dec,alpha_eff,dI/d(E-IR),E-IR/V,
2,1,0,0,0,42563.3,-2.44065e-05,-0.0002108,5.1873,22,0.0000000E+000,10,-1.09348e-06,-2.28506, , , ,-0.0002108,
2,1,0,1,0,42563.3,0.00977853,0.00946127,7.61741,22,0.000324697,10,7.20703e-05,-2.11819,0.119412,0.494087,146.407,0.00946127,
2,1,0,1,0,42563.4,0.0197755,0.0194179,8.73212,22,0.000735825,10,0.00016956,-2.05888,0.233,0.253219,86.1594,0.0194179,
2,1,0,1,0,42563.4,0.0297726,0.0294335,9.46034,22,0.00119161,10,0.000278451,-2.02409,0.347258,0.169902,62.7323,0.0294335,
2,1,0,1,0,42563.5,0.0397514,0.0394248,10.0837,22,0.00167945,10,0.000397548,-1.99638,0.358972,0.164358,64.6531,0.0394248,
2,1,0,1,0,42563.5,0.0497394,0.0493989,10.6962,22,0.0021977,10,0.000528381,-1.97077,0.400358,0.147368,61.478,0.0493989,
2,1,0,1,0,42563.6,0.0597364,0.0593928,11.322,22,0.00274787,10,0.000672445,-1.94608,0.388528,0.151855,67.0516,0.0593928,
2,1,0,1,0,42563.6,0.0697152,0.0693784,11.9738,22,0.00332907,10,0.000830722,-1.92177,0.417974,0.141157,66.0053,0.0693784,
2,1,0,1,0,42563.7,0.0796941,0.0793408,12.6294,22,0.0039431,10,0.00100203,-1.89862,0.447999,0.131697,64.872,0.0793408,
2,1,0,1,0,42563.7,0.0896911,0.0893478,13.2473,22,0.00459014,10,0.00118362,-1.87787,0.498477,0.118361,61.2338,0.0893478,
2,1,0,1,0,42563.8,0.099679,0.0993304,13.8478,22,0.00526628,10,0.00137551,-1.85862,0.548124,0.10764,58.1133,0.0993304,
2,1,0,1,0,42563.8,0.109658,0.109339,14.4657,22,0.00597206,10,0.00158167,-1.83966,0.474818,0.124258,70.1914,0.109339,
2,1,0,1,0,42563.9,0.119655,0.119339,15.2842,22,0.00671504,10,0.001824,-1.81576,0.397261,0.148517,88.5858,0.119339,
2,1,0,1,0,42563.9,0.129652,0.129334,16.2386,22,0.00750294,10,0.0021002,-1.78945,0.379216,0.155584,98.6468,0.129334,
2,1,0,1,0,42564,0.139631,0.139274,17.1763,22,0.00833741,10,0.00239221,-1.76507,0.462502,0.127567,85.4629,0.139274,
2,1,0,1,0,42564,0.149619,0.149267,17.9055,22,0.00921374,10,0.0026727,-1.74701,0.686182,0.085983,60.0564,0.149267,
2,1,0,1,0,42564.1,0.159616,0.159309,18.2053,22,0.0101191,10,0.00290026,-1.7398,-5.76171,-0.01024,-7.26881,0.159309,
2,1,0,1,0,42564.1,0.169595,0.169254,17.6143,22,0.0110175,10,0.0029813,-1.75413,-0.340234,-0.17341,-119.055,0.169254,
2,1,0,1,0,42564.2,0.179573,0.179253,15.9094,22,0.0118576,10,0.00285182,-1.79835,-0.170416,-0.346212,-214.774,0.179253,
2,1,0,1,0,42564.2,0.18957,0.189256,13.743,22,0.0125987,10,0.00260095,-1.86192,-0.153201,-0.385116,-206.805,0.189256,
2,1,0,1,0,42564.3,0.199558,0.199252,11.9434,22,0.0132372,10,0.00237973,-1.92287,-0.184362,-0.320022,-149.178,0.199252,
2,1,0,1,0,42564.3,0.209537,0.209192,10.6672,22,0.0137991,10,0.00223149,-1.97195,-0.226759,-0.260189,-108.452,0.209192,
2,1,0,1,0,42564.4,0.219534,0.219183,9.78829,22,0.014309,10,0.00214543,-2.00929,-0.308926,-0.190984,-72.9307,0.219183,
2,1,0,1,0,42564.4,0.229531,0.229242,9.15494,22,0.014782,10,0.0020987,-2.03834,-0.396742,-0.148711,-53.2269,0.229242,
2,1,0,1,0,42564.5,0.23951,0.23922,8.72,22,0.0152275,10,0.00208599,-2.05948,-0.550934,-0.107091,-36.4271,0.23922,
2,1,0,1,0,42564.5,0.249498,0.249202,8.37136,22,0.0156535,10,0.00208616,-2.0772,-0.63864,-0.0923838,-30.2053,0.2492023,
2,1,0,1,0,42564.6,0.259495,0.259212,8.11929,22,0.0160653,10,0.00210462,-2.09048,-0.746182,-0.0790692,-25.0079,0.2592119,
2,1,0,1,0,42564.6,0.269474,0.269141,7.88743,22,0.0164644,10,0.00212283,-2.10306,-0.941534,-0.0626637,-19.3241,0.269141,
2,1,0,1,0,42564.7,0.279453,0.279185,7.71825,22,0.0168537,10,0.00215482,-2.11248,-1.00908,-0.0584691,-17.6005,0.279185,
2,1,0,1,0,42564.7,0.28945,0.289077,7.55085,22,0.0172353,10,0.00218278,-2.122,-1.25611,-0.0469703,-13.8537,0.289077,
2,1,0,1,0,42564.8,0.299438,0.299118,7.41482,22,0.0176086,10,0.00221791,-2.1299,-0.0673893,-0.87551,-244.363,0.299118,
2,1,0,1,0,42564.8,0.291747,0.291443,0.969978,22,0.0177694,10,0.000282693,-3.01324,0.0045127,13.0742,401.309,0.291443,
2,0,0,1,0,42564.8,0.28175,0.281378,-1.58086,22,0.0177443,10,-0.000444819,-2.80111,-0.021513,-2.74253,163.054,0.281378,
2,0,0,1,0,42564.9,0.27178,0.271442,-2.77199,22,0.0176328,10,-0.000752435,-2.55721,-0.0681567,-0.865652,93.4656,0.2714425,
2,0,0,1,0,42564.9,0.261783,0.261468,-3.50614,22,0.0174745,10,-0.000916745,-2.45517,-0.13853,-0.425899,57.9902,0.2614685,
2,0,0,1,0,42565,0.251786,0.251464,-3.99953,22,0.0172861,10,-0.00100574,-2.39799,-0.205594,-0.286974,44.9388,0.251464,
2,0,0,1,0,42565,0.241807,0.24153,-4.40003,22,0.0170758,10,-0.00106274,-2.35654,-0.281472,-0.209612,35.9957,0.24153,
2,0,0,1,0,42565.1,0.231824,0.231525,-4.7292,22,0.0168477,10,-0.00109493,-2.32521,-0.34017,-0.173443,32.0494,0.231525,
2,0,0,1,0,42565.1,0.221822,0.221514,-5.02235,22,0.0166038,10,-0.00111252,-2.29909,-0.402639,-0.146533,28.6527,0.221514,
2,0,0,1,0,42565.2,0.211843,0.211507,-5.28674,22,0.0163466,10,-0.00111818,-2.27681,-0.524362,-0.112518,23.2198,0.211507,
2,0,0,1,0,42565.2,0.201865,0.20153,-5.54469,22,0.0160764,10,-0.00111742,-2.25612,-0.527642,-0.111818,24.156,0.20153,
2,0,0,1,0,42565.3,0.191868,0.19152,-5.79114,22,0.0157929,10,-0.00110912,-2.23724,-0.484232,-0.121842,27.6049,0.19152,
2,0,0,1,0,42565.3,0.18188,0.181534,-6.08166,22,0.0154969,10,-0.00110403,-2.21598,-0.439175,-0.134343,31.8081,0.181534,
2,0,0,1,0,42565.4,0.171901,0.171583,-6.38533,22,0.0151862,10,-0.00109561,-2.19482,-0.430583,-0.137024,34.1683,0.171583,
2,0,0,1,0,42565.4,0.161904,0.161582,-6.78763,22,0.0148574,10,-0.00109676,-2.16828,-0.331281,-0.178097,47.1177,0.161582,
2,0,0,1,0,42565.5,0.151907,0.151621,-7.33676,22,0.0145051,10,-0.00111241,-2.1345,-0.250136,-0.235872,67.7094,0.151621,
2,0,0,1,0,42565.5,0.141928,0.14158,-8.25318,22,0.0141178,10,-0.00116849,-2.08338,-0.16279,-0.362429,116.788,0.14158,
2,0,0,1,0,42565.6,0.13194,0.131619,-9.68986,22,0.0136722,10,-0.00127537,-2.01368,-0.129652,-0.455063,172.435,0.131619,
2,0,0,1,0,42565.6,0.121943,0.121614,-11.5732,22,0.0131412,10,-0.00140747,-1.93655,-0.136756,-0.431424,194.459,0.121614,
2,0,0,1,0,42565.7,0.111964,0.111626,-13.4437,22,0.0125159,10,-0.00150066,-1.87148,-0.175421,-0.336334,176.455,0.111626,
2,0,0,1,0,42565.7,0.101985,0.101684,-15.0353,22,0.0118037,10,-0.00152885,-1.82289,-0.254379,-0.231937,135.879,0.101684,
2,0,0,1,0,42565.8,0.0919883,0.0916998,-16.1926,22,0.0110208,10,-0.00148486,-1.79068,-0.394632,-0.149506,94.5014,0.0916998,
2,0,0,1,0,42565.8,0.0820004,0.0816674,-16.8122,22,0.0101945,10,-0.00137301,-1.77437,-1.26693,-0.0465693,30.517,0.0816674,
2,0,0,1,0,42565.9,0.0720215,0.0717024,-16.8616,22,0.00935239,10,-0.00120901,-1.7731,2.25153,0.0262044,-17.2449,0.0717024,
2,0,0,1,0,42565.9,0.0620245,0.061777,-16.6093,22,0.00851502,10,-0.00102608,-1.77965,1.21039,0.0487448,-31.5844,0.061777,
2,0,0,1,0,42566,0.0520275,0.0516616,-16.2932,22,0.00769249,10,-0.000841735,-1.78799,1.15864,0.0509216,-32.3801,0.0516616,
2,0,0,1,0,42566,0.0420486,0.0416882,-15.976,22,0.00688725,10,-0.000666012,-1.79653,1.16725,0.0505461,-31.5201,0.0416882,
2,0,0,1,0,42566.1,0.0320607,0.031737,-15.6223,22,0.00609853,10,-0.000495804,-1.80626,0.944224,0.0624852,-38.0935,0.031737,
2,0,0,1,0,42566.1,0.0220637,0.0217223,-15.1897,22,0.00532787,10,-0.000329955,-1.81845,0.710745,0.0830115,-49.1742,0.0217223,
2,0,0,1,0,42566.2,0.0120848,0.0117601,-14.6267,22,0.00458352,10,-0.000172012,-1.83485,0.52944,0.111438,-63.637,0.01176013,
2,0,0,1,0,42566.2,0.00210598,0.00169446,-14.0382,22,0.00386939,10,-2.37872e-05,-1.85269,0.568458,0.103789,-56.7019,0.00169446,
2,0,0,1,0,42566.3,-0.00789103,-0.00826131,-13.3996,22,0.00318404,10,0.000110699,-1.87291,0.567732,0.103922,-54.4263,-0.00826131,
2,0,0,1,0,42566.3,-0.017879,-0.0182738,-12.9714,22,0.00252687,10,0.000237036,-1.88701,0.912246,0.0646755,-32.7032,-0.0182738,
2,0,0,1,0,42566.4,-0.0278578,-0.0282535,-12.6867,22,0.00188778,10,0.000358443,-1.89665,1.54436,0.0382035,-18.9349,-0.02825355,
2,0,0,1,0,42566.4,-0.0378549,-0.0381963,-12.5995,22,0.00125654,10,0.000481254,-1.89965,9.26248,0.00636978,-3.12785,-0.0381963,
2,0,0,1,0,42566.5,-0.0478519,-0.0482215,-12.6216,22,0.000626642,10,0.000608631,-1.89889,-1.99642,-0.029553,14.5764,-0.0482215,
2,0,0,1,0,42566.5,-0.0578126,-0.0581877,-12.7906,22,-5.73656e-06,10,0.000744255,-1.89311,-1.42998,-0.0412594,20.5784,-0.0581877,
2,0,0,1,0,42566.6,-0.0678187,-0.0682129,-13.0317,22,-0.000650872,10,0.000888932,-1.885,-0.990093,-0.0595903,30.3205,-0.0682129,
2,0,0,1,0,42566.6,-0.0778157,-0.0781955,-13.3763,22,-0.00131088,10,0.00104597,-1.87366,-0.846264,-0.0697182,36.3922,-0.0781955,
2,0,0,1,0,42566.7,-0.0877945,-0.0881787,-13.8126,22,-0.00198902,10,0.00121797,-1.85973,-0.623133,-0.0946828,51.0733,-0.0881787,
2,0,0,1,0,42566.7,-0.0977734,-0.0981288,-14.3387,22,-0.0026913,10,0.00140704,-1.84349,-0.559074,-0.105532,59.0784,-0.0981288,
2,0,0,1,1,42566.8,-0.0936874,-0.094064,-7.19807,22,-0.00317313,10,0.000677079,-2.14278,-0.0214945,-2.74489,770.276,-0.094064,
2,0,0,1,1,42566.8,-0.0837086,-0.0841152,-1.40494,22,-0.00337371,10,0.000118177,-2.85234,-0.00640684,-9.2089,442.37,-0.0841152,
2,1,0,1,1,42566.9,-0.0737025,-0.0741178,2.25077,22,-0.00334594,10,-0.000166822,-2.64767,0.0168137,3.50903,297.62,-0.0741178,
2,1,0,1,1,42566.9,-0.0637236,-0.0641557,4.76119,22,-0.00316728,10,-0.000305457,-2.32228,0.0526083,1.1215,206.96,-0.0641557,
2,1,0,1,1,42567,-0.0537447,-0.0541429,6.5258,22,-0.00288297,10,-0.000353326,-2.18537,0.101975,0.578573,147.158,-0.0541429,
2,1,0,1,1,42567,-0.0437477,-0.0441455,7.7723,22,-0.0025233,10,-0.000343112,-2.10945,0.171317,0.344391,104.341,-0.0441455,
2,1,0,1,1,42567.1,-0.0337507,-0.0341021,8.63199,22,-0.00211142,10,-0.000294369,-2.06389,0.284621,0.207293,69.9019,-0.0341021,
2,1,0,1,1,42567.1,-0.0237809,-0.0241541,9.21451,22,-0.00166589,10,-0.000222568,-2.03553,0.443951,0.132898,47.7167,-0.0241541,
2,1,0,1,1,42567.2,-0.0137839,-0.0141827,9.56356,22,-0.00119562,10,-0.000135637,-2.01938,0.871164,0.0677255,25.2968,-0.0141827,
2,1,0,1,1,42567.2,-0.0037869,-0.00414626,9.78328,22,-0.00071141,10,-4.0564e-05,-2.00952,1.39484,0.0422988,16.1389,-0.00414626,
2,1,0,1,1,42567.3,-2.55332e-05,-0.000344411,9.83034,22,-0.000528027,10,-3.38567e-06,-2.00743, , , ,-0.000344411,