File: Figure_codes/Fig_3-5/rawdata_trumpetplot_data/after 10th/20221101_1-115_003_TrumpetPlot_ParaChange_from10_every3_05_CV_C01_18.csv
mode,ox/red,error,control changes,counter inc.,time/s,control/V,Ewe/V,<I>/mA,cycle number,(Q-Qo)/C,I Range,P/W,log(|I|),Tafel slope mV/dec,alpha_eff,dI/d(E-IR),E-IR/V,
2,0,0,1,0,36582.4,2.44065e-05,-0.000458935,-0.724613,19,0.0000000E+000,10,3.3255e-07,-3.13989, , , ,-0.000458935,
2,1,0,1,0,36582.7,0.00729063,0.00696274,0.665384,19,0.00013216,10,4.6329e-06,-3.17693,0.0444514,1.32729,33.7183,0.00696274,
2,1,0,1,0,36583.1,0.0147802,0.0144481,0.824354,19,0.000420808,10,1.19103e-05,-3.08389,0.120814,0.488354,15.6675,0.01444809,
2,1,0,1,0,36583.5,0.0222725,0.0219496,0.929655,19,0.0007558,10,2.04055e-05,-3.03168,0.165955,0.355518,12.8745,0.0219496,
2,1,0,1,0,36583.9,0.0297644,0.0294365,1.0236,19,0.00112756,10,3.01311e-05,-2.98987,0.192877,0.305894,12.2255,0.0294365,
2,1,0,1,0,36584.2,0.0372544,0.0368748,1.11777,19,0.00153483,10,4.12175e-05,-2.95165,0.211902,0.278431,12.1587,0.0368748,
2,1,0,1,0,36584.6,0.0447449,0.0444689,1.21171,19,0.00197755,10,5.38833e-05,-2.9166,0.235762,0.250252,11.8468,0.0444689,
2,1,0,1,0,36585,0.0522363,0.0519029,1.3008,19,0.00245463,10,6.75155e-05,-2.88579,0.23949,0.246357,12.5138,0.05190286,
2,1,0,1,0,36585.3,0.0597291,0.0594268,1.38138,19,0.00296379,10,8.20912e-05,-2.85969,0.279674,0.21096,11.3847,0.05942684,
2,1,0,1,0,36585.7,0.0672182,0.0669065,1.45731,19,0.00350152,10,9.75036e-05,-2.83645,0.344201,0.171411,9.72294,0.0669065,
2,1,0,1,0,36586.1,0.0747092,0.0743221,1.51824,19,0.0040645,10,0.000112839,-2.81866,0.539024,0.109457,6.48042,0.0743221,
2,1,0,1,0,36586.5,0.0822001,0.0818457,1.56565,19,0.00464816,10,0.000128141,-2.80531,0.509405,0.115821,7.09248,0.0818457,
2,1,0,1,0,36586.8,0.0896911,0.089333,1.62435,19,0.00525142,10,0.000145108,-2.78932,0.401757,0.146855,9.32707,0.089333,
2,1,0,1,0,36587.2,0.097182,0.0968432,1.71239,19,0.0058821,10,0.000165834,-2.7664,0.233969,0.25217,16.8969,0.09684322,
2,1,0,1,0,36587.6,0.104673,0.104344,1.85998,19,0.00655587,10,0.000194079,-2.73049,0.204078,0.289105,20.9712,0.104344,
2,1,0,1,0,36588,0.112164,0.111822,2.01569,19,0.00728773,10,0.000225399,-2.69558,0.256022,0.230449,18.0912,0.1118222,
2,1,0,1,0,36588.3,0.119655,0.119312,2.13128,19,0.00807135,10,0.000254287,-2.67136,0.469553,0.125651,10.4446,0.119312,
2,1,0,1,0,36588.7,0.127146,0.126799,2.19549,19,0.00888939,10,0.000278387,-2.65847,0.698565,0.0844589,7.24396,0.126799,
2,1,0,1,0,36589.1,0.134637,0.134309,2.24304,19,0.00972894,10,0.000301261,-2.64916,18.3552,0.00321435,0.281085,0.1343092,
2,1,0,1,0,36589.5,0.142128,0.141798,2.16235,19,0.0105665,10,0.000306616,-2.66507,-0.197912,-0.298113,-25.027,0.141798,
2,1,0,1,0,36589.8,0.149619,0.149304,1.85031,19,0.0113302,10,0.000276259,-2.73276,-0.0818498,-0.720833,-51.9114,0.149304,
2,1,0,1,0,36590.2,0.157108,0.15676,1.47612,19,0.0119559,10,0.000231397,-2.83088,-0.0800813,-0.736751,-42.4946,0.15676,
2,1,0,1,0,36590.6,0.164601,0.164292,1.2421,19,0.0124657,10,0.000204068,-2.90584,-0.122986,-0.47973,-23.3058,0.164292,
2,1,0,1,0,36591,0.172092,0.171808,1.11944,19,0.0129111,10,0.000192328,-2.951,-0.233441,-0.25274,-11.0753,0.171808,
2,1,0,1,0,36591.3,0.179582,0.179206,1.05524,19,0.0133232,10,0.000189105,-2.97665,-0.416326,-0.141716,-5.85427,0.179206,
2,1,0,1,0,36591.7,0.187073,0.18675,1.02025,19,0.0137171,10,0.000190531,-2.99129,-0.810697,-0.0727768,-2.89155,0.18675,
2,1,0,1,0,36592.1,0.194564,0.19422,0.995366,19,0.0141001,10,0.00019332,-3.00202,-0.765318,-0.0770921,-2.99565,0.19422,
2,1,0,1,0,36592.5,0.202057,0.201715,0.977689,19,0.0144754,10,0.000197215,-3.0098,-0.929458,-0.0634779,-2.42006,0.201715,
2,1,0,1,0,36592.8,0.209546,0.209248,0.965752,19,0.0148451,10,0.000202082,-3.01513,-0.906821,-0.0650625,-2.45226,0.209248,
2,1,0,1,0,36593.2,0.217037,0.216694,0.952769,19,0.0152098,10,0.000206459,-3.02101,-2.38331,-0.0247555,-0.92192,0.216694,
2,1,0,1,0,36593.6,0.224528,0.224218,0.944179,19,0.0155711,10,0.000211702,-3.02495,-1.40271,-0.0420613,-1.55003,0.224218,
2,1,0,1,0,36594,0.232019,0.231712,0.936796,19,0.015929,10,0.000217067,-3.02836,-3.6853,-0.0160095,-0.585078,0.231712,
2,1,0,1,0,36594.3,0.23951,0.239199,0.929207,19,0.0162842,10,0.000222265,-3.03189,-2.21521,-0.0266341,-0.967121,0.2391987,
2,1,0,1,0,36594.7,0.247001,0.246695,0.925013,19,0.0166367,10,0.000228197,-3.03385,-2.63821,-0.0223636,-0.806063,0.246695,
2,1,0,1,0,36595.1,0.254492,0.254158,0.915836,19,0.0169867,10,0.000232767,-3.03818,-2.00389,-0.0294428,-1.05381,0.254158,
2,1,0,1,0,36595.5,0.261983,0.261657,0.908959,19,0.0173342,10,0.000237835,-3.04146,-2.10377,-0.0280449,-0.997039,0.261657,
2,1,0,1,0,36595.8,0.269474,0.269195,0.903002,19,0.0176792,10,0.000243084,-3.04431,107.95,0.00054655,0.0192808,0.269195,
2,1,0,1,0,36596.2,0.276965,0.276618,0.895182,19,0.0180216,10,0.000247623,-3.04809,-1.88806,-0.0312491,-1.094,0.276618,
2,1,0,1,0,36596.6,0.284456,0.284196,0.887959,19,0.0183611,10,0.000252354,-3.05161,-1.87657,-0.0314403,-1.08801,0.284196,
2,1,0,1,0,36597,0.291947,0.291608,0.878505,19,0.0186975,10,0.000256179,-3.05626,-1.46631,-0.040237,-1.37953,0.2916075,
2,1,0,1,0,36597.3,0.299436,0.2991,0.868867,19,0.0190309,10,0.000259879,-3.06105,-0.00378326,-15.595,-324.21,0.2991,
2,0,0,1,0,36597.7,0.293745,0.293399,-0.176031,19,0.0190576,10,-5.16474e-05,-3.75441,-0.0155841,-3.78592,23.9664,0.2933991,
2,0,0,1,0,36598.1,0.286254,0.285925,-0.283771,19,0.018963,10,-8.11372e-05,-3.54703,-0.0580924,-1.01562,11.3146,0.285925,
2,0,0,1,0,36598.4,0.278763,0.278475,-0.354083,19,0.0188371,10,-9.86031e-05,-3.4509,-0.109275,-0.53992,7.41414,0.278475,
2,0,0,1,0,36598.8,0.271272,0.270956,-0.401199,19,0.0186898,10,-0.000108707,-3.39664,-0.147124,-0.401023,6.28009,0.270956,
2,0,0,1,0,36599.2,0.263781,0.263497,-0.44261,19,0.0185256,10,-0.000116626,-3.35398,-0.2152,-0.274163,4.73618,0.2634972,
2,0,0,1,0,36599.5,0.25629,0.255981,-0.480603,19,0.018347,10,-0.000123026,-3.31821,-0.27763,-0.212513,3.9591,0.2559813,
2,0,0,1,0,36599.9,0.248799,0.248473,-0.509608,19,0.0181557,10,-0.000126624,-3.29276,-0.333685,-0.176813,3.52922,0.248473,
2,0,0,1,0,36600.3,0.241308,0.241001,-0.53987,19,0.0179531,10,-0.000130109,-3.26771,-0.35121,-0.167991,3.54583,0.241001,
2,0,0,1,0,36600.7,0.233817,0.233525,-0.566092,19,0.0177397,10,-0.000132197,-3.24711,-0.374486,-0.157549,3.4801,0.233525,
2,0,0,1,0,36601,0.226326,0.226017,-0.594222,19,0.0175162,10,-0.000134304,-3.22605,-0.40044,-0.147338,3.41588,0.226017,
2,0,0,1,0,36601.4,0.218835,0.218548,-0.622835,19,0.0172828,10,-0.000136119,-3.20563,-0.405783,-0.145398,3.52054,0.218548,
2,0,0,1,0,36601.8,0.211344,0.211,-0.645576,19,0.0170398,10,-0.000136217,-3.19005,-0.572087,-0.103131,2.59395,0.211,
2,0,0,1,0,36602.2,0.203855,0.20348,-0.670981,19,0.0167871,10,-0.000136531,-3.17329,-0.428018,-0.137845,3.61647,0.20348,
2,0,0,1,0,36602.5,0.196362,0.196023,-0.70018,19,0.0165247,10,-0.000137251,-3.15479,-0.383254,-0.153945,4.19513,0.196023,
2,0,0,1,0,36602.9,0.188871,0.188509,-0.72764,19,0.0162513,10,-0.000137166,-3.13808,-0.33872,-0.174185,4.95614,0.188509,
2,0,0,1,0,36603.3,0.18138,0.181077,-0.761518,19,0.0159664,10,-0.000137894,-3.11832,-0.402251,-0.146675,4.35755,0.181077,
2,0,0,1,0,36603.7,0.173891,0.173592,-0.79938,19,0.0156679,10,-0.000138766,-3.09725,-0.308755,-0.19109,5.97007,0.173592,
2,0,0,1,0,36604,0.166398,0.166071,-0.852729,19,0.0153522,10,-0.000141614,-3.06919,-0.258626,-0.228129,7.61568,0.166071,
2,0,0,1,0,36604.4,0.158906,0.158582,-0.92311,19,0.0150143,10,-0.000146388,-3.03475,-0.185045,-0.318841,11.523,0.158582,
2,0,0,1,0,36604.8,0.151417,0.151116,-1.0333,19,0.0146429,10,-0.000156148,-2.98577,-0.12843,-0.459396,18.6053,0.151116,
2,0,0,1,0,36605.2,0.143926,0.1436,-1.22449,19,0.0142164,10,-0.000175836,-2.91205,-0.0845471,-0.697836,33.362,0.1436,
2,0,0,1,0,36605.5,0.136435,0.136116,-1.51122,19,0.0137002,10,-0.000205702,-2.82067,-0.0828062,-0.712507,42.0149,0.136116,
2,0,0,1,0,36605.9,0.128942,0.128601,-1.82834,19,0.0130682,10,-0.000235128,-2.73794,-0.106695,-0.552977,39.2817,0.128601,
2,0,0,1,0,36606.3,0.121453,0.121149,-2.08183,19,0.0123274,10,-0.000252211,-2.68155,-0.183683,-0.321205,26.0328,0.121149,
2,0,0,1,0,36606.7,0.113962,0.113682,-2.23028,19,0.0115094,10,-0.000253544,-2.65164,-0.441032,-0.133777,11.633,0.113682,
2,0,0,1,0,36607,0.106471,0.106151,-2.26275,19,0.0106586,10,-0.000240192,-2.64536,2.19947,0.0268246,-2.36726,0.106151,
2,0,0,1,0,36607.4,0.0989799,0.0986881,-2.2084,19,0.00981361,10,-0.000217943,-2.65592,0.555916,0.106131,-9.14319,0.0986881,
2,0,0,1,0,36607.8,0.0914889,0.0911539,-2.13014,19,0.00899534,10,-0.000194171,-2.67159,0.510798,0.115506,-9.59266,0.0911539,
2,0,0,1,0,36608.2,0.083998,0.0837068,-2.06125,19,0.00820532,10,-0.00017254,-2.68587,0.470926,0.125285,-10.069,0.0837068,
2,0,0,1,0,36608.5,0.076507,0.0761616,-2.00563,19,0.00743865,10,-0.000152752,-2.69775,0.620741,0.0950477,-7.42682,0.0761616,
2,0,0,1,0,36608.9,0.069016,0.0687095,-1.94422,19,0.0066929,10,-0.000133586,-2.71126,0.602435,0.0979358,-7.44305,0.06870953,
2,0,0,1,0,36609.3,0.0615251,0.06121,-1.89147,19,0.00596737,10,-0.000115777,-2.7232,0.601942,0.0980161,-7.24341,0.06121,
2,0,0,1,0,36609.7,0.0540342,0.0537097,-1.83673,19,0.00526319,10,-9.86502e-05,-2.73595,0.563482,0.104706,-7.50171,0.0537097,
2,0,0,1,0,36610,0.0465432,0.0462234,-1.77484,19,0.00458051,10,-8.20389e-05,-2.75084,0.47762,0.123529,-8.55882,0.0462234,
2,0,0,1,0,36610.4,0.0390523,0.0387028,-1.71319,19,0.0039216,10,-6.63051e-05,-2.7662,0.415438,0.142019,-9.46703,0.0387028,
2,0,0,1,0,36610.8,0.0315626,0.0312124,-1.64339,19,0.00328789,10,-5.1294e-05,-2.78426,0.464068,0.127137,-8.15104,0.0312124,
2,0,0,1,0,36611.2,0.0240704,0.023709,-1.57421,19,0.00267933,10,-3.7323e-05,-2.80294,0.382414,0.154283,-9.50091,0.023709,
2,0,0,1,0,36611.5,0.0165785,0.0162627,-1.52378,19,0.00209318,10,-2.47807e-05,-2.81708,0.611176,0.0965352,-5.74168,0.0162627,
2,0,0,1,0,36611.9,0.00908845,0.00876902,-1.485,19,0.00152458,10,-1.3022e-05,-2.82827,0.819451,0.0719994,-4.17251,0.00876902,
2,0,0,1,0,36612.3,0.0015984,0.00121973,-1.48291,19,0.000966034,10,-1.80875e-06,-2.82888, , , ,0.00121973,
2,0,0,1,0,36612.4,0.000199195,-0.000160926,-1.4723,19,0.000861631,10,2.36931e-07,-2.832, , , ,-0.000160926,