File: Figure_codes/Fig_3-5/rawdata_trumpetplot_data/after 10th/20221101_1-115_003_TrumpetPlot_ParaChange_from10_every3_06_CV_C01_18.csv
mode,ox/red,error,control changes,counter inc.,time/s,control/V,Ewe/V,<I>/mA,cycle number,(Q-Qo)/C,I Range,P/W,log(|I|),Tafel slope mV/dec,alpha_eff,dI/d(E-IR),E-IR/V,
2,0,0,0,0,36612.4,2.44065e-05,-0.000306236,-1.43761,19,0.0000000E+000,10,4.40247e-07,-2.84236, , , ,-0.000306236,
2,1,0,1,0,36612.5,0.00729063,0.00692786,1.0859,19,6.42996e-05,10,7.52294e-06,-2.96421,0.0234923,2.51146,100.845,0.00692786,
2,1,0,1,0,36612.7,0.014778,0.0144535,1.50515,19,0.0003168,10,2.17547e-05,-2.82242,0.0914108,0.645438,37.8673,0.0144535,
2,1,0,1,0,36612.9,0.0222743,0.0219332,1.72745,19,0.000624237,10,3.78885e-05,-2.7626,0.151154,0.390331,26.3042,0.0219332,
2,1,0,1,0,36613.1,0.0297626,0.0294863,1.91139,19,0.000967605,10,5.63598e-05,-2.71865,0.186792,0.31586,23.4694,0.02948634,
2,1,0,1,0,36613.3,0.0372544,0.0369887,2.07692,19,0.00134413,10,7.68227e-05,-2.68258,0.217427,0.271356,22.0755,0.0369887,
2,1,0,1,0,36613.5,0.0447472,0.0444172,2.2544,19,0.00175321,10,0.000100134,-2.64697,0.225628,0.261492,23.0205,0.0444172,
2,1,0,1,0,36613.7,0.0522345,0.0519056,2.4201,19,0.00219378,10,0.000125616,-2.61617,0.245742,0.240089,22.6636,0.0519056,
2,1,0,1,0,36613.9,0.0597308,0.0594222,2.57705,19,0.00266513,10,0.000153134,-2.58888,0.286081,0.206235,20.7352,0.05942224,
2,1,0,1,0,36614,0.0672182,0.0669043,2.72148,19,0.00316391,10,0.000182079,-2.56519,0.344556,0.171235,18.1454,0.0669043,
2,1,0,1,0,36614.2,0.0747074,0.0743785,2.84514,19,0.00368796,10,0.000211617,-2.5459,0.429299,0.137433,15.2342,0.0743785,
2,1,0,1,0,36614.4,0.0822019,0.0819241,2.94647,19,0.00423373,10,0.000241387,-2.5307,0.550538,0.107168,12.3361,0.08192414,
2,1,0,1,0,36614.6,0.0896911,0.0893866,3.04666,19,0.00479754,10,0.00027233,-2.51618,0.456155,0.129342,15.3791,0.0893866,
2,1,0,1,0,36614.8,0.097182,0.0968435,3.18545,19,0.00538328,10,0.000308491,-2.49683,0.301134,0.195926,24.4018,0.0968435,
2,1,0,1,0,36615,0.104675,0.104342,3.40872,19,0.00600218,10,0.000355672,-2.46741,0.228279,0.258456,34.3793,0.104342,
2,1,0,1,0,36615.2,0.112162,0.111856,3.68621,19,0.0066684,10,0.000412325,-2.43342,0.228427,0.258288,37.093,0.111856,
2,1,0,1,0,36615.4,0.119655,0.119368,3.9397,19,0.00738643,10,0.000470276,-2.40454,0.33311,0.177119,27.2248,0.119368,
2,1,0,1,0,36615.5,0.127146,0.126822,4.10043,19,0.00814408,10,0.000520023,-2.38717,0.565007,0.104424,16.7265,0.126822,
2,1,0,1,0,36615.7,0.134635,0.134334,4.21348,19,0.00892634,10,0.000566016,-2.37536,1.01764,0.0579771,9.5228,0.1343345,
2,1,0,1,0,36615.9,0.142129,0.141792,4.21271,19,0.00972197,10,0.000597327,-2.37544,-0.652115,-0.0904748,-14.8591,0.141792,
2,1,0,1,0,36616.1,0.149619,0.149293,3.90006,19,0.0104911,10,0.000582253,-2.40893,-0.128572,-0.458887,-69.535,0.149293,
2,1,0,1,0,36616.3,0.157106,0.15676,3.24688,19,0.011165,10,0.000508982,-2.48853,-0.0809921,-0.728466,-92.1612,0.15676,
2,1,0,1,0,36616.5,0.164602,0.164271,2.64175,19,0.0117161,10,0.000433963,-2.57811,-0.0948165,-0.622255,-64.3983,0.1642711,
2,1,0,1,0,36616.7,0.172091,0.171829,2.27764,19,0.0121765,10,0.000391364,-2.64252,-0.135256,-0.436209,-38.8673,0.171829,
2,1,0,1,0,36616.9,0.179582,0.179285,2.07042,19,0.0125847,10,0.000371195,-2.68394,-0.216927,-0.271981,-22.0111,0.179285,
2,1,0,1,0,36617,0.187074,0.186771,1.94894,19,0.012963,10,0.000364005,-2.7102,-0.413568,-0.142661,-10.8805,0.186771,
2,1,0,1,0,36617.2,0.194563,0.194266,1.88037,19,0.0133235,10,0.000365291,-2.72576,-0.551586,-0.106964,-7.83598,0.194266,
2,1,0,1,0,36617.4,0.202059,0.201752,1.82937,19,0.0136733,10,0.000369079,-2.7377,-0.641324,-0.0919971,-6.56138,0.201752,
2,1,0,1,0,36617.6,0.209546,0.209244,1.79492,19,0.0140151,10,0.000375576,-2.74596,-0.933171,-0.0632253,-4.4303,0.209244,
2,1,0,1,0,36617.8,0.217035,0.216744,1.76908,19,0.0143512,10,0.000383438,-2.75225,-1.52204,-0.0387638,-2.67377,0.216744,
2,1,0,1,0,36618,0.22453,0.224185,1.74486,19,0.0146832,10,0.000391171,-2.75824,-1.55755,-0.03788,-2.58238,0.224185,
2,1,0,1,0,36618.2,0.232019,0.231682,1.72695,19,0.0150112,10,0.000400103,-2.76272,-2.39134,-0.0246723,-1.66358,0.231682,
2,1,0,1,0,36618.4,0.23951,0.23922,1.71322,19,0.0153362,10,0.000409838,-2.76619,-1.83128,-0.032218,-2.15473,0.23922,
2,1,0,1,0,36618.5,0.247003,0.246701,1.69816,19,0.0156586,10,0.000418938,-2.77002,-1.74756,-0.0337614,-2.24103,0.246701,
2,1,0,1,0,36618.7,0.25449,0.254252,1.68508,19,0.0159782,10,0.000428435,-2.77338,-1.87027,-0.0315463,-2.07496,0.2542516,
2,1,0,1,0,36618.9,0.261983,0.261686,1.67379,19,0.0162956,10,0.000438008,-2.7763,-1.88558,-0.0312901,-2.04199,0.261686,
2,1,0,1,0,36619.1,0.269474,0.269195,1.65651,19,0.0166105,10,0.000445924,-2.78081,-2.81587,-0.0209527,-1.36054,0.269195,
2,1,0,1,0,36619.3,0.276963,0.276691,1.64637,19,0.016923,10,0.000455536,-2.78347,-2.2771,-0.0259101,-1.66462,0.276691,
2,1,0,1,0,36619.5,0.284458,0.284156,1.63268,19,0.0172331,10,0.000463936,-2.7871,-3.87951,-0.0152081,-0.968764,0.284156,
2,1,0,1,0,36619.7,0.291947,0.291665,1.61794,19,0.0175403,10,0.000471896,-2.79104,-1.12935,-0.0522426,-3.29834,0.291665,
2,1,0,1,0,36619.9,0.299434,0.299116,1.60323,19,0.0178447,10,0.000479551,-2.79501,-0.0176721,-3.33859,-181.223,0.299116,
2,0,0,1,0,36620,0.294196,0.293881,-0.285461,19,0.0178939,10,-8.38915e-05,-3.54445,-0.00680873,-8.66534,74.3059,0.293881,
2,0,0,1,0,36620.2,0.286701,0.286373,-0.562046,19,0.017806,10,-0.000160955,-3.25023,-0.0580375,-1.01658,22.2687,0.286373,
2,0,0,1,0,36620.4,0.279212,0.278872,-0.701266,19,0.0176835,10,-0.000195563,-3.15412,-0.110512,-0.533879,14.5441,0.278872,
2,0,0,1,0,36620.6,0.271725,0.271401,-0.789238,19,0.0175402,10,-0.0002142,-3.10279,-0.155715,-0.378896,11.7779,0.271401,
2,0,0,1,0,36620.8,0.264228,0.263925,-0.87011,19,0.0173808,10,-0.000229644,-3.06043,-0.20385,-0.289429,9.82376,0.263925,
2,0,0,1,0,36620.9,0.256741,0.25642,-0.93639,19,0.0172085,10,-0.000240109,-3.02854,-0.26868,-0.219592,8.00634,0.25642,
2,0,0,1,0,36621.1,0.249248,0.248991,-0.989412,19,0.0170248,10,-0.000246354,-3.00462,-0.298901,-0.19739,7.66453,0.248991,
2,0,0,1,0,36621.3,0.241756,0.241431,-1.04424,19,0.0168308,10,-0.000252113,-2.9812,-0.330381,-0.178582,7.28043,0.241431,
2,0,0,1,0,36621.5,0.234268,0.233964,-1.09054,19,0.0166275,10,-0.000255147,-2.96236,-0.380556,-0.155036,6.62583,0.233964,
2,0,0,1,0,36621.7,0.226772,0.226482,-1.13691,19,0.016415,10,-0.00025749,-2.94427,-0.369921,-0.159493,7.09128,0.2264823,
2,0,0,1,0,36621.9,0.219285,0.218956,-1.18695,19,0.0161942,10,-0.000259891,-2.92557,-0.485427,-0.121543,5.60498,0.218956,
2,0,0,1,0,36622.1,0.211796,0.211462,-1.2304,19,0.0159649,10,-0.000260183,-2.90995,-0.510609,-0.115548,5.53655,0.211462,
2,0,0,1,0,36622.3,0.204301,0.203956,-1.27666,19,0.0157268,10,-0.000260382,-2.89393,-0.670219,-0.088031,4.39136,0.203956,
2,0,0,1,0,36622.4,0.196812,0.196485,-1.32051,19,0.0154805,10,-0.000259461,-2.87926,-0.465962,-0.12662,6.52328,0.196485,
2,0,0,1,0,36622.6,0.189321,0.188972,-1.37207,19,0.015225,10,-0.000259283,-2.86262,-0.49731,-0.118638,6.37066,0.1889718,
2,0,0,1,0,36622.8,0.181828,0.18154,-1.43324,19,0.0149595,10,-0.000260192,-2.84368,-0.317869,-0.185611,10.357,0.18154,
2,0,0,1,0,36623,0.174341,0.174023,-1.49864,19,0.0146825,10,-0.000260797,-2.8243,-0.33038,-0.178582,10.4274,0.174023,
2,0,0,1,0,36623.2,0.166848,0.166497,-1.5842,19,0.0143911,10,-0.000263765,-2.80019,-0.291585,-0.202342,12.5093,0.166497,
2,0,0,1,0,36623.4,0.159357,0.159042,-1.70259,19,0.0140808,10,-0.000270783,-2.76889,-0.211234,-0.279312,18.5723,0.159042,
2,0,0,1,0,36623.6,0.151868,0.151578,-1.88346,19,0.0137433,10,-0.000285491,-2.72504,-0.145551,-0.405356,29.8117,0.151578,
2,0,0,1,0,36623.8,0.144373,0.14407,-2.17514,19,0.013362,10,-0.000313373,-2.66251,-0.100113,-0.589335,50.3465,0.1440704,
2,0,0,1,0,36623.9,0.136884,0.136544,-2.63798,19,0.0129101,10,-0.0003602,-2.57873,-0.0863926,-0.682929,70.2996,0.136544,
2,0,0,1,0,36624.1,0.129393,0.129087,-3.1832,19,0.0123616,10,-0.00041091,-2.49714,-0.0995059,-0.59293,73.588,0.129087,
2,0,0,1,0,36624.3,0.1219,0.121575,-3.68123,19,0.0117134,10,-0.000447544,-2.43401,-0.151136,-0.390376,55.9963,0.121575,
2,0,0,1,0,36624.5,0.114413,0.114044,-4.04353,19,0.0109847,10,-0.00046114,-2.39324,-0.250309,-0.235709,37.1371,0.114044,
2,0,0,1,0,36624.7,0.10692,0.106578,-4.23362,19,0.0102038,10,-0.00045121,-2.37329,-0.762324,-0.0773949,12.7612,0.106578,
2,0,0,1,0,36624.9,0.0994284,0.0990772,-4.23715,19,0.00940443,10,-0.000419805,-2.37293,0.957792,0.0616,-10.1805,0.0990772,
2,0,0,1,0,36625.1,0.0919401,0.0916159,-4.11716,19,0.00861805,10,-0.000377197,-2.3854,0.453579,0.130077,-20.876,0.0916159,
2,0,0,1,0,36625.3,0.0844447,0.0841274,-3.95866,19,0.00785854,10,-0.000333032,-2.40245,0.494291,0.119363,-18.4424,0.0841274,
2,0,0,1,0,36625.4,0.0769565,0.076647,-3.8351,19,0.0071264,10,-0.000293949,-2.41622,0.561861,0.105008,-15.721,0.076647,
2,0,0,1,0,36625.6,0.0694682,0.0691511,-3.73728,19,0.00641437,10,-0.000258437,-2.42744,0.686236,0.0859762,-12.5428,0.0691511,
2,0,0,1,0,36625.8,0.0619728,0.0616287,-3.64144,19,0.005719,10,-0.000224417,-2.43873,0.590904,0.099847,-14.2227,0.0616287,
2,0,0,1,0,36626,0.0544836,0.0541536,-3.54405,19,0.00504253,10,-0.000191923,-2.4505,0.678941,0.0869,-12.0305,0.0541536,
2,0,0,1,0,36626.2,0.0469927,0.0466626,-3.44296,19,0.00438472,10,-0.000160657,-2.46307,0.526538,0.112053,-15.0233,0.0466626,
2,0,0,1,0,36626.4,0.0394999,0.0391875,-3.32759,19,0.00374761,10,-0.0001304,-2.47787,0.479403,0.12307,-15.9875,0.0391875,
2,0,0,1,0,36626.6,0.0320125,0.0316933,-3.19897,19,0.00313343,10,-0.000101386,-2.49499,0.403041,0.146387,-18.2607,0.03169331,
2,0,0,1,0,36626.8,0.0245198,0.0242737,-3.06697,19,0.00254351,10,-7.44467e-05,-2.51329,0.388889,0.151714,-18.161,0.0242737,
2,0,0,1,0,36626.9,0.0170289,0.0167432,-2.94516,19,0.00197741,10,-4.93113e-05,-2.53089,0.496211,0.118901,-13.7055,0.0167432,
2,0,0,1,0,36627.1,0.0095397,0.00919533,-2.86067,19,0.00143144,10,-2.63048e-05,-2.54353,0.731586,0.0806467,-8.98787,0.00919533,
2,0,0,1,0,36627.3,0.00204518,0.00168958,-2.82918,19,0.000899205,10,-4.78013e-06,-2.54834,1.85835,0.0317486,-3.46797,0.00168958,
2,0,0,1,0,36627.4,0.000177222,-0.000251647,-2.79195,19,0.000767172,10,7.02585e-07,-2.55409, , , ,-0.0002516465,