File: Figure_codes/Fig_3-5/rawdata_trumpetplot_data/after 10th/20221101_1-115_003_TrumpetPlot_ParaChange_from10_every3_07_CV_C01_32.csv
mode,ox/red,error,control changes,counter inc.,time/s,control/V,Ewe/V,<I>/mA,cycle number,(Q-Qo)/C,I Range,P/W,log(|I|),Tafel slope mV/dec,alpha_eff,dI/d(E-IR),E-IR/V,
2,0,0,0,0,64209.2,2.44065e-05,-0.000382585,-2.6785,33,0.0000000E+000,10,1.02476e-06,-2.57211, , , ,-0.000382585,
2,1,0,1,0,64209.3,0.007288,0.00695825,0.769764,33,-5.03213e-05,10,5.35621e-06,-3.11364,0.00703458,8.38714,204.495,0.00695825,
2,1,0,1,0,64209.4,0.0147816,0.0144297,1.71132,33,0.000115691,10,2.46938e-05,-2.76667,0.0480944,1.22676,80.8516,0.0144297,
2,1,0,1,0,64209.6,0.0222712,0.0219503,2.15628,33,0.000361468,10,4.73312e-05,-2.66629,0.103339,0.570936,47.9087,0.0219503,
2,1,0,1,0,64209.7,0.0297648,0.0294371,2.45316,33,0.000652023,10,7.22138e-05,-2.61027,0.159507,0.36989,35.4054,0.0294371,
2,1,0,1,0,64209.8,0.0372518,0.0369128,2.70232,33,0.000976254,10,9.97502e-05,-2.56826,0.204943,0.287885,30.4128,0.0369128,
2,1,0,1,0,64209.9,0.0447467,0.0444313,2.94677,33,0.0013311,10,0.000130929,-2.53065,0.227603,0.259224,29.7539,0.04443134,
2,1,0,1,0,64210.1,0.052235,0.0518839,3.16485,33,0.00171427,10,0.000164205,-2.49965,0.229591,0.256979,31.7294,0.0518839,
2,1,0,1,0,64210.2,0.0597299,0.0594034,3.38067,33,0.00212533,10,0.000200823,-2.471,0.263908,0.223563,29.4851,0.0594034,
2,1,0,1,0,64210.3,0.0672156,0.0668266,3.57836,33,0.0025618,10,0.000239129,-2.44632,0.320558,0.184054,25.7154,0.0668266,
2,1,0,1,0,64210.4,0.0747105,0.0743966,3.75873,33,0.00302229,10,0.000279637,-2.42496,0.408127,0.144563,21.1999,0.0743966,
2,1,0,1,0,64210.6,0.0821988,0.0818631,3.91135,33,0.00350331,10,0.000320196,-2.40767,0.456274,0.129308,19.7397,0.0818631,
2,1,0,1,0,64210.7,0.0896937,0.0893861,4.04992,33,0.0040027,10,0.000362007,-2.39255,0.467833,0.126113,19.9621,0.0893861,
2,1,0,1,0,64210.8,0.0971794,0.096857,4.20901,33,0.00452,10,0.000407672,-2.37582,0.361035,0.163419,26.8961,0.096857,
2,1,0,1,0,64210.9,0.104674,0.104361,4.45969,33,0.00506243,10,0.000465416,-2.3507,0.278131,0.212131,36.8908,0.104361,
2,1,0,1,0,64211.1,0.112163,0.11183,4.77961,33,0.00563995,10,0.000534506,-2.32061,0.236787,0.249169,46.4269,0.11183,
2,1,0,1,0,64211.2,0.119657,0.119331,5.11585,33,0.00626031,10,0.00061048,-2.29108,0.291209,0.202604,40.4437,0.119331,
2,1,0,1,0,64211.3,0.127143,0.126783,5.3649,33,0.00691789,10,0.000680178,-2.27044,0.476434,0.123837,25.9648,0.126783,
2,1,0,1,0,64211.4,0.134638,0.134288,5.52241,33,0.00760128,10,0.000741592,-2.25787,1.04952,0.056216,12.1237,0.1342877,
2,1,0,1,0,64211.6,0.142126,0.141781,5.57931,33,0.00829732,10,0.00079104,-2.25342,-3.26334,-0.0180796,-3.92683,0.141781,
2,1,0,1,0,64211.7,0.149621,0.149302,5.37272,33,0.00898665,10,0.00080216,-2.26981,-0.241396,-0.244412,-51.0673,0.149302,
2,1,0,1,0,64211.8,0.157107,0.156783,4.78727,33,0.00962588,10,0.000750564,-2.31991,-0.115541,-0.510643,-95.2624,0.1567834,
2,1,0,1,0,64211.9,0.164602,0.164284,4.06132,33,0.0101798,10,0.000667208,-2.39133,-0.104989,-0.561963,-89.2865,0.164284,
2,1,0,1,0,64212.1,0.17209,0.171808,3.50046,33,0.0106514,10,0.000601407,-2.45588,-0.124838,-0.472611,-64.6084,0.171808,
2,1,0,1,0,64212.2,0.179585,0.17925,3.12451,33,0.0110651,10,0.000560068,-2.50522,-0.181854,-0.324437,-39.5817,0.17925,
2,1,0,1,0,64212.3,0.187072,0.186769,2.87294,33,0.0114401,10,0.000536577,-2.54167,-0.267007,-0.220968,-24.8246,0.186769,
2,1,0,1,0,64212.4,0.194566,0.194179,2.71309,33,0.0117904,10,0.000526825,-2.56654,-0.349989,-0.168577,-17.875,0.1941788,
2,1,0,1,0,64212.6,0.202055,0.201717,2.60597,33,0.0121237,10,0.000525668,-2.58403,-0.424754,-0.138904,-14.1124,0.201717,
2,1,0,1,0,64212.7,0.209549,0.209223,2.53837,33,0.012446,10,0.000531085,-2.59544,-0.604079,-0.0976693,-9.64895,0.209223,
2,1,0,1,0,64212.8,0.217036,0.21671,2.46965,33,0.01276,10,0.000535198,-2.60736,-1.01785,-0.0579651,-5.6042,0.21671,
2,1,0,1,0,64212.9,0.224529,0.224216,2.43014,33,0.0130684,10,0.000544875,-2.61437,-0.970049,-0.0608217,-5.79031,0.224216,
2,1,0,1,0,64213.1,0.232019,0.231674,2.40419,33,0.0133719,10,0.000556989,-2.61903,-1.34111,-0.0439934,-4.12139,0.231674,
2,1,0,1,0,64213.2,0.239513,0.239188,2.38103,33,0.0136722,10,0.000569514,-2.62324,-1.40927,-0.0418655,-3.87932,0.239188,
2,1,0,1,0,64213.3,0.247001,0.24671,2.35469,33,0.0139693,10,0.000580926,-2.62807,-2.43253,-0.0242546,-2.22927,0.24671,
2,1,0,1,0,64213.4,0.254493,0.254174,2.33182,33,0.0142642,10,0.00059269,-2.6323,-1.60495,-0.0367614,-3.3548,0.254174,
2,1,0,1,0,64213.6,0.261983,0.26163,2.31983,33,0.0145566,10,0.000606939,-2.63454,-1.46825,-0.0401838,-3.63673,0.2616303,
2,1,0,1,0,64213.7,0.269477,0.269144,2.30624,33,0.0148471,10,0.00062071,-2.6371,-2.79075,-0.0211413,-1.89983,0.269144,
2,1,0,1,0,64213.8,0.276965,0.27667,2.29012,33,0.0151354,10,0.000633607,-2.64014,-6.16253,-0.00957399,-0.855229,0.27667,
2,1,0,1,0,64213.9,0.284457,0.284121,2.26904,33,0.0154219,10,0.00064468,-2.64416,-3.41992,-0.0172519,-1.53119,0.284121,
2,1,0,1,0,64214.1,0.291947,0.291635,2.24706,33,0.015706,10,0.000655322,-2.64838,-1.22303,-0.0482408,-4.23707,0.2916348,
2,1,0,1,0,64214.2,0.29944,0.299162,2.23564,33,0.0159881,10,0.00066882,-2.6506,-0.00995421,-5.92714,-421.61,0.299162,
2,0,0,1,0,64214.3,0.293742,0.293383,-0.227483,33,0.016065,10,-6.67398e-05,-3.64305,-0.00667253,-8.84222,136.135,0.293383,
2,0,0,1,0,64214.4,0.286254,0.28589,-0.766868,33,0.0159945,10,-0.00021924,-3.11528,-0.0383339,-1.53911,45.602,0.28589,
2,0,0,1,0,64214.5,0.278761,0.278392,-1.00337,33,0.0158799,10,-0.00027933,-2.99854,-0.0982276,-0.600646,23.5793,0.278392,
2,0,0,1,0,64214.7,0.271272,0.270939,-1.15889,33,0.0157422,10,-0.000313989,-2.93596,-0.163631,-0.360568,16.299,0.2709395,
2,0,0,1,0,64214.8,0.263778,0.263489,-1.27461,33,0.015588,10,-0.000335847,-2.89462,-0.201853,-0.292293,14.4591,0.263489,
2,0,0,1,0,64214.9,0.25629,0.255984,-1.36488,33,0.0154212,10,-0.000349388,-2.86491,-0.247421,-0.23846,12.6952,0.255984,
2,0,0,1,0,64215,0.248797,0.248457,-1.44213,33,0.0152436,10,-0.000358309,-2.84099,-0.366103,-0.161157,9.09024,0.248457,
2,0,0,1,0,64215.2,0.241308,0.240981,-1.5174,33,0.0150567,10,-0.000365663,-2.8189,-0.475315,-0.124128,7.3478,0.240981,
2,0,0,1,0,64215.3,0.233814,0.233509,-1.58406,33,0.0148611,10,-0.000369892,-2.80023,-0.39025,-0.151185,9.33362,0.233509,
2,0,0,1,0,64215.4,0.226326,0.225996,-1.64437,33,0.0146576,10,-0.000371622,-2.784,-0.403703,-0.146147,9.37237,0.225996,
2,0,0,1,0,64215.5,0.218834,0.218478,-1.70306,33,0.0144465,10,-0.000372081,-2.76877,-0.426217,-0.138427,9.22457,0.218478,
2,0,0,1,0,64215.7,0.211344,0.211038,-1.76336,33,0.014228,10,-0.000372136,-2.75366,-0.63769,-0.0925215,6.37071,0.211038,
2,0,0,1,0,64215.8,0.203856,0.203502,-1.82653,33,0.0140021,10,-0.000371703,-2.73837,-0.627748,-0.0939868,6.67696,0.203502,
2,0,0,1,0,64215.9,0.196362,0.196051,-1.88425,33,0.0137688,10,-0.000369409,-2.72486,-0.48229,-0.122333,8.98232,0.196051,
2,0,0,1,0,64216,0.18887,0.188511,-1.94287,33,0.0135277,10,-0.000366253,-2.71156,-0.411306,-0.143446,10.9104,0.188511,
2,0,0,1,0,64216.2,0.18138,0.181077,-2.012,33,0.0132785,10,-0.000364327,-2.69637,-0.507545,-0.116246,9.15054,0.1810772,
2,0,0,1,0,64216.3,0.173892,0.173542,-2.10038,33,0.01302,10,-0.000364503,-2.6777,-0.44576,-0.132358,10.8155,0.173542,
2,0,0,1,0,64216.4,0.166398,0.166091,-2.19585,33,0.0127503,10,-0.00036471,-2.6584,-0.33043,-0.178555,15.2955,0.166091,
2,0,0,1,0,64216.5,0.158905,0.158554,-2.31464,33,0.0124666,10,-0.000366995,-2.63552,-0.266447,-0.221432,20.077,0.158554,
2,0,0,1,0,64216.7,0.151417,0.151053,-2.49661,33,0.0121645,10,-0.00037712,-2.60265,-0.195583,-0.301662,29.5226,0.151053,
2,0,0,1,0,64216.8,0.143927,0.143573,-2.79265,33,0.0118335,10,-0.000400951,-2.55398,-0.131528,-0.448572,48.8984,0.143573,
2,0,0,1,0,64216.9,0.136435,0.136132,-3.25081,33,0.0114562,10,-0.000442539,-2.48801,-0.100161,-0.58905,74.6183,0.136132,
2,0,0,1,0,64217,0.128941,0.128619,-3.84882,33,0.0110116,10,-0.00049503,-2.41467,-0.103256,-0.571393,85.7323,0.128619,
2,0,0,1,0,64217.2,0.121453,0.121159,-4.45005,33,0.0104909,10,-0.000539162,-2.35164,-0.137642,-0.428649,74.3941,0.121159,
2,0,0,1,0,64217.3,0.113963,0.113648,-4.96806,33,0.0098996,10,-0.000564608,-2.30381,-0.196952,-0.299566,58.0641,0.113648,
2,0,0,1,0,64217.4,0.106471,0.106152,-5.36204,33,0.00925054,10,-0.000569193,-2.27067,-0.302376,-0.195121,40.7746,0.106152,
2,0,0,1,0,64217.5,0.0989825,0.0986351,-5.56359,33,0.00856443,10,-0.000548765,-2.25464,-0.768359,-0.0767871,16.6513,0.09863513,
2,0,0,1,0,64217.7,0.0914889,0.0911161,-5.57066,33,0.00786516,10,-0.000507577,-2.25409,1.56361,0.0377331,-8.19916,0.0911161,
2,0,0,1,0,64217.8,0.0839993,0.083631,-5.45161,33,0.0071747,10,-0.000455923,-2.26348,0.590913,0.0998456,-21.2182,0.083631,
2,0,0,1,0,64217.9,0.076507,0.07619,-5.31646,33,0.00650077,10,-0.000405061,-2.27438,0.716281,0.0823699,-17.0715,0.07619,
2,0,0,1,0,64218,0.0690187,0.0686911,-5.20505,33,0.00584274,10,-0.000357541,-2.28357,1.06276,0.0555158,-11.2784,0.0686911,
2,0,0,1,0,64218.2,0.0615251,0.0612055,-5.10672,33,0.00519644,10,-0.000312559,-2.29186,0.815019,0.0723909,-14.4499,0.06120548,
2,0,0,1,0,64218.3,0.0540355,0.0536864,-5.00226,33,0.00456308,10,-0.000268553,-2.30083,0.730065,0.0808147,-15.7859,0.0536864,
2,0,0,1,0,64218.4,0.0465432,0.0461925,-4.88476,33,0.00394307,10,-0.000225639,-2.31116,0.694993,0.0848929,-16.177,0.0461925,
2,0,0,1,0,64218.5,0.0390549,0.0386708,-4.75951,33,0.00333941,10,-0.000184054,-2.32244,0.604413,0.0976154,-18.0877,0.0386708,
2,0,0,1,0,64218.7,0.0315613,0.0311628,-4.59561,33,0.00275314,10,-0.000143212,-2.33766,0.513579,0.11488,-20.6139,0.0311628,
2,0,0,1,0,64218.8,0.0240717,0.02376,-4.4271,33,0.00218754,10,-0.000105188,-2.35388,0.442594,0.133305,-23.0796,0.02376,
2,0,0,1,0,64218.9,0.0165781,0.0162653,-4.27354,33,0.00164222,10,-6.95105e-05,-2.36921,0.458091,0.128795,-21.4785,0.0162653,
2,0,0,1,0,64219,0.00909108,0.00873512,-4.13825,33,0.00111584,10,-3.61482e-05,-2.38318,0.630894,0.0935181,-15.088,0.008735125,
2,0,0,1,0,64219.2,0.00159616,0.00118619,-4.0573,33,0.000603695,10,-4.81271e-06,-2.39176, , , ,0.00118619,
2,0,0,1,0,64219.2,0.000199195,-0.000214617,-4.03341,33,0.000509021,10,8.65639e-07,-2.39433, , , ,-0.000214617,