File: Figure_codes/Fig_3-5/rawdata_trumpetplot_data/after 10th/20221101_1-115_003_TrumpetPlot_ParaChange_from10_every3_10_CV_C01_30.csv
mode,ox/red,error,control changes,counter inc.,time/s,control/V,Ewe/V,<I>/mA,cycle number,(Q-Qo)/C,I Range,P/W,log(|I|),Tafel slope mV/dec,alpha_eff,dI/d(E-IR),E-IR/V,
2,1,0,0,0,60294.4,-2.44065e-05,-0.000287149,5.06964,31,0.0000000E+000,10,-1.45574e-06,-2.29502, , , ,-0.0002871489,
2,1,0,1,0,60294.5,0.00977853,0.00942743,7.17856,31,0.000308666,10,6.76754e-05,-2.14396,0.122989,0.479718,133.93,0.00942743,
2,1,0,1,0,60294.5,0.0197755,0.0194396,8.21982,31,0.000695817,10,0.00015979,-2.08514,0.226715,0.260239,83.5019,0.0194396,
2,1,0,1,0,60294.6,0.0297726,0.0294205,8.95208,31,0.0011261,10,0.000263375,-2.04808,0.329439,0.179092,62.4892,0.0294205,
2,1,0,1,0,60294.6,0.0397514,0.0393819,9.53613,31,0.00158773,10,0.000375551,-2.02063,0.363953,0.162109,60.3665,0.0393819,
2,1,0,1,0,60294.7,0.0497393,0.0493859,10.1053,31,0.00207774,10,0.000499058,-1.99545,0.415451,0.142014,55.9467,0.0493859,
2,1,0,1,0,60294.7,0.0597364,0.0594024,10.662,31,0.00259676,10,0.000633347,-1.97216,0.424883,0.138862,57.7846,0.0594024,
2,1,0,1,0,60294.8,0.0697152,0.0693505,11.2362,31,0.00314314,10,0.000779233,-1.94938,0.462842,0.127473,55.8868,0.0693505,
2,1,0,1,0,60294.8,0.0796941,0.079333,11.8197,31,0.00371856,10,0.000937694,-1.92739,0.472704,0.124814,57.5942,0.079333,
2,1,0,1,0,60294.9,0.0896911,0.0892862,12.3682,31,0.00432376,10,0.00110431,-1.90769,0.517939,0.113913,55.0245,0.0892862,
2,1,0,1,0,60294.9,0.099679,0.0993105,12.9234,31,0.00495501,10,0.00128343,-1.88862,0.559601,0.105432,53.1534,0.0993105,
2,1,0,1,0,60295,0.109658,0.109246,13.4819,31,0.00561334,10,0.00147285,-1.87025,0.509359,0.115832,60.9465,0.1092463,
2,1,0,1,0,60295,0.119655,0.119303,14.1685,31,0.00630409,10,0.00169034,-1.84868,0.43609,0.135293,74.8582,0.119303,
2,1,0,1,0,60295.1,0.129652,0.129315,14.9914,31,0.00703285,10,0.00193861,-1.82416,0.415139,0.142121,83.0775,0.129315,
2,1,0,1,0,60295.1,0.139631,0.139277,15.7849,31,0.00780126,10,0.00219848,-1.80176,0.477254,0.123624,76.1868,0.139277,
2,1,0,1,0,60295.2,0.149619,0.149259,16.4612,31,0.00860649,10,0.00245697,-1.78354,0.679869,0.0867814,55.6782,0.149259,
2,1,0,1,0,60295.2,0.159616,0.15925,16.7934,31,0.00943977,10,0.00267434,-1.77486,5.66413,0.0104164,6.82466,0.15925,
2,1,0,1,0,60295.3,0.169595,0.16922,16.5043,31,0.0102737,10,0.00279285,-1.7824,-0.516891,-0.114144,-73.4175,0.16922,
2,1,0,1,0,60295.3,0.179573,0.179216,15.3985,31,0.0110726,10,0.00275966,-1.81252,-0.245369,-0.240454,-144.458,0.179216,
2,1,0,1,0,60295.4,0.18957,0.189187,13.8229,31,0.0118039,10,0.00261511,-1.8594,-0.196048,-0.300946,-162.297,0.189187,
2,1,0,1,0,60295.4,0.199558,0.199193,12.2925,31,0.0124542,10,0.00244858,-1.91036,-0.207879,-0.283819,-136.143,0.199193,
2,1,0,1,0,60295.5,0.209537,0.209215,11.0731,31,0.0130354,10,0.00231666,-1.95573,-0.233543,-0.25263,-109.189,0.209215,
2,1,0,1,0,60295.5,0.219534,0.219158,10.1452,31,0.0135646,10,0.0022234,-1.99374,-0.293931,-0.200727,-79.5261,0.219158,
2,1,0,1,0,60295.6,0.229531,0.229202,9.45638,31,0.0140539,10,0.00216742,-2.02428,-0.363503,-0.162309,-59.9445,0.229202,
2,1,0,1,0,60295.6,0.23951,0.239151,8.94281,31,0.0145125,10,0.00213868,-2.04853,-0.46361,-0.127262,-44.433,0.239151,
2,1,0,1,0,60295.7,0.249498,0.249156,8.5422,31,0.0149482,10,0.00212834,-2.06843,-0.540452,-0.109168,-36.3886,0.249156,
2,1,0,1,0,60295.7,0.259495,0.25915,8.22529,31,0.015367,10,0.00213159,-2.08485,-0.626858,-0.0941203,-30.2016,0.25915,
2,1,0,1,0,60295.8,0.269474,0.269107,7.96705,31,0.0157706,10,0.00214399,-2.0987,-0.805234,-0.0732707,-22.7816,0.269107,
2,1,0,1,0,60295.8,0.279453,0.279123,7.75223,31,0.0161627,10,0.00216382,-2.11057,-0.900299,-0.0655338,-19.8278,0.279123,
2,1,0,1,0,60295.9,0.28945,0.289071,7.56551,31,0.0165456,10,0.00218697,-2.12116,-1.04948,-0.0562184,-16.5991,0.289071,
2,1,0,1,0,60295.9,0.299438,0.29912,7.40794,31,0.0169191,10,0.00221586,-2.1303,-0.0792345,-0.744626,-208.947,0.29912,
2,1,0,1,0,60296,0.291747,0.291429,1.77593,31,0.017104,10,0.000517557,-2.75057,0.0103656,5.69191,385.014,0.291429,
2,0,0,1,0,60296,0.28175,0.281391,-0.835529,31,0.0171189,10,-0.000235111,-3.07804,-0.00977738,-6.03434,179.177,0.281391,
2,0,0,1,0,60296.1,0.27178,0.271416,-2.20003,31,0.0170401,10,-0.000597124,-2.65757,-0.0476379,-1.23851,105.219,0.271416,
2,0,0,1,0,60296.1,0.261783,0.261412,-3.04356,31,0.0169075,10,-0.000795623,-2.51662,-0.100364,-0.587861,69.7133,0.261412,
2,0,0,1,0,60296.2,0.251786,0.251389,-3.64468,31,0.0167395,10,-0.000916234,-2.43834,-0.163198,-0.361524,51.2489,0.2513895,
2,0,0,1,0,60296.2,0.241807,0.241464,-4.0911,31,0.016546,10,-0.000987855,-2.38816,-0.233443,-0.252738,40.446,0.241464,
2,0,0,1,0,60296.3,0.231824,0.231481,-4.46689,31,0.0163323,10,-0.001034,-2.34999,-0.287721,-0.20506,35.6743,0.231481,
2,0,0,1,0,60296.3,0.221822,0.221461,-4.77518,31,0.016101,10,-0.00105751,-2.32101,-0.361475,-0.16322,30.4312,0.221461,
2,0,0,1,0,60296.4,0.211844,0.211456,-5.0641,31,0.0158554,10,-0.00107084,-2.2955,-0.45193,-0.130551,25.7705,0.2114564,
2,0,0,1,0,60296.4,0.201865,0.201456,-5.32023,31,0.0155961,10,-0.00107179,-2.27407,-0.476024,-0.123943,25.7637,0.201456,
2,0,0,1,0,60296.5,0.191868,0.191507,-5.58235,31,0.0153235,10,-0.00106906,-2.25318,-0.48849,-0.12078,26.3039,0.191507,
2,0,0,1,0,60296.5,0.18188,0.181511,-5.84308,31,0.0150386,10,-0.00106058,-2.23336,-0.462225,-0.127644,29.1069,0.181511,
2,0,0,1,0,60296.6,0.171901,0.171521,-6.12659,31,0.0147402,10,-0.00105084,-2.21278,-0.461933,-0.127724,30.4993,0.171521,
2,0,0,1,0,60296.6,0.161904,0.161533,-6.45277,31,0.014426,10,-0.00104234,-2.19025,-0.392766,-0.150217,37.8652,0.161533,
2,0,0,1,0,60296.7,0.151907,0.151558,-6.89868,31,0.0140925,10,-0.00104555,-2.16123,-0.314977,-0.187316,50.473,0.151558,
2,0,0,1,0,60296.7,0.141928,0.141536,-7.57054,31,0.0137326,10,-0.0010715,-2.12087,-0.204382,-0.288675,85.4403,0.1415356,
2,0,0,1,0,60296.8,0.13194,0.1316,-8.65369,31,0.0133297,10,-0.00113883,-2.0628,-0.150657,-0.391619,132.298,0.1316,
2,0,0,1,0,60296.8,0.121943,0.121638,-10.1574,31,0.0128605,10,-0.00123553,-1.99322,-0.151331,-0.389874,154.423,0.1216383,
2,0,0,1,0,60296.9,0.111964,0.111646,-11.7806,31,0.0123131,10,-0.00131525,-1.92883,-0.171644,-0.343735,157.941,0.111646,
2,0,0,1,0,60296.9,0.101985,0.101625,-13.2544,31,0.0116872,10,-0.00134698,-1.87764,-0.226079,-0.260971,134.922,0.101625,
2,0,0,1,0,60297,0.0919883,0.091679,-14.4509,31,0.0109931,10,-0.00132485,-1.8401,-0.316721,-0.186284,104.984,0.091679,
2,0,0,1,0,60297,0.0820004,0.0816452,-15.2526,31,0.0102498,10,-0.0012453,-1.81666,-0.623373,-0.0946463,56.3236,0.0816452,
2,0,0,1,0,60297.1,0.0720215,0.0716278,-15.6015,31,0.00947827,10,-0.0011175,-1.80683,-2.68896,-0.0219415,13.3501,0.0716278,
2,0,0,1,0,60297.1,0.0620245,0.061626,-15.5965,31,0.0086974,10,-0.000961152,-1.80697,3.6434,0.0161937,-9.85828,0.061626,
2,0,0,1,0,60297.2,0.0520275,0.0516599,-15.4579,31,0.00792073,10,-0.000798551,-1.81085,2.0229,0.0291661,-17.5848,0.0516599,
2,0,0,1,0,60297.2,0.0420486,0.0417209,-15.2622,31,0.00715394,10,-0.000636753,-1.81638,1.70355,0.0346336,-20.6501,0.0417209,
2,0,0,1,0,60297.3,0.0320607,0.0317119,-15.0469,31,0.00639733,10,-0.000477165,-1.82255,1.30192,0.0453176,-26.5931,0.0317119,
2,0,0,1,0,60297.3,0.0220637,0.0217032,-14.7357,31,0.00565231,10,-0.000319812,-1.83163,0.965179,0.0611285,-35.1725,0.0217032,
2,0,0,1,0,60297.4,0.0120848,0.0117307,-14.3463,31,0.00492635,10,-0.000168293,-1.84326,0.683534,0.0863161,-48.2956,0.0117307,
2,0,0,1,0,60297.4,0.00210598,0.00169706,-13.8768,31,0.00422288,10,-2.35499e-05,-1.85771,0.681315,0.0865973,-46.8286,0.00169706,
2,0,0,1,0,60297.5,-0.00789103,-0.00826999,-13.3449,31,0.00354275,10,0.000110362,-1.87468,0.637653,0.0925268,-48.1895,-0.00826999,
2,0,0,1,0,60297.5,-0.017879,-0.0182451,-12.916,31,0.00288801,10,0.000235654,-1.88887,0.862028,0.0684432,-34.5083,-0.0182451,
2,0,0,1,0,60297.6,-0.0278578,-0.0282527,-12.6164,31,0.00225166,10,0.000356448,-1.89906,1.22439,0.0481874,-23.7294,-0.0282527,
2,0,0,1,0,60297.6,-0.0378549,-0.0382475,-12.4573,31,0.00162532,10,0.00047646,-1.90458,2.61613,0.0225524,-10.9655,-0.0382475,
2,0,0,1,0,60297.7,-0.0478519,-0.0482206,-12.4245,31,0.00100362,10,0.000599117,-1.90572,-3.88178,-0.0151992,7.37322,-0.0482206,
2,0,0,1,0,60297.7,-0.0578126,-0.0582241,-12.5048,31,0.000383056,10,0.000728079,-1.90292,-2.34463,-0.0251639,12.287,-0.0582241,
2,0,0,1,0,60297.8,-0.0678187,-0.0682033,-12.6719,31,-0.00024615,10,0.000864262,-1.89716,-1.35544,-0.0435282,21.5241,-0.0682033,
2,0,0,1,0,60297.8,-0.0778157,-0.0782094,-12.9183,31,-0.000885775,10,0.00101033,-1.8888,-1.06858,-0.0552135,27.8579,-0.07820943,
2,0,0,1,0,60297.9,-0.0877945,-0.0881636,-13.2626,31,-0.00153869,10,0.00116928,-1.87737,-0.808624,-0.0729634,37.7579,-0.0881636,
2,0,0,1,0,60297.9,-0.0977734,-0.0982017,-13.6664,31,-0.00221034,10,0.00134206,-1.86435,-0.680053,-0.0867579,46.3011,-0.0982017,
2,0,0,1,1,60298,-0.0936874,-0.09406,-7.55227,31,-0.0026827,10,0.000710366,-2.12192,-0.0257176,-2.29415,677.41,-0.09406,
2,0,0,1,1,60298,-0.0837086,-0.0841204,-2.39089,31,-0.00291948,10,0.000201122,-2.62144,-0.0129695,-4.54914,410.787,-0.0841204,
2,1,0,1,1,60298.1,-0.0737025,-0.0741178,1.04791,31,-0.00294748,10,-7.76685e-05,-2.97968,0.00707774,8.336,291.588,-0.0741178,
2,1,0,1,1,60298.1,-0.0637236,-0.0641605,3.48858,31,-0.00283092,10,-0.000223829,-2.45735,0.0380586,1.55024,210.008,-0.0641605,
2,1,0,1,1,60298.2,-0.0537447,-0.0541334,5.32314,31,-0.00260863,10,-0.000288159,-2.27383,0.0786668,0.749999,154.987,-0.0541334,
2,1,0,1,1,60298.2,-0.0437477,-0.0441385,6.66624,31,-0.00230713,10,-0.000294238,-2.17612,0.134008,0.440271,114.436,-0.0441385,
2,1,0,1,1,60298.3,-0.0337507,-0.0341238,7.6659,31,-0.00194753,10,-0.00026159,-2.11544,0.208062,0.283569,84.6778,-0.0341238,
2,1,0,1,1,60298.3,-0.0237809,-0.0241827,8.36784,31,-0.00154733,10,-0.000202357,-2.07739,0.321279,0.183641,59.9503,-0.0241827,
2,1,0,1,1,60298.4,-0.0137839,-0.0141428,8.86313,31,-0.00111575,10,-0.00012535,-2.05241,0.521235,0.113193,39.1218,-0.0141428,
2,1,0,1,1,60298.4,-0.0037869,-0.0041558,9.19062,31,-0.000663886,10,-3.81944e-05,-2.03666,0.812228,0.0726397,26.0555,-0.0041558,
2,1,0,1,1,60298.4,-2.55332e-05,-0.000458935,9.25854,31,-0.000491178,10,-4.24907e-06,-2.03346, , , ,-0.000458935,