File: Figure_codes/Fig_3-5/rawdata_trumpetplot_data/after 10th/20221101_1-115_003_TrumpetPlot_ParaChange_from10_every3_03_CV_C01_17.csv
mode,ox/red,error,control changes,counter inc.,time/s,control/V,Ewe/V,<I>/mA,cycle number,(Q-Qo)/C,I Range,P/W,log(|I|),Tafel slope mV/dec,alpha_eff,dI/d(E-IR),E-IR/V,
2,0,0,1,0,34432.2,2.44065e-05,-0.000439847,-0.0962139,18,0.0000000E+000,10,4.23194e-08,-4.01676, , , ,-0.000439847,
2,1,0,1,0,34433.7,0.00729041,0.0069943,0.200206,18,0.000252333,10,1.4003e-06,-3.69852,0.08094,0.728935,5.66952,0.006994301,
2,1,0,1,0,34435.2,0.0147815,0.0145086,0.231918,18,0.00060025,10,3.3648e-06,-3.63466,0.137601,0.428776,3.89167,0.01450856,
2,1,0,1,0,34436.7,0.0222725,0.0219708,0.260011,18,0.000992586,10,5.71266e-06,-3.58501,0.172337,0.342353,3.46831,0.0219708,
2,1,0,1,0,34438.2,0.0297635,0.0294371,0.287677,18,0.00142494,10,8.46837e-06,-3.5411,0.198092,0.297842,3.3334,0.0294371,
2,1,0,1,0,34439.7,0.0372545,0.0369216,0.313665,18,0.00189726,10,1.1581e-05,-3.50353,0.208922,0.282402,3.46461,0.0369216,
2,1,0,1,0,34441.2,0.0447456,0.0444155,0.339949,18,0.00240916,10,1.5099e-05,-3.46859,0.254656,0.231685,3.0722,0.0444155,
2,1,0,1,0,34442.7,0.0522367,0.0518969,0.363313,18,0.00295821,10,1.88548e-05,-3.43972,0.232416,0.253855,3.59415,0.0518969,
2,1,0,1,0,34444.2,0.0597277,0.0593984,0.385321,18,0.00354179,10,2.28875e-05,-3.41418,0.320214,0.184252,2.76931,0.0593984,
2,1,0,1,0,34445.7,0.0672187,0.0668996,0.40543,18,0.00415641,10,2.71231e-05,-3.39208,0.441297,0.133697,2.10422,0.0668996,
2,1,0,1,0,34447.2,0.0747092,0.0743792,0.420887,18,0.00479743,10,3.13052e-05,-3.37583,0.456435,0.129263,2.12133,0.07437925,
2,1,0,0,0,34448.7,0.0822001,0.0819357,0.434746,18,0.00546175,10,3.56212e-05,-3.36176,0.492837,0.119715,2.03582,0.0819357,
2,1,0,1,0,34450.2,0.0896911,0.0893798,0.455473,18,0.00615133,10,4.07101e-05,-3.34154,0.283395,0.20819,3.71616,0.0893798,
2,1,0,0,0,34451.7,0.097182,0.0968599,0.487999,18,0.00688053,10,4.72675e-05,-3.31158,0.20045,0.294337,5.60754,0.0968599,
2,1,0,1,0,34453.2,0.104673,0.104378,0.530921,18,0.00766534,10,5.54165e-05,-3.27497,0.202453,0.291425,6.01925,0.104378,
2,1,0,0,0,34454.7,0.112164,0.111848,0.567398,18,0.00851074,10,6.34622e-05,-3.24611,0.351157,0.168016,3.71027,0.111848,
2,1,0,1,0,34456.2,0.119655,0.119355,0.592878,18,0.00940352,10,7.07631e-05,-3.22703,0.622097,0.0948406,2.19712,0.119355,
2,1,0,0,0,34457.7,0.127146,0.126803,0.608526,18,0.0103302,10,7.71626e-05,-3.21572,0.785608,0.0751011,1.79105,0.126803,
2,1,0,1,0,34459.2,0.134637,0.134312,0.610603,18,0.0112759,10,8.20115e-05,-3.21424,-0.411864,-0.143251,-3.40887,0.134312,
2,1,0,1,0,34460.7,0.142127,0.141851,0.549752,18,0.0121773,10,7.79831e-05,-3.25983,-0.10566,-0.558396,-11.9049,0.1418514,
2,1,0,1,0,34462.2,0.149618,0.14931,0.444525,18,0.0129442,10,6.63723e-05,-3.3521,-0.076689,-0.769341,-13.3419,0.14931,
2,1,0,1,0,34463.6,0.157109,0.156783,0.368849,18,0.013569,10,5.78294e-05,-3.43315,-0.117056,-0.504034,-7.27743,0.156783,
2,1,0,1,0,34465.1,0.1646,0.164274,0.335415,18,0.0141154,10,5.50999e-05,-3.47442,-0.250438,-0.235587,-3.08387,0.164274,
2,1,0,1,0,34466.6,0.172091,0.171741,0.31722,18,0.0146247,10,5.44798e-05,-3.49864,-0.571375,-0.10326,-1.28223,0.171741,
2,1,0,1,0,34468.1,0.179582,0.179291,0.308666,18,0.0151138,10,5.53409e-05,-3.51051,-0.638179,-0.0924505,-1.11466,0.179291,
2,1,0,1,0,34469.6,0.187074,0.186755,0.301854,18,0.0155909,10,5.63728e-05,-3.5202,-1.10223,-0.0535279,-0.629174,0.1867549,
2,1,0,1,0,34471.1,0.194564,0.194216,0.296683,18,0.0160602,10,5.76205e-05,-3.52771,-1.2181,-0.0484359,-0.560924,0.194216,
2,1,0,1,0,34472.6,0.202056,0.201765,0.292917,18,0.0165225,10,5.91005e-05,-3.53325,-1.70986,-0.0345058,-0.393062,0.201765,
2,1,0,1,0,34474.1,0.209547,0.209197,0.289478,18,0.0169796,10,6.05579e-05,-3.53838,-1.98389,-0.0297395,-0.335513,0.2091966,
2,1,0,1,0,34475.6,0.217038,0.216726,0.287031,18,0.0174316,10,6.22071e-05,-3.54207,-1.21122,-0.0487114,-0.545487,0.2167263,
2,1,0,1,0,34477.1,0.224529,0.224245,0.284437,18,0.01788,10,6.37835e-05,-3.54601,-2.47154,-0.0238717,-0.264112,0.224245,
2,1,0,1,0,34478.6,0.232019,0.231722,0.280976,18,0.0183246,10,6.51084e-05,-3.55133,-2.16294,-0.0272776,-0.300025,0.231722,
2,1,0,0,0,34480.1,0.23951,0.239177,0.279724,18,0.0187659,10,6.69035e-05,-3.55327,-1.99151,-0.0296257,-0.323471,0.239177,
2,1,0,1,0,34481.6,0.247001,0.246685,0.278374,18,0.0192045,10,6.86705e-05,-3.55537,-1.38727,-0.0425295,-0.462001,0.246685,
2,1,0,0,0,34483.1,0.254492,0.254175,0.276152,18,0.0196403,10,7.0191e-05,-3.55885,-2.15314,-0.0274018,-0.295538,0.254175,
2,1,0,1,0,34484.6,0.261983,0.261653,0.275167,18,0.0200733,10,7.19983e-05,-3.5604,-6.55387,-0.00900231,-0.0965494,0.261653,
2,1,0,0,0,34486.1,0.269474,0.269117,0.272701,18,0.0205038,10,7.33883e-05,-3.56431,-5.13098,-0.0114988,-0.122048,0.269117,
2,1,0,1,0,34487.6,0.276965,0.27658,0.270252,18,0.0209309,10,7.47463e-05,-3.56823,-2.05285,-0.0287405,-0.303873,0.27658,
2,1,0,0,0,34489.1,0.284456,0.28417,0.268388,18,0.0213547,10,7.6268e-05,-3.57124,-2.62099,-0.0225106,-0.2349,0.28417,
2,1,0,1,0,34490.6,0.291947,0.291597,0.265735,18,0.0217753,10,7.74877e-05,-3.57555,-4.41354,-0.013368,-0.139136,0.291597,
2,1,0,1,0,34492.1,0.299437,0.299126,0.264289,18,0.0221931,10,7.90557e-05,-3.57792,-0.0026629,-22.1563,-116.593,0.299126,
2,1,0,1,0,34493.5,0.293744,0.293419,-0.0159272,18,0.022233,10,-4.67334e-06,-4.79786,-0.00383184,-15.3973,5.57817,0.293419,
2,0,0,1,0,34495,0.286253,0.285916,-0.0454781,18,0.0221648,10,-1.30029e-05,-4.3422,-0.0318581,-1.85196,3.34885,0.285916,
2,0,0,0,0,34496.5,0.278763,0.278476,-0.0674104,18,0.0220585,10,-1.87722e-05,-4.17127,-0.0623227,-0.946685,2.47581,0.278476,
2,0,0,1,0,34498,0.271272,0.270989,-0.0828881,18,0.0219248,10,-2.24618e-05,-4.08151,-0.0981407,-0.601178,1.96023,0.270989,
2,0,0,0,0,34499.5,0.263781,0.263466,-0.095675,18,0.0217682,10,-2.52071e-05,-4.0192,-0.131734,-0.447873,1.69995,0.263466,
2,0,0,1,0,34501,0.25629,0.255991,-0.110329,18,0.0215928,10,-2.82432e-05,-3.95731,-0.230445,-0.256027,1.08616,0.2559908,
2,0,0,0,0,34502.5,0.248799,0.248464,-0.119051,18,0.0214006,10,-2.95798e-05,-3.92427,-0.211408,-0.279081,1.31024,0.248464,
2,0,0,1,0,34504,0.241308,0.241027,-0.128869,18,0.0211932,10,-3.10611e-05,-3.88985,-0.238055,-0.247842,1.2523,0.241027,
2,0,0,0,0,34505.5,0.233817,0.233506,-0.139885,18,0.0209713,10,-3.2664e-05,-3.85423,-0.262509,-0.224754,1.22168,0.233506,
2,0,0,1,0,34507,0.226326,0.225981,-0.147195,18,0.0207359,10,-3.32633e-05,-3.83211,-0.273735,-0.215537,1.2457,0.225981,
2,0,0,0,0,34508.5,0.218835,0.218515,-0.155907,18,0.0204874,10,-3.40679e-05,-3.80714,-0.275788,-0.213933,1.2973,0.218515,
2,0,0,1,0,34510,0.211344,0.211036,-0.164674,18,0.0202259,10,-3.47522e-05,-3.78337,-0.390403,-0.151126,0.971182,0.211036,
2,0,0,1,0,34511.5,0.203854,0.203507,-0.172196,18,0.019951,10,-3.50431e-05,-3.76398,-0.34364,-0.171691,1.16549,0.203507,
2,0,0,1,0,34513,0.196363,0.196061,-0.182845,18,0.0196623,10,-3.58489e-05,-3.73792,-0.296042,-0.199296,1.42636,0.196061,
2,0,0,1,0,34514.5,0.188871,0.188547,-0.193103,18,0.019358,10,-3.64091e-05,-3.71421,-0.290575,-0.203046,1.532,0.188547,
2,0,0,1,0,34516,0.181381,0.181087,-0.205384,18,0.0190372,10,-3.71923e-05,-3.68743,-0.29123,-0.202589,1.6224,0.181087,
2,0,0,1,0,34517.5,0.173889,0.173577,-0.219437,18,0.0186972,10,-3.80892e-05,-3.65869,-0.270815,-0.217861,1.86552,0.173577,
2,0,0,1,0,34519,0.166398,0.166061,-0.23719,18,0.018334,10,-3.93879e-05,-3.6249,-0.211821,-0.278537,2.5817,0.166061,
2,0,0,1,0,34520.5,0.158907,0.158569,-0.258398,18,0.0179402,10,-4.09739e-05,-3.58771,-0.152951,-0.385745,3.93354,0.158569,
2,0,0,1,0,34521.9,0.151416,0.151097,-0.297,18,0.017502,10,-4.48759e-05,-3.52724,-0.112729,-0.523378,6.08535,0.151097,
2,0,0,1,0,34523.4,0.143925,0.143663,-0.358242,18,0.0169916,10,-5.1466e-05,-3.44582,-0.0761586,-0.774699,10.8606,0.143663,
2,0,0,1,0,34524.9,0.136434,0.136061,-0.449124,18,0.0163661,10,-6.11082e-05,-3.34763,-0.0756827,-0.77957,13.6239,0.1360608,
2,0,0,1,0,34526.4,0.128943,0.128612,-0.544151,18,0.0155969,10,-6.99845e-05,-3.26428,-0.121878,-0.484091,10.2229,0.128612,
2,0,0,0,0,34527.9,0.121453,0.121148,-0.605772,18,0.014707,10,-7.33883e-05,-3.21769,-0.263215,-0.224151,5.27842,0.121148,
2,0,0,1,0,34529.4,0.113962,0.113621,-0.620147,18,0.013759,10,-7.04615e-05,-3.20751,-4.54613,-0.0129781,0.314554,0.113621,
2,0,0,0,0,34530.9,0.106471,0.106146,-0.615312,18,0.0128069,10,-6.53128e-05,-3.2109,1.26058,0.0468037,-1.12521,0.106146,
2,0,0,1,0,34532.4,0.0989798,0.0986254,-0.601418,18,0.0118712,10,-5.93151e-05,-3.22082,0.838902,0.07033,-1.64788,0.0986254,
2,0,0,0,0,34533.9,0.0914889,0.0911803,-0.584174,18,0.0109598,10,-5.32652e-05,-3.23346,0.492797,0.119725,-2.72356,0.0911803,
2,0,0,1,0,34535.4,0.083998,0.0836589,-0.563055,18,0.0100773,10,-4.71046e-05,-3.24945,0.38571,0.152965,-3.35288,0.0836589,
2,0,0,0,0,34536.9,0.076507,0.0761925,-0.543851,18,0.00922554,10,-4.14374e-05,-3.26452,0.494581,0.119293,-2.52996,0.07619255,
2,0,0,1,0,34538.4,0.069016,0.0687241,-0.524132,18,0.00840241,10,-3.60205e-05,-3.28056,0.542414,0.108773,-2.23456,0.0687241,
2,0,0,0,0,34539.9,0.0615251,0.0611963,-0.50908,18,0.00760423,10,-3.11538e-05,-3.29321,0.575772,0.102471,-2.03982,0.0611963,
2,0,0,1,0,34541.4,0.0540342,0.0537204,-0.493143,18,0.00683088,10,-2.64919e-05,-3.30703,0.62179,0.0948873,-1.82245,0.0537204,
2,0,0,1,0,34542.9,0.0465436,0.0462322,-0.47575,18,0.00608222,10,-2.1995e-05,-3.32262,0.578759,0.101942,-1.89896,0.0462322,
2,0,0,1,0,34544.4,0.0390526,0.0386947,-0.459215,18,0.00535919,10,-1.77692e-05,-3.33798,0.353484,0.16691,-2.98337,0.0386947,
2,0,0,1,0,34545.9,0.0315615,0.0312019,-0.442298,18,0.00466218,10,-1.38005e-05,-3.35429,0.471963,0.12501,-2.156,0.0312019,
2,0,0,1,0,34547.4,0.0240706,0.0237619,-0.426194,18,0.0039897,10,-1.01272e-05,-3.37039,0.535031,0.110274,-1.84085,0.02376187,
2,0,0,1,0,34548.9,0.0165795,0.016251,-0.417323,18,0.00333627,10,-6.78194e-06,-3.37953,1.05233,0.0560659,-0.912445,0.016251,
2,0,0,1,0,34550.4,0.00908846,0.00875688,-0.41073,18,0.00269449,10,-3.59671e-06,-3.38644,4.27209,0.0138106,-0.22174,0.00875688,
2,0,0,1,0,34551.9,0.00159739,0.00121541,-0.415959,18,0.00205462,10,-5.05562e-07,-3.38095, , , ,0.001215414,
2,0,0,0,0,34552.2,0.000199195,-0.000159264,-0.4126,18,0.00193463,10,6.57123e-08,-3.38447, , , ,-0.000159264,