File: Figure_codes/Fig_3-5/rawdata_trumpetplot_data/after 10th/20221101_1-115_003_TrumpetPlot_ParaChange_from10_every3_09_CV_C01_11.csv
mode,ox/red,error,control changes,counter inc.,time/s,control/V,Ewe/V,<I>/mA,cycle number,(Q-Qo)/C,I Range,P/W,log(|I|),Tafel slope mV/dec,alpha_eff,dI/d(E-IR),E-IR/V,
2,0,0,0,0,22854,2.44065e-05,-0.000363498,-5.34348,12,0.0000000E+000,10,1.94234e-06,-2.27218, , , ,-0.000363498,
2,1,0,1,0,22854.1,0.00978761,0.00944131,1.94834,12,-4.51583e-05,10,1.83949e-05,-2.71034,0.0153464,3.84455,273.005,0.00944131,
2,1,0,1,0,22854.2,0.0197755,0.0194134,3.54788,12,0.000243772,10,6.88765e-05,-2.45003,0.0840418,0.702031,96.9167,0.0194134,
2,1,0,1,0,22854.3,0.0297635,0.0294613,4.32275,12,0.000640364,10,0.000127354,-2.36424,0.155087,0.38043,64.0617,0.0294613,
2,1,0,1,0,22854.4,0.0397514,0.0394265,4.92265,12,0.00110341,10,0.000194083,-2.3078,0.18068,0.326544,62.7528,0.0394265,
2,1,0,1,0,22854.5,0.0497484,0.0494561,5.48909,12,0.00162431,10,0.000271469,-2.2605,0.225457,0.261691,55.9402,0.0494561,
2,1,0,1,0,22854.6,0.0597273,0.0593867,6.00563,12,0.0021985,10,0.000356655,-2.22144,0.266789,0.221149,51.8102,0.0593867,
2,1,0,1,0,22854.7,0.0697152,0.0694367,6.47959,12,0.00282346,10,0.000449921,-2.18845,0.351581,0.167813,42.4809,0.0694367,
2,1,0,1,0,22854.8,0.0797031,0.079405,6.90214,12,0.00349342,10,0.000548064,-2.16102,0.421523,0.139969,37.7012,0.079405,
2,1,0,1,0,22854.9,0.0896911,0.0894008,7.2665,12,0.00420249,10,0.000649631,-2.13867,0.428268,0.137764,39.1043,0.0894008,
2,1,0,1,0,22854.9,0.099679,0.0993706,7.71869,12,0.00494909,10,0.000767011,-2.11246,0.334558,0.176352,53.0211,0.0993706,
2,1,0,1,0,22855,0.109667,0.109341,8.37732,12,0.00575044,10,0.000915983,-2.07689,0.242025,0.243776,79.6815,0.109341,
2,1,0,1,0,22855.1,0.119655,0.11934,9.2059,12,0.00662924,10,0.00109863,-2.03593,0.273823,0.215467,77.3754,0.11934,
2,1,0,1,0,22855.2,0.129643,0.129332,9.87717,12,0.00758506,10,0.00127744,-2.00537,0.415514,0.141993,54.7057,0.129332,
2,1,0,1,0,22855.3,0.139631,0.13932,10.3173,12,0.00859654,10,0.00143742,-1.98643,0.72239,0.0816733,32.888,0.13932,
2,1,0,1,0,22855.4,0.149619,0.149319,10.3481,12,0.00963461,10,0.00154517,-1.98514,-0.515413,-0.114471,-46.0612,0.149319,
2,1,0,1,0,22855.5,0.159607,0.1593,9.08917,12,0.010618,10,0.00144791,-2.04148,-0.105505,-0.559215,-197.896,0.1593,
2,1,0,1,0,22855.6,0.169595,0.169254,7.02364,12,0.0114217,10,0.00118878,-2.15344,-0.0881331,-0.669442,-183.685,0.169254,
2,1,0,1,0,22855.7,0.179582,0.179229,5.63336,12,0.0120467,10,0.00100966,-2.24923,-0.132486,-0.44533,-98.1316,0.179229,
2,1,0,1,0,22855.8,0.18957,0.189262,4.92575,12,0.0125706,10,0.000932258,-2.30753,-0.219387,-0.268931,-51.7155,0.189262,
2,1,0,1,0,22855.9,0.199558,0.199276,4.53341,12,0.013041,10,0.000903399,-2.34357,-0.371346,-0.158882,-28.1089,0.1992757,
2,1,0,1,0,22856,0.209546,0.209269,4.30078,12,0.0134816,10,0.000900023,-2.36645,-0.40055,-0.147297,-24.7428,0.209269,
2,1,0,1,0,22856.1,0.219534,0.219239,4.14176,12,0.0139029,10,0.000908034,-2.38282,-0.744542,-0.0792433,-12.8109,0.219239,
2,1,0,1,0,22856.2,0.229522,0.229177,4.03076,12,0.0143115,10,0.000923756,-2.39461,-0.823467,-0.0716483,-11.2859,0.229177,
2,1,0,1,0,22856.3,0.23951,0.239192,3.95581,12,0.0147108,10,0.000946198,-2.40276,-1.95748,-0.0301408,-4.65366,0.239192,
2,1,0,1,0,22856.4,0.249498,0.249218,3.89987,12,0.0151029,10,0.00097192,-2.40895,-1.58567,-0.0372082,-5.65882,0.249218,
2,1,0,1,0,22856.5,0.259486,0.259202,3.8473,12,0.0154898,10,0.000997229,-2.41484,-1.17103,-0.0503828,-7.56302,0.2592023,
2,1,0,1,0,22856.6,0.269474,0.269164,3.79386,12,0.0158718,10,0.00102117,-2.42092,-2.10821,-0.0279858,-4.14643,0.269164,
2,1,0,1,0,22856.7,0.279462,0.279197,3.75103,12,0.0162492,10,0.00104728,-2.42585,-1.65229,-0.035708,-5.23117,0.279197,
2,1,0,1,0,22856.8,0.28945,0.289146,3.70577,12,0.0166219,10,0.00107151,-2.43112,-2.24807,-0.0262447,-3.79314,0.289146,
2,1,0,1,0,22856.9,0.299438,0.299157,3.65474,12,0.0169896,10,0.00109334,-2.43714,-0.0268891,-2.19419,-285.587,0.299157,
2,0,0,1,0,22857,0.291747,0.29144,-1.03755,12,0.0170329,10,-0.000302385,-2.98399,-0.0157507,-3.74586,140.009,0.29144,
2,0,0,1,0,22857.1,0.281759,0.281442,-1.74526,12,0.0168872,10,-0.000491191,-2.75814,-0.093294,-0.63241,42.869,0.281442,
2,0,0,1,0,22857.2,0.271771,0.271451,-2.06778,12,0.016696,10,-0.000561302,-2.6845,-0.164587,-0.358473,28.8954,0.271451,
2,0,0,1,0,22857.3,0.261783,0.261474,-2.29331,12,0.0164779,10,-0.00059964,-2.63954,-0.279741,-0.21091,18.8442,0.2614738,
2,0,0,1,0,22857.4,0.251795,0.251462,-2.46691,12,0.0162401,10,-0.000620333,-2.60785,-0.350494,-0.168334,16.2351,0.251462,
2,0,0,1,0,22857.5,0.241807,0.241491,-2.62085,12,0.0159857,10,-0.000632912,-2.58156,-0.394227,-0.14966,15.3496,0.241491,
2,0,0,1,0,22857.6,0.231815,0.231527,-2.76608,12,0.0157168,10,-0.000640423,-2.55814,-0.443435,-0.133052,14.3724,0.231527,
2,0,0,1,0,22857.7,0.221831,0.221524,-2.89429,12,0.0154348,10,-0.000641154,-2.53846,-0.540221,-0.109215,12.3302,0.221524,
2,0,0,1,0,22857.8,0.211843,0.211534,-3.02455,12,0.0151395,10,-0.000639796,-2.51934,-0.714037,-0.0826287,9.74793,0.211534,
2,0,0,1,0,22857.9,0.201856,0.201573,-3.15755,12,0.0148311,10,-0.000636477,-2.50065,-0.520423,-0.113369,13.9637,0.201573,
2,0,0,1,0,22858,0.191868,0.191519,-3.30322,12,0.0145089,10,-0.00063263,-2.48106,-0.458606,-0.128651,16.6067,0.191519,
2,0,0,1,0,22858.1,0.18188,0.181573,-3.48127,12,0.0141716,10,-0.000632104,-2.45826,-0.360401,-0.163706,22.1701,0.181573,
2,0,0,1,0,22858.2,0.171892,0.171538,-3.69096,12,0.0138147,10,-0.000633139,-2.43286,-0.334624,-0.176317,25.4084,0.171538,
2,0,0,1,0,22858.3,0.161904,0.161546,-4.01157,12,0.0134316,10,-0.000648053,-2.39669,-0.235496,-0.250535,39.2015,0.1615459,
2,0,0,1,0,22858.4,0.151916,0.151568,-4.53044,12,0.0130076,10,-0.00068667,-2.34386,-0.150761,-0.391348,69.4421,0.151568,
2,0,0,1,0,22858.5,0.141928,0.141593,-5.49476,12,0.0125119,10,-0.000778022,-2.26005,-0.10152,-0.581166,124.69,0.141593,
2,0,0,1,0,22858.6,0.13194,0.131624,-6.98114,12,0.0118933,10,-0.000918889,-2.15607,-0.0974909,-0.605185,164.939,0.131624,
2,0,0,1,0,22858.7,0.121952,0.121608,-8.59714,12,0.0111134,10,-0.00104548,-2.06565,-0.137499,-0.429094,143.706,0.121608,
2,0,0,1,0,22858.8,0.111964,0.11166,-9.79636,12,0.0101906,10,-0.00109386,-2.00894,-0.236229,-0.249757,95.3825,0.11166,
2,0,0,1,0,22858.9,0.101976,0.101633,-10.4544,12,0.00917419,10,-0.00106252,-1.9807,-0.749011,-0.0787706,32.0882,0.101633,
2,0,0,1,0,22859,0.0919883,0.0916345,-10.4617,12,0.00812451,10,-0.000958649,-1.9804,0.914983,0.0644821,-26.3158,0.0916345,
2,0,0,1,0,22859.1,0.0820004,0.0816987,-9.9628,12,0.00710267,10,-0.000813947,-2.00162,0.37238,0.15844,-61.6015,0.0816987,
2,0,0,1,0,22859.2,0.0720124,0.0716916,-9.41221,12,0.00613664,10,-0.000674776,-2.02631,0.462846,0.127472,-46.8689,0.0716916,
2,0,0,1,0,22859.3,0.0620245,0.0617072,-9.04058,12,0.00521639,10,-0.000557869,-2.0438,0.595586,0.0990622,-34.9611,0.06170721,
2,0,0,1,0,22859.4,0.0520366,0.0517071,-8.73804,12,0.00432873,10,-0.000451819,-2.05859,0.630934,0.0935121,-31.8802,0.0517071,
2,0,0,1,0,22859.5,0.0420486,0.0417244,-8.4235,12,0.0034713,10,-0.000351466,-2.07451,0.613954,0.0960984,-31.6106,0.0417244,
2,0,0,1,0,22859.6,0.0320607,0.0316658,-8.07492,12,0.0026477,10,-0.000255699,-2.09286,0.463813,0.127206,-40.0539,0.0316658,
2,0,0,1,0,22859.7,0.0220728,0.021737,-7.63817,12,0.00186296,10,-0.000166031,-2.11701,0.387067,0.152429,-45.4396,0.021737,
2,0,0,1,0,22859.8,0.0120848,0.0117906,-7.20157,12,0.00112271,10,-8.49105e-05,-2.14257,0.396738,0.148713,-41.8045,0.0117906,
2,0,0,1,0,22859.9,0.0020969,0.0017565,-6.91088,12,0.000422098,10,-1.21389e-05,-2.16047,0.834365,0.0707124,-18.9629,0.0017565,
2,0,0,1,0,22860,-0.00789103,-0.00825279,-6.6683,12,-0.00025363,10,5.50321e-05,-2.17598,1.41561,0.0416782,-10.8693,-0.00825279,
2,0,0,1,0,22860.1,-0.017879,-0.0182135,-6.65092,12,-0.000916941,10,0.000121136,-2.17712,-4.54475,-0.012982,3.36732,-0.0182135,
2,0,0,1,0,22860.2,-0.0278669,-0.0281959,-6.72938,12,-0.00158391,10,0.000189741,-2.17203,-1.23763,-0.0476716,12.5347,-0.02819586,
2,0,0,1,0,22860.3,-0.0378548,-0.0382377,-6.91875,12,-0.00226452,10,0.000264557,-2.15997,-0.76933,-0.0766901,20.6797,-0.0382377,
2,0,0,1,0,22860.4,-0.0478428,-0.0482141,-7.15866,12,-0.00296656,10,0.000345149,-2.14517,-0.504128,-0.117034,32.7174,-0.0482141,
2,0,0,1,0,22860.5,-0.0578216,-0.0581985,-7.47517,12,-0.0036961,10,0.000435044,-2.12638,-0.494888,-0.119219,34.7725,-0.0581985,
2,0,0,1,0,22860.6,-0.0678187,-0.0681675,-7.86785,12,-0.00446145,10,0.000536331,-2.10414,-0.400189,-0.14743,45.2517,-0.0681675,
2,0,0,1,0,22860.7,-0.0778066,-0.0781717,-8.34108,12,-0.00527036,10,0.000652036,-2.07878,-0.384816,-0.15332,49.9468,-0.0781717,
2,0,0,1,0,22860.8,-0.0877945,-0.0881631,-8.90404,12,-0.00613109,10,0.000785008,-2.05041,-0.34397,-0.171526,59.5808,-0.0881631,
2,0,0,1,0,22860.9,-0.0977825,-0.0981392,-9.47108,12,-0.00704922,10,0.000929484,-2.0236,-0.37917,-0.155603,57.5464,-0.0981392,
2,0,0,1,1,22861,-0.0927386,-0.0930455,-1.97604,12,-0.00761479,10,0.000183862,-2.7042,-0.00748742,-7.87988,573.389,-0.0930455,
2,1,0,1,1,22861.1,-0.0827529,-0.083137,1.72546,12,-0.00760057,10,-0.00014345,-2.76309,0.0156628,3.7669,242.375,-0.083137,
2,1,0,1,1,22861.2,-0.0727627,-0.0730999,3.48357,12,-0.00733072,10,-0.000254649,-2.45798,0.0628211,0.939174,126.714,-0.0730999,
2,1,0,1,1,22861.3,-0.0627748,-0.0631213,4.42255,12,-0.00693101,10,-0.000279157,-2.35433,0.141953,0.41563,71.636,-0.0631213,
2,1,0,1,1,22861.4,-0.0527868,-0.053103,4.95503,12,-0.00645971,10,-0.000263127,-2.30495,0.311102,0.189648,36.6159,-0.053103,
2,1,0,1,1,22861.5,-0.0427989,-0.0431647,5.23787,12,-0.00594901,10,-0.000226091,-2.28084,0.653574,0.0902729,18.4216,-0.0431647,
2,1,0,1,1,22861.6,-0.0328109,-0.0331408,5.37099,12,-0.0054197,10,-0.000177999,-2.26995,1.48444,0.0397456,8.32048,-0.0331408,
2,1,0,1,1,22861.7,-0.022823,-0.0231758,5.41493,12,-0.00488098,10,-0.000125495,-2.26641,37.6687,0.00156629,0.330641,-0.0231758,
2,1,0,1,1,22861.8,-0.0128351,-0.0131494,5.40398,12,-0.00434047,10,-7.10591e-05,-2.26729,-3.10638,-0.0189932,-4.00814,-0.0131494,
2,1,0,1,1,22861.9,-0.00284713,-0.00318054,5.39245,12,-0.00380094,10,-1.71509e-05,-2.26821,-4.8058,-0.0122768,-2.58538,-0.00318054,
2,1,0,1,1,22862,-2.55332e-05,-0.00042076,5.40165,12,-0.00364937,10,-2.2728e-06,-2.26747, , , ,-0.00042076,