File: Figure_codes/Fig_3-5/rawdata_trumpetplot_data/after 10th/20221101_1-115_003_TrumpetPlot_ParaChange_from10_every3_05_CV_C01_31.csv
mode,ox/red,error,control changes,counter inc.,time/s,control/V,Ewe/V,<I>/mA,cycle number,(Q-Qo)/C,I Range,P/W,log(|I|),Tafel slope mV/dec,alpha_eff,dI/d(E-IR),E-IR/V,
2,0,0,1,0,62194.1,2.44065e-05,-0.000325324,-0.743058,32,0.0000000E+000,10,2.41734e-07,-3.12898, , , ,-0.000325324,
2,1,0,1,0,62194.4,0.00729063,0.00698613,0.59963,32,0.000100394,10,4.1891e-06,-3.22212,0.0333742,1.76783,40.1136,0.00698613,
2,1,0,1,0,62194.8,0.0147802,0.0144218,0.776032,32,0.000367855,10,1.11918e-05,-3.11012,0.105742,0.557963,16.8603,0.0144218,
2,1,0,1,0,62195.2,0.0222725,0.0219317,0.878613,32,0.000683608,10,1.92695e-05,-3.0562,0.155998,0.37821,12.9545,0.02193168,
2,1,0,1,0,62195.5,0.0297644,0.0294392,0.968396,32,0.00103472,10,2.85088e-05,-3.01395,0.1975,0.298734,11.2709,0.02943922,
2,1,0,1,0,62195.9,0.0372544,0.0368877,1.05677,32,0.00141908,10,3.89816e-05,-2.97602,0.214354,0.275246,11.352,0.0368877,
2,1,0,1,0,62196.3,0.0447449,0.0444147,1.14204,32,0.00183595,10,5.07232e-05,-2.94232,0.219318,0.269016,11.9932,0.0444147,
2,1,0,1,0,62196.7,0.0522363,0.0519063,1.2244,32,0.00228474,10,6.35541e-05,-2.91208,0.251303,0.234776,11.2181,0.0519063,
2,1,0,1,0,62197,0.0597291,0.0593616,1.30386,32,0.00276358,10,7.73994e-05,-2.88477,0.307633,0.191787,9.7312,0.0593616,
2,1,0,1,0,62197.4,0.0672182,0.0669394,1.37096,32,0.00326887,10,9.17713e-05,-2.86297,0.351628,0.167791,8.95164,0.0669394,
2,1,0,1,0,62197.8,0.0747092,0.0743483,1.42391,32,0.00379767,10,0.000105865,-2.84652,0.528684,0.111598,6.20184,0.0743483,
2,1,0,1,0,62198.2,0.0822001,0.0818674,1.47142,32,0.00434588,10,0.000120461,-2.83226,0.589032,0.100164,5.75769,0.0818674,
2,1,0,1,0,62198.5,0.0896911,0.0893457,1.52452,32,0.00491219,10,0.00013621,-2.81687,0.465657,0.126703,7.55549,0.0893457,
2,1,0,1,0,62198.9,0.097182,0.0968133,1.60607,32,0.00550285,10,0.000155489,-2.79424,0.252983,0.233217,14.6364,0.0968133,
2,1,0,1,0,62199.3,0.104673,0.104329,1.73648,32,0.0061326,10,0.000181166,-2.76033,0.200846,0.293758,19.8947,0.104329,
2,1,0,1,0,62199.7,0.112164,0.111817,1.87821,32,0.00681506,10,0.000210015,-2.72626,0.244839,0.240974,17.6361,0.111817,
2,1,0,1,0,62200,0.119655,0.119301,1.98887,32,0.00754579,10,0.000237275,-2.70139,0.468461,0.125944,9.75752,0.119301,
2,1,0,1,0,62200.4,0.127146,0.126816,2.0402,32,0.00830697,10,0.000258729,-2.69033,0.967318,0.0609934,4.86117,0.126816,
2,1,0,1,0,62200.8,0.134637,0.134303,2.06217,32,0.00908235,10,0.000276956,-2.68568,-2.61451,-0.0225664,-1.81541,0.134303,
2,1,0,1,0,62201.2,0.142128,0.141781,1.97745,32,0.00984984,10,0.000280365,-2.7039,-0.193234,-0.30533,-23.4801,0.141781,
2,1,0,1,0,62201.5,0.149619,0.149248,1.709,32,0.0105506,10,0.000255065,-2.76726,-0.0883096,-0.668104,-44.4814,0.149248,
2,1,0,1,0,62201.9,0.157108,0.156767,1.39302,32,0.0111344,10,0.00021838,-2.85604,-0.0882812,-0.668319,-36.3835,0.156767,
2,1,0,1,0,62202.3,0.164601,0.16422,1.18732,32,0.0116191,10,0.000194982,-2.92543,-0.134184,-0.439694,-20.4215,0.16422,
2,1,0,1,0,62202.7,0.172092,0.171767,1.07772,32,0.0120466,10,0.000185116,-2.9675,-0.24004,-0.245792,-10.3625,0.171767,
2,1,0,1,0,62203,0.179582,0.179241,1.0204,32,0.0124438,10,0.000182898,-2.99123,-0.388588,-0.151832,-6.06494,0.179241,
2,1,0,1,0,62203.4,0.187073,0.186712,0.987704,32,0.0128246,10,0.000184417,-3.00537,-0.791343,-0.0745568,-2.87117,0.186712,
2,1,0,1,0,62203.8,0.194564,0.194213,0.966809,32,0.0131952,10,0.000187767,-3.01466,-1.32156,-0.0446442,-1.68174,0.194213,
2,1,0,1,0,62204.2,0.202057,0.201671,0.950296,32,0.0135589,10,0.000191647,-3.02214,-0.952426,-0.0619471,-2.29526,0.201671,
2,1,0,1,0,62204.5,0.209546,0.209191,0.941079,32,0.0139179,10,0.000196865,-3.02637,-0.912069,-0.0646881,-2.37338,0.209191,
2,1,0,1,0,62204.9,0.217037,0.216682,0.929937,32,0.0142727,10,0.0002015,-3.03155,-3.26931,-0.0180466,-0.656233,0.216682,
2,1,0,1,0,62205.3,0.224528,0.224159,0.922203,32,0.0146248,10,0.00020672,-3.03517,-2.01387,-0.0292968,-1.05473,0.2241585,
2,1,0,1,0,62205.7,0.232019,0.231653,0.916177,32,0.0149741,10,0.000212235,-3.03802,-8.18549,-0.00720787,-0.25764,0.231653,
2,1,0,1,0,62206,0.23951,0.239169,0.911706,32,0.0153214,10,0.000218052,-3.04015,-3.84604,-0.0153404,-0.546038,0.239169,
2,1,0,1,0,62206.4,0.247001,0.246695,0.906404,32,0.0156667,10,0.000223606,-3.04268,-1.40257,-0.0420655,-1.48651,0.246695,
2,1,0,1,0,62206.8,0.254492,0.254171,0.900475,32,0.0160101,10,0.000228875,-3.04553,-1.47611,-0.03997,-1.40676,0.254171,
2,1,0,1,0,62207.2,0.261983,0.261671,0.895176,32,0.0163515,10,0.000234242,-3.04809,-8.55263,-0.00689846,-0.241601,0.261671,
2,1,0,1,0,62207.5,0.269474,0.26913,0.89248,32,0.016691,10,0.000240193,-3.0494,54.9788,0.00107314,0.0373508,0.26913,
2,1,0,1,0,62207.9,0.276965,0.276676,0.884324,32,0.0170283,10,0.000244671,-3.05339,-4.10876,-0.0143596,-0.495908,0.276676,
2,1,0,1,0,62208.3,0.284456,0.284123,0.878577,32,0.0173634,10,0.000249623,-3.05622,-1.42401,-0.0414322,-1.41947,0.284123,
2,1,0,1,0,62208.7,0.291947,0.29162,0.870671,32,0.0176957,10,0.000253905,-3.06015,-2.14376,-0.0275218,-0.935427,0.29162,
2,1,0,1,0,62209,0.299436,0.299071,0.86283,32,0.0180252,10,0.000258047,-3.06407,-0.0048825,-12.084,-277.363,0.299071,
2,0,0,1,0,62209.4,0.293745,0.293389,-0.14675,32,0.0180692,10,-4.30548e-05,-3.83342,-0.00980131,-6.0196,28.9962,0.293389,
2,0,0,1,0,62209.7,0.286254,0.285927,-0.266787,32,0.0179836,10,-7.62816e-05,-3.57384,-0.0580345,-1.01664,10.5857,0.285927,
2,0,0,1,0,62210.1,0.278763,0.278426,-0.333796,32,0.0178651,10,-9.29374e-05,-3.47652,-0.101663,-0.580348,7.56731,0.278426,
2,0,0,1,0,62210.5,0.271272,0.270927,-0.385734,32,0.0177249,10,-0.000104505,-3.41371,-0.135216,-0.43634,6.55074,0.270927,
2,0,0,1,0,62210.9,0.263781,0.263453,-0.426427,32,0.0175677,10,-0.000112343,-3.37016,-0.199543,-0.295676,4.91608,0.263453,
2,0,0,1,0,62211.2,0.25629,0.255965,-0.462894,32,0.0173962,10,-0.000118485,-3.33452,-0.28806,-0.204818,3.6914,0.255965,
2,0,0,1,0,62211.6,0.248799,0.248422,-0.494725,32,0.0172118,10,-0.0001229,-3.30564,-0.304949,-0.193475,3.74338,0.248422,
2,0,0,1,0,62212,0.241308,0.240958,-0.522013,32,0.0170161,10,-0.000125783,-3.28232,-0.335091,-0.176071,3.60195,0.240958,
2,0,0,1,0,62212.4,0.233817,0.233489,-0.549715,32,0.0168098,10,-0.000128352,-3.25986,-0.404263,-0.145945,3.13826,0.233489,
2,0,0,1,0,62212.7,0.226326,0.22602,-0.576876,32,0.0165934,10,-0.000130385,-3.23892,-0.333079,-0.177135,3.99046,0.22602,
2,0,0,1,0,62213.1,0.218835,0.218482,-0.603427,32,0.0163673,10,-0.000131838,-3.21938,-0.393235,-0.150037,3.52628,0.218482,
2,0,0,1,0,62213.5,0.211344,0.210983,-0.62932,32,0.0161317,10,-0.000132776,-3.20113,-0.50868,-0.115986,2.83752,0.210983,
2,0,0,1,0,62213.9,0.203855,0.203508,-0.651407,32,0.0158867,10,-0.000132566,-3.18615,-0.496358,-0.118866,3.03132,0.203508,
2,0,0,1,0,62214.2,0.196362,0.196016,-0.676201,32,0.0156326,10,-0.000132546,-3.16992,-0.499419,-0.118137,3.12248,0.196016,
2,0,0,1,0,62214.6,0.188871,0.188479,-0.704038,32,0.0153685,10,-0.000132697,-3.1524,-0.318937,-0.18499,5.09658,0.1884792,
2,0,0,1,0,62215,0.18138,0.181012,-0.735694,32,0.0150935,10,-0.000133169,-3.1333,-0.322897,-0.182721,5.24211,0.181012,
2,0,0,1,0,62215.4,0.173891,0.173502,-0.770258,32,0.0148067,10,-0.000133642,-3.11336,-0.313696,-0.18808,5.65196,0.173502,
2,0,0,1,0,62215.7,0.166398,0.165998,-0.812193,32,0.0145056,10,-0.000134823,-3.09034,-0.2927,-0.201572,6.38667,0.165998,
2,0,0,1,0,62216.1,0.158906,0.158524,-0.866984,32,0.0141864,10,-0.000137438,-3.06199,-0.2162,-0.272896,9.23707,0.158524,
2,0,0,1,0,62216.5,0.151417,0.151083,-0.948013,32,0.0138421,10,-0.000143228,-3.02319,-0.164464,-0.358741,13.3292,0.151083,
2,0,0,1,0,62216.9,0.143926,0.143533,-1.08652,32,0.0134581,10,-0.000155952,-2.96396,-0.0984094,-0.599536,25.4498,0.143533,
2,0,0,1,0,62217.2,0.136435,0.136067,-1.30154,32,0.0130078,10,-0.000177097,-2.88554,-0.0890748,-0.662364,33.6798,0.136067,
2,0,0,1,0,62217.6,0.128942,0.128568,-1.56743,32,0.0124655,10,-0.000201521,-2.80481,-0.101845,-0.579311,35.336,0.128568,
2,0,0,1,0,62218,0.121453,0.121125,-1.8118,32,0.0118262,10,-0.000219454,-2.74189,-0.143747,-0.410444,28.9677,0.121125,
2,0,0,1,0,62218.4,0.113962,0.113595,-1.98927,32,0.0111059,10,-0.000225972,-2.70131,-0.272261,-0.216704,16.815,0.113595,
2,0,0,1,0,62218.7,0.106471,0.106117,-2.07277,32,0.0103357,10,-0.000219957,-2.68345,-1.15138,-0.0512428,4.14498,0.106117,
2,0,0,1,0,62219.1,0.0989798,0.0986336,-2.06192,32,0.00955328,10,-0.000203375,-2.68573,1.13072,0.0521791,-4.19907,0.0986336,
2,0,0,1,0,62219.5,0.0914889,0.0911484,-2.01529,32,0.00878406,10,-0.000183691,-2.69566,0.689785,0.0855339,-6.71859,0.0911484,
2,0,0,1,0,62219.9,0.083998,0.0836418,-1.96552,32,0.00803428,10,-0.0001644,-2.70652,0.69242,0.0852084,-6.53152,0.0836418,
2,0,0,1,0,62220.2,0.076507,0.0761543,-1.92307,32,0.00730083,10,-0.00014645,-2.716,0.810498,0.0727948,-5.46274,0.0761543,
2,0,0,1,0,62220.6,0.069016,0.0686893,-1.87633,32,0.00658354,10,-0.000128884,-2.72669,0.668601,0.088244,-6.47596,0.0686893,
2,0,0,1,0,62221,0.0615251,0.0611389,-1.82968,32,0.00588295,10,-0.000111865,-2.73762,0.63523,0.0928797,-6.64392,0.0611389,
2,0,0,1,0,62221.4,0.0540342,0.0536799,-1.77911,32,0.00520124,10,-9.55023e-05,-2.7498,0.68013,0.0867482,-6.02551,0.0536799,
2,0,0,1,0,62221.7,0.0465432,0.0461966,-1.72587,32,0.0045391,10,-7.97291e-05,-2.76299,0.55791,0.105752,-7.12525,0.0461966,
2,0,0,1,0,62222.1,0.0390523,0.0387166,-1.66849,32,0.00389808,10,-6.45984e-05,-2.77768,0.434172,0.135891,-8.83849,0.0387166,
2,0,0,1,0,62222.5,0.0315626,0.0311875,-1.6074,32,0.0032798,10,-5.01307e-05,-2.79388,0.453811,0.13001,-8.14894,0.0311875,
2,0,0,1,0,62222.9,0.0240704,0.0237048,-1.54579,32,0.00268362,10,-3.66426e-05,-2.81085,0.452962,0.130254,-7.87526,0.0237048,
2,0,0,1,0,62223.2,0.0165785,0.0162054,-1.50033,32,0.00210764,10,-2.43134e-05,-2.82381,0.646179,0.091306,-5.35303,0.0162054,
2,0,0,1,0,62223.6,0.00908846,0.00873186,-1.46401,32,0.00154767,10,-1.27835e-05,-2.83446,1.10257,0.0535113,-3.0601,0.00873186,
2,0,0,1,0,62224,0.0015984,0.0012026,-1.46051,32,0.000997259,10,-1.75641e-06,-2.83549, , , ,0.0012026,
2,0,0,1,0,62224,0.000199195,-0.000191404,-1.44878,32,0.00089441,10,2.77303e-07,-2.839, , , ,-0.000191404,