File: Figure_codes/Fig_3-5/rawdata_trumpetplot_data/after 10th/20221101_1-115_003_TrumpetPlot_ParaChange_from10_every3_05_CV_C01_26.csv
mode,ox/red,error,control changes,counter inc.,time/s,control/V,Ewe/V,<I>/mA,cycle number,(Q-Qo)/C,I Range,P/W,log(|I|),Tafel slope mV/dec,alpha_eff,dI/d(E-IR),E-IR/V,
2,0,0,1,0,52343.4,2.44065e-05,-0.000363498,-0.74433,27,0.0000000E+000,10,2.70563e-07,-3.12823, , , ,-0.000363498,
2,1,0,1,0,52343.8,0.00729063,0.00695835,0.63878,27,0.000118903,10,4.44485e-06,-3.19465,0.0400108,1.4746,35.8116,0.00695835,
2,1,0,1,0,52344.1,0.0147802,0.0144131,0.799822,27,0.000398276,10,1.15279e-05,-3.09701,0.116843,0.50495,15.7415,0.0144131,
2,1,0,1,0,52344.5,0.0222725,0.0219602,0.900296,27,0.000723315,10,1.97707e-05,-3.04561,0.164481,0.358703,12.5921,0.0219602,
2,1,0,1,0,52344.9,0.0297644,0.0294693,0.991659,27,0.00108317,10,2.92235e-05,-3.00364,0.191311,0.308398,11.9126,0.0294693,
2,1,0,1,0,52345.3,0.0372544,0.03691,1.07958,27,0.00147652,10,3.98473e-05,-2.96675,0.211857,0.278489,11.7362,0.03691,
2,1,0,1,0,52345.6,0.0447449,0.0443526,1.16643,27,0.00190367,10,5.17344e-05,-2.93314,0.223343,0.264167,12.0489,0.0443526,
2,1,0,1,0,52346,0.0522363,0.0519283,1.2564,27,0.00236392,10,6.52425e-05,-2.90087,0.245929,0.239907,11.7362,0.0519283,
2,1,0,1,0,52346.4,0.0597291,0.0593986,1.33488,27,0.00285531,10,7.92898e-05,-2.87456,0.300962,0.196038,10.2152,0.0593986,
2,1,0,1,0,52346.8,0.0672182,0.0668852,1.40699,27,0.00337434,10,9.41071e-05,-2.85171,0.342647,0.172189,9.43691,0.0668852,
2,1,0,1,0,52347.1,0.0747092,0.0743593,1.46472,27,0.00391791,10,0.000108916,-2.83424,0.492135,0.119886,6.84357,0.0743593,
2,1,0,1,0,52347.5,0.0822001,0.0818827,1.51248,27,0.00448182,10,0.000123846,-2.82031,0.54547,0.108164,6.39002,0.0818827,
2,1,0,1,0,52347.9,0.0896911,0.089359,1.5682,27,0.00506408,10,0.000140133,-2.8046,0.414144,0.142462,8.72909,0.089359,
2,1,0,1,0,52348.3,0.097182,0.0968567,1.65069,27,0.00567166,10,0.00015988,-2.78233,0.241881,0.243922,15.7379,0.0968567,
2,1,0,1,0,52348.6,0.104673,0.104335,1.78464,27,0.00631939,10,0.0001862,-2.74845,0.198339,0.297471,20.7072,0.104335,
2,1,0,1,0,52349,0.112164,0.111848,1.93662,27,0.00702206,10,0.000216606,-2.71296,0.24822,0.237692,17.9309,0.1118477,
2,1,0,1,0,52349.4,0.119655,0.119313,2.05168,27,0.007776,10,0.000244792,-2.68789,0.464882,0.126914,10.1482,0.1193128,
2,1,0,1,0,52349.8,0.127146,0.12681,2.10922,27,0.00856289,10,0.000267471,-2.67588,0.825368,0.0714832,5.89108,0.12681,
2,1,0,1,0,52350.1,0.134637,0.134253,2.13944,27,0.00936685,10,0.000287226,-2.6697,-5.48771,-0.0107513,-0.897407,0.134253,
2,1,0,1,0,52350.5,0.142128,0.141793,2.0589,27,0.0101647,10,0.000291936,-2.68637,-0.207489,-0.284352,-22.749,0.1417927,
2,1,0,1,0,52350.9,0.149619,0.149273,1.77383,27,0.0108936,10,0.000264785,-2.75109,-0.085233,-0.69222,-47.7481,0.149273,
2,1,0,1,0,52351.3,0.157108,0.156787,1.42638,27,0.0114956,10,0.000223637,-2.84577,-0.0838909,-0.703294,-39.1612,0.156787,
2,1,0,1,0,52351.6,0.164601,0.16429,1.2042,27,0.0119893,10,0.000197837,-2.9193,-0.129434,-0.45583,-21.4726,0.16429,
2,1,0,1,0,52352,0.172092,0.17178,1.0881,27,0.0124221,10,0.000186914,-2.96333,-0.22387,-0.263546,-11.2345,0.17178,
2,1,0,1,0,52352.4,0.179582,0.179216,1.02784,27,0.0128236,10,0.000184206,-2.98807,-0.412231,-0.143124,-5.77221,0.179216,
2,1,0,1,0,52352.8,0.187073,0.186725,0.995659,27,0.0132081,10,0.000185914,-3.00189,-0.793219,-0.0743805,-2.88605,0.186725,
2,1,0,1,0,52353.1,0.194564,0.194236,0.97596,27,0.0135825,10,0.000189566,-3.01057,-1.12875,-0.05227,-1.98885,0.194236,
2,1,0,1,0,52353.5,0.202057,0.201736,0.958983,27,0.0139499,10,0.000193461,-3.01819,-1.19538,-0.0493565,-1.84496,0.201736,
2,1,0,1,0,52353.9,0.209546,0.20926,0.947837,27,0.0143124,10,0.000198344,-3.02327,-0.883593,-0.0667728,-2.47021,0.20926,
2,1,0,1,0,52354.3,0.217037,0.216704,0.935936,27,0.0146708,10,0.000202821,-3.02875,-1.35217,-0.0436336,-1.59873,0.216704,
2,1,0,1,0,52354.6,0.224528,0.224217,0.930071,27,0.0150262,10,0.000208537,-3.03148,-1.80032,-0.0327719,-1.19004,0.224217,
2,1,0,1,0,52355,0.232019,0.231702,0.922868,27,0.0153789,10,0.00021383,-3.03486,-13.4943,-0.00437221,-0.15785,0.231702,
2,1,0,1,0,52355.4,0.23951,0.239163,0.918025,27,0.0157295,10,0.000219558,-3.03715,-2.11722,-0.0278667,-0.998642,0.239163,
2,1,0,1,0,52355.8,0.247001,0.246648,0.915051,27,0.016078,10,0.000225695,-3.03855,-1.5137,-0.0389774,-1.38776,0.246648,
2,1,0,1,0,52356.1,0.254492,0.254173,0.908435,27,0.0164245,10,0.0002309,-3.04171,-3.47235,-0.0169914,-0.602412,0.254173,
2,1,0,1,0,52356.5,0.261983,0.261681,0.899909,27,0.0167689,10,0.000235489,-3.0458,-4.26597,-0.0138304,-0.487261,0.261681,
2,1,0,1,0,52356.9,0.269474,0.269152,0.896703,27,0.017111,10,0.000241349,-3.04735,27.5261,0.00214342,0.0750267,0.269152,
2,1,0,1,0,52357.3,0.276965,0.276631,0.889908,27,0.0174508,10,0.000246176,-3.05066,-1.6912,-0.0348864,-1.21264,0.276631,
2,1,0,1,0,52357.6,0.284456,0.284169,0.882534,27,0.0177881,10,0.000250789,-3.05427,-1.91814,-0.0307589,-1.05947,0.2841689,
2,1,0,1,0,52358,0.291947,0.291586,0.875654,27,0.0181226,10,0.000255328,-3.05767,-2.1819,-0.0270407,-0.92275,0.291586,
2,1,0,1,0,52358.4,0.299436,0.299102,0.864467,27,0.0184542,10,0.000258564,-3.06325,-0.00439968,-13.4101,-293.682,0.299102,
2,0,0,1,0,52358.7,0.293745,0.293389,-0.165025,27,0.0184882,10,-4.84166e-05,-3.78245,-0.01334,-4.42278,25.574,0.293389,
2,0,0,1,0,52359.1,0.286254,0.285911,-0.275951,27,0.0183969,10,-7.88975e-05,-3.55917,-0.0597201,-0.987942,10.6687,0.285911,
2,0,0,1,0,52359.5,0.278763,0.27848,-0.344891,27,0.0182739,10,-9.60453e-05,-3.46232,-0.103272,-0.571306,7.67345,0.27848,
2,0,0,1,0,52359.8,0.271272,0.270914,-0.396661,27,0.0181296,10,-0.000107461,-3.40158,-0.137654,-0.428612,6.5917,0.270914,
2,0,0,1,0,52360.2,0.263781,0.263495,-0.435427,27,0.0179685,10,-0.000114733,-3.36108,-0.193929,-0.304235,5.17229,0.263495,
2,0,0,1,0,52360.6,0.25629,0.255981,-0.472276,27,0.0177931,10,-0.000120894,-3.3258,-0.276136,-0.213663,3.91662,0.255981,
2,0,0,1,0,52361,0.248799,0.248457,-0.503331,27,0.017605,10,-0.000125056,-3.29815,-0.308973,-0.190955,3.74737,0.248457,
2,0,0,1,0,52361.3,0.241308,0.241013,-0.530239,27,0.0174057,10,-0.000127794,-3.27553,-0.383712,-0.153761,3.18789,0.241013,
2,0,0,1,0,52361.7,0.233817,0.2335,-0.558444,27,0.0171958,10,-0.000130397,-3.25302,-0.363184,-0.162452,3.53694,0.2335,
2,0,0,1,0,52362.1,0.226326,0.226012,-0.586154,27,0.0169757,10,-0.000132478,-3.23199,-0.38822,-0.151976,3.46968,0.226012,
2,0,0,1,0,52362.5,0.218835,0.218479,-0.613407,27,0.0167458,10,-0.000134017,-3.21225,-0.382759,-0.154144,3.68373,0.218479,
2,0,0,1,0,52362.8,0.211344,0.211002,-0.634418,27,0.0165065,10,-0.000133864,-3.19762,-0.416943,-0.141506,3.50613,0.211002,
2,0,0,1,0,52363.2,0.203855,0.203481,-0.661948,27,0.0162576,10,-0.000134694,-3.17918,-0.483883,-0.12193,3.15633,0.203481,
2,0,0,1,0,52363.6,0.196362,0.196026,-0.689867,27,0.0159993,10,-0.000135232,-3.16123,-0.419065,-0.14079,3.7794,0.196026,
2,0,0,1,0,52364,0.188871,0.188546,-0.717594,27,0.0157303,10,-0.000135299,-3.14412,-0.336009,-0.17559,4.90803,0.188546,
2,0,0,1,0,52364.3,0.18138,0.181083,-0.749521,27,0.0154502,10,-0.000135725,-3.12522,-0.352395,-0.167426,4.89399,0.181083,
2,0,0,1,0,52364.7,0.173891,0.173528,-0.786296,27,0.0151575,10,-0.000136444,-3.10441,-0.368838,-0.159962,4.8893,0.1735276,
2,0,0,1,0,52365.1,0.166398,0.166018,-0.831538,27,0.0148493,10,-0.000138051,-3.08012,-0.307139,-0.192096,6.24328,0.166018,
2,0,0,1,0,52365.5,0.158906,0.15855,-0.892242,27,0.0145211,10,-0.000141465,-3.04952,-0.212329,-0.27787,9.70161,0.15855,
2,0,0,1,0,52365.8,0.151417,0.151059,-0.987745,27,0.0141642,10,-0.000149208,-3.00536,-0.141097,-0.418153,16.1783,0.151059,
2,0,0,1,0,52366.2,0.143926,0.143568,-1.14923,27,0.0137606,10,-0.000164992,-2.93959,-0.0900217,-0.655398,29.4696,0.143568,
2,0,0,1,0,52366.6,0.136435,0.136073,-1.39987,27,0.0132799,10,-0.000190484,-2.85391,-0.0861694,-0.684698,37.32,0.136073,
2,0,0,1,0,52367,0.128942,0.128624,-1.68328,27,0.0126967,10,-0.000216509,-2.77384,-0.107308,-0.549821,36.0127,0.128624,
2,0,0,1,0,52367.3,0.121453,0.121103,-1.93117,27,0.0120116,10,-0.00023387,-2.71418,-0.15964,-0.369581,27.8212,0.121103,
2,0,0,1,0,52367.7,0.113962,0.113665,-2.09556,27,0.0112474,10,-0.000238192,-2.6787,-0.344951,-0.171039,13.97,0.113665,
2,0,0,1,0,52368.1,0.106471,0.106124,-2.148,27,0.0104423,10,-0.000227953,-2.66797,438.496,0.000134551,-0.0112838,0.106124,
2,0,0,1,0,52368.5,0.0989798,0.0986549,-2.11828,27,0.00963522,10,-0.000208978,-2.67402,0.750544,0.0786097,-6.48896,0.0986549,
2,0,0,1,0,52368.8,0.0914889,0.0911388,-2.05877,27,0.00884747,10,-0.000187634,-2.68639,0.611562,0.0964742,-7.745,0.09113881,
2,0,0,1,0,52369.2,0.083998,0.0836469,-1.99958,27,0.00808231,10,-0.000167259,-2.69906,0.576094,0.102414,-7.99603,0.0836469,
2,0,0,1,0,52369.6,0.076507,0.0761807,-1.95384,27,0.00733621,10,-0.000148845,-2.70911,0.655179,0.0900518,-6.86039,0.0761807,
2,0,0,1,0,52370,0.069016,0.0687063,-1.89949,27,0.00660837,10,-0.000130507,-2.72136,0.580975,0.101553,-7.53715,0.0687063,
2,0,0,1,0,52370.3,0.0615251,0.0611611,-1.85048,27,0.00589928,10,-0.000113177,-2.73272,0.614566,0.0960026,-6.9469,0.06116109,
2,0,0,1,0,52370.7,0.0540342,0.0537013,-1.79677,27,0.00521031,10,-9.6489e-05,-2.74551,0.582419,0.101302,-7.09933,0.05370133,
2,0,0,1,0,52371.1,0.0465432,0.0462153,-1.73722,27,0.00454208,10,-8.02859e-05,-2.76015,0.547478,0.107767,-7.31057,0.0462153,
2,0,0,1,0,52371.5,0.0390523,0.0387409,-1.67754,27,0.00389652,10,-6.49895e-05,-2.77533,0.4424,0.133364,-8.71474,0.0387409,
2,0,0,1,0,52371.8,0.0315626,0.0312083,-1.61238,27,0.00327502,10,-5.03196e-05,-2.79253,0.42257,0.139622,-8.78522,0.0312083,
2,0,0,1,0,52372.2,0.0240704,0.023715,-1.54889,27,0.00267688,10,-3.67318e-05,-2.80998,0.449582,0.131233,-7.9564,0.02371498,
2,0,0,1,0,52372.6,0.0165785,0.0162621,-1.50049,27,0.00209967,10,-2.44011e-05,-2.82377,0.677852,0.0870396,-5.10137,0.0162621,
2,0,0,1,0,52373,0.00908846,0.00873288,-1.46675,27,0.00153845,10,-1.2809e-05,-2.83364,1.21158,0.0486968,-2.78911,0.00873288,
2,0,0,1,0,52373.3,0.0015984,0.00120908,-1.4666,27,0.000986132,10,-1.77323e-06,-2.83369, , , ,0.00120908,
2,0,0,1,0,52373.4,0.000199195,-0.000156154,-1.45729,27,0.000882813,10,2.27562e-07,-2.83645, , , ,-0.000156154,