File: Figure_codes/Fig_3-5/rawdata_trumpetplot_data/after 10th/20221101_1-115_003_TrumpetPlot_ParaChange_from10_every3_05_CV_C01_13.csv
mode,ox/red,error,control changes,counter inc.,time/s,control/V,Ewe/V,<I>/mA,cycle number,(Q-Qo)/C,I Range,P/W,log(|I|),Tafel slope mV/dec,alpha_eff,dI/d(E-IR),E-IR/V,
2,0,0,1,0,26731.7,2.44065e-05,-0.000325324,-0.73797,14,0.0000000E+000,10,2.40079e-07,-3.13196, , , ,-0.000325324,
2,1,0,1,0,26732.1,0.00729063,0.00696502,0.718481,14,0.000161774,10,5.00424e-06,-3.14358,0.055653,1.06014,29.3248,0.00696502,
2,1,0,1,0,26732.5,0.0147802,0.0144786,0.86639,14,0.000468489,10,1.25441e-05,-3.06229,0.132562,0.445073,15.0271,0.0144786,
2,1,0,1,0,26732.8,0.0222725,0.0219868,0.969487,14,0.000819244,10,2.13159e-05,-3.01346,0.17137,0.344284,13.0308,0.0219868,
2,1,0,1,0,26733.2,0.0297644,0.0294494,1.0668,14,0.00120697,10,3.14166e-05,-2.97192,0.192379,0.306686,12.732,0.0294494,
2,1,0,1,0,26733.6,0.0372544,0.0369614,1.16338,14,0.0016311,10,4.30002e-05,-2.93428,0.195639,0.301576,13.6964,0.0369614,
2,1,0,1,0,26733.9,0.0447449,0.0444314,1.26021,14,0.0020919,10,5.5993e-05,-2.89956,0.227078,0.259823,12.7727,0.04443137,
2,1,0,1,0,26734.3,0.0522363,0.0519104,1.35135,14,0.0025877,10,7.01491e-05,-2.86923,0.239505,0.246342,12.9911,0.0519104,
2,1,0,1,0,26734.7,0.0597291,0.05941,1.43397,14,0.00311621,10,8.51919e-05,-2.84346,0.306758,0.192334,10.7517,0.05941,
2,1,0,1,0,26735.1,0.0672182,0.066894,1.50857,14,0.00367384,10,0.000100915,-2.82143,0.353905,0.166712,9.78648,0.066894,
2,1,0,1,0,26735.4,0.0747092,0.0743599,1.57157,14,0.00425693,10,0.000116862,-2.80367,0.525259,0.112326,6.87829,0.0743599,
2,1,0,1,0,26735.8,0.0822001,0.0818934,1.61904,14,0.00486164,10,0.000132589,-2.79074,0.573293,0.102914,6.52716,0.0818934,
2,1,0,1,0,26736.2,0.0896911,0.0893664,1.68494,14,0.00548711,10,0.000150577,-2.77342,0.363076,0.162501,10.6949,0.0893664,
2,1,0,1,0,26736.6,0.097182,0.096875,1.78527,14,0.00614314,10,0.000172948,-2.7483,0.223963,0.263436,18.3841,0.096875,
2,1,0,1,0,26736.9,0.104673,0.10434,1.94615,14,0.00684695,10,0.000203062,-2.71082,0.184873,0.319137,24.2183,0.10434,
2,1,0,1,0,26737.3,0.112164,0.111812,2.10915,14,0.00761289,10,0.000235829,-2.67589,0.254923,0.231442,18.988,0.111812,
2,1,0,1,0,26737.7,0.119655,0.119315,2.2241,14,0.00843256,10,0.000265368,-2.65285,0.481409,0.122557,10.6306,0.119315,
2,1,0,1,0,26738.1,0.127146,0.126824,2.29364,14,0.00928698,10,0.000290888,-2.63947,0.599214,0.0984624,8.83347,0.126824,
2,1,0,1,0,26738.4,0.134637,0.134263,2.34804,14,0.0101657,10,0.000315254,-2.62929,17.6967,0.00333396,0.305195,0.134263,
2,1,0,1,0,26738.8,0.142128,0.141844,2.25,14,0.0110411,10,0.00031915,-2.64782,-0.177458,-0.332472,-29.0365,0.141844,
2,1,0,1,0,26739.2,0.149619,0.149302,1.89517,14,0.0118302,10,0.000282953,-2.72235,-0.0760648,-0.775655,-57.3085,0.149302,
2,1,0,1,0,26739.6,0.157108,0.156794,1.49499,14,0.012468,10,0.000234405,-2.82536,-0.0768818,-0.767412,-44.8718,0.156794,
2,1,0,1,0,26739.9,0.164601,0.164278,1.25571,14,0.0129841,10,0.000206286,-2.90111,-0.122938,-0.479917,-23.5457,0.164278,
2,1,0,1,0,26740.3,0.172092,0.171802,1.12764,14,0.0134347,10,0.000193731,-2.94783,-0.217934,-0.270724,-11.9578,0.171802,
2,1,0,1,0,26740.7,0.179582,0.179257,1.06554,14,0.0138511,10,0.000191005,-2.97243,-0.431908,-0.136603,-5.68492,0.179257,
2,1,0,1,0,26741.1,0.187073,0.186768,1.02894,14,0.0142491,10,0.000192174,-2.98761,-0.857945,-0.0687689,-2.75636,0.186768,
2,1,0,1,0,26741.4,0.194564,0.194244,1.00638,14,0.0146358,10,0.000195483,-2.99724,-0.730244,-0.0807949,-3.16411,0.194244,
2,1,0,1,0,26741.8,0.202057,0.201715,0.9866,14,0.0150147,10,0.000199012,-3.00586,-0.655787,-0.0899682,-3.45201,0.201715,
2,1,0,1,0,26742.2,0.209546,0.209226,0.972618,14,0.0153879,10,0.000203497,-3.01206,-0.636752,-0.0926577,-3.51862,0.209226,
2,1,0,1,0,26742.6,0.217037,0.216694,0.95837,14,0.015756,10,0.000207673,-3.01847,-2.53545,-0.0232701,-0.871827,0.216694,
2,1,0,1,0,26742.9,0.224528,0.224175,0.950322,14,0.0161203,10,0.000213039,-3.02213,-2.00281,-0.0294586,-1.09237,0.2241752,
2,1,0,1,0,26743.3,0.232019,0.231742,0.942909,14,0.016481,10,0.000218512,-3.02553,-1.91983,-0.0307319,-1.12907,0.231742,
2,1,0,1,0,26743.7,0.23951,0.23923,0.933789,14,0.0168387,10,0.00022339,-3.02975,-2.66819,-0.0221123,-0.804803,0.23923,
2,1,0,1,0,26744.1,0.247001,0.246662,0.929543,14,0.0171935,10,0.000229283,-3.03173,-1.42887,-0.0412913,-1.49227,0.246662,
2,1,0,1,0,26744.4,0.254492,0.254178,0.918295,14,0.0175455,10,0.000233411,-3.03702,-1.36413,-0.0432511,-1.55108,0.254178,
2,1,0,1,0,26744.8,0.261983,0.261677,0.911445,14,0.0178945,10,0.000238504,-3.04027,-1.56113,-0.0377932,-1.34338,0.261677,
2,1,0,1,0,26745.2,0.269474,0.269166,0.90318,14,0.0182408,10,0.000243106,-3.04423,-3.39939,-0.0173561,-0.612838,0.2691665,
2,1,0,1,0,26745.6,0.276965,0.276655,0.897143,14,0.0185842,10,0.000248199,-3.04714,-2.23635,-0.0263823,-0.923509,0.276655,
2,1,0,1,0,26745.9,0.284456,0.284148,0.888484,14,0.0189246,10,0.000252461,-3.05135,-1.66517,-0.0354319,-1.22532,0.284148,
2,1,0,1,0,26746.3,0.291947,0.291695,0.875153,14,0.0192617,10,0.000255277,-3.05792,-1.10329,-0.0534766,-1.82975,0.291695,
2,1,0,1,0,26746.7,0.299436,0.299128,0.86783,14,0.0195954,10,0.000259592,-3.06157,-0.00295577,-19.9609,-366.162,0.299128,
2,0,0,1,0,26747,0.293745,0.293429,-0.201569,14,0.0196066,10,-5.91463e-05,-3.69558,-0.020857,-2.82879,21.0645,0.293429,
2,0,0,1,0,26747.4,0.286254,0.285931,-0.300443,14,0.0195035,10,-8.59059e-05,-3.52224,-0.0721487,-0.817756,9.6439,0.285931,
2,0,0,1,0,26747.8,0.278763,0.278439,-0.366826,14,0.0193708,10,-0.000102138,-3.43554,-0.114643,-0.514642,7.38367,0.278439,
2,0,0,1,0,26748.1,0.271272,0.270965,-0.416112,14,0.0192176,10,-0.000112752,-3.38079,-0.160689,-0.36717,5.92939,0.270965,
2,0,0,1,0,26748.5,0.263781,0.263451,-0.454777,14,0.0190478,10,-0.000119811,-3.3422,-0.193922,-0.304246,5.38584,0.2634511,
2,0,0,1,0,26748.9,0.25629,0.255992,-0.490536,14,0.0188639,10,-0.000125573,-3.30933,-0.269304,-0.219083,4.16982,0.255992,
2,0,0,1,0,26749.3,0.248799,0.248474,-0.520341,14,0.0186676,10,-0.000129291,-3.28371,-0.416694,-0.141591,2.88569,0.248474,
2,0,0,1,0,26749.6,0.241308,0.240994,-0.548874,14,0.0184603,10,-0.000132275,-3.26053,-0.346106,-0.170468,3.66541,0.240994,
2,0,0,1,0,26750,0.233817,0.23351,-0.575338,14,0.0182423,10,-0.000134347,-3.24008,-0.327924,-0.17992,4.05074,0.23351,
2,0,0,1,0,26750.4,0.226326,0.225988,-0.605036,14,0.0180141,10,-0.000136731,-3.21822,-0.406846,-0.145018,3.42544,0.225988,
2,0,0,1,0,26750.8,0.218835,0.218543,-0.631683,14,0.0177762,10,-0.00013805,-3.1995,-0.443779,-0.132949,3.27257,0.218543,
2,0,0,1,0,26751.1,0.211344,0.211017,-0.656707,14,0.0175289,10,-0.000138576,-3.18263,-0.55404,-0.106491,2.72043,0.211017,
2,0,0,1,0,26751.5,0.203855,0.203503,-0.67984,14,0.0172717,10,-0.000138349,-3.16759,-0.361647,-0.163142,4.34931,0.203503,
2,0,0,1,0,26751.9,0.196362,0.196041,-0.709928,14,0.0170044,10,-0.000139175,-3.14879,-0.437212,-0.134946,3.73365,0.196041,
2,0,0,1,0,26752.3,0.188871,0.188527,-0.743473,14,0.0167258,10,-0.000140165,-3.12873,-0.306498,-0.192497,5.58169,0.188527,
2,0,0,1,0,26752.6,0.18138,0.181037,-0.777586,14,0.0164349,10,-0.000140771,-3.10925,-0.284605,-0.207305,6.2936,0.181037,
2,0,0,1,0,26753,0.173891,0.173524,-0.82081,14,0.0161293,10,-0.00014243,-3.08576,-0.269024,-0.219311,7.01933,0.173524,
2,0,0,1,0,26753.4,0.166398,0.166068,-0.878147,14,0.0158046,10,-0.000145832,-3.05643,-0.26138,-0.225725,7.76471,0.166068,
2,0,0,1,0,26753.8,0.158906,0.158568,-0.961538,14,0.0154546,10,-0.000152469,-3.01703,-0.161216,-0.365969,13.7663,0.158568,
2,0,0,1,0,26754.1,0.151416,0.151065,-1.09158,14,0.0150652,10,-0.0001649,-2.96194,-0.113813,-0.518395,22.1586,0.151065,
2,0,0,1,0,26754.5,0.143926,0.1436,-1.31447,14,0.0146103,10,-0.000188758,-2.88125,-0.0767649,-0.768581,39.59,0.1436,
2,0,0,1,0,26754.9,0.136435,0.136101,-1.64807,14,0.0140504,10,-0.000224305,-2.78302,-0.0792031,-0.744921,47.8442,0.136101,
2,0,0,1,0,26755.3,0.128942,0.128593,-1.99576,14,0.0133599,10,-0.000256641,-2.69989,-0.113014,-0.52206,40.4972,0.1285928,
2,0,0,1,0,26755.6,0.121453,0.121131,-2.24692,14,0.0125549,10,-0.000272172,-2.64841,-0.214295,-0.275321,24.0855,0.121131,
2,0,0,1,0,26756,0.113962,0.113672,-2.36865,14,0.0116785,10,-0.000269248,-2.6255,-0.770494,-0.0765743,7.07091,0.113672,
2,0,0,1,0,26756.4,0.106471,0.106156,-2.36422,14,0.0107812,10,-0.000250975,-2.62631,0.863492,0.0683272,-6.31026,0.106156,
2,0,0,1,0,26756.8,0.0989799,0.0986774,-2.28453,14,0.00990186,10,-0.000225431,-2.6412,0.397541,0.148412,-13.2126,0.0986774,
2,0,0,1,0,26757.1,0.0914889,0.0911522,-2.18605,14,0.00905888,10,-0.000199263,-2.66034,0.44505,0.132569,-11.2906,0.0911522,
2,0,0,1,0,26757.5,0.083998,0.0836907,-2.09946,14,0.00825101,10,-0.000175705,-2.67789,0.445482,0.132441,-10.8451,0.0836907,
2,0,0,1,0,26757.9,0.076507,0.0761746,-2.03428,14,0.00747023,10,-0.00015496,-2.69159,0.53554,0.110169,-8.75295,0.0761746,
2,0,0,1,0,26758.3,0.0690161,0.0687339,-1.97277,14,0.00671284,10,-0.000135596,-2.70492,0.568496,0.103783,-8.00465,0.0687339,
2,0,0,1,0,26758.6,0.0615251,0.0612702,-1.91549,14,0.00597666,10,-0.000117362,-2.71772,0.550951,0.107087,-8.02079,0.0612702,
2,0,0,1,0,26759,0.0540342,0.0537232,-1.85986,14,0.00526274,10,-9.99177e-05,-2.73052,0.60765,0.0970954,-7.04172,0.0537232,
2,0,0,1,0,26759.4,0.0465432,0.0462103,-1.79403,14,0.00457146,10,-8.29027e-05,-2.74617,0.507819,0.116183,-8.14559,0.0462103,
2,0,0,1,0,26759.8,0.0390523,0.0387413,-1.7285,14,0.00390523,10,-6.69644e-05,-2.76233,0.38301,0.154043,-10.3621,0.0387413,
2,0,0,1,0,26760.1,0.0315626,0.0311774,-1.65456,14,0.0032659,10,-5.15848e-05,-2.78132,0.379783,0.155352,-10.0124,0.0311774,
2,0,0,1,0,26760.5,0.0240704,0.0237481,-1.58082,14,0.00265316,10,-3.75415e-05,-2.80112,0.371083,0.158994,-9.84484,0.02374813,
2,0,0,1,0,26760.9,0.0165785,0.0162708,-1.5262,14,0.00206386,10,-2.48325e-05,-2.81639,0.596166,0.0989656,-5.90931,0.0162708,
2,0,0,1,0,26761.3,0.00908846,0.00873566,-1.48798,14,0.00149261,10,-1.29985e-05,-2.8274,0.980225,0.0601903,-3.49975,0.00873566,
2,0,0,1,0,26761.6,0.0015984,0.00122654,-1.48888,14,0.000931114,10,-1.82618e-06,-2.82714, , , ,0.00122654,
2,0,0,1,0,26761.7,0.000199195,-0.000191558,-1.47874,14,0.00082612,10,2.83266e-07,-2.83011, , , ,-0.000191558,