File: Figure_codes/Fig_3-5/rawdata_trumpetplot_data/after 10th/20221101_1-115_003_TrumpetPlot_ParaChange_from10_every3_04_CV_C01_33.csv
mode,ox/red,error,control changes,counter inc.,time/s,control/V,Ewe/V,<I>/mA,cycle number,(Q-Qo)/C,I Range,P/W,log(|I|),Tafel slope mV/dec,alpha_eff,dI/d(E-IR),E-IR/V,
2,0,0,1,0,66074.3,2.44065e-05,-0.000401673,-0.385608,34,0.0000000E+000,10,1.54888e-07,-3.41385, , , ,-0.000401673,
2,1,0,1,0,66075,0.00729063,0.00695861,0.343587,34,0.000161087,10,2.39089e-06,-3.46396,0.0535603,1.10156,14.5611,0.006958609,
2,1,0,1,0,66075.8,0.0147814,0.014431,0.418908,34,0.000459406,10,6.04529e-06,-3.37788,0.115829,0.509372,8.31156,0.014431,
2,1,0,1,0,66076.5,0.0222725,0.0219485,0.46895,34,0.000802164,10,1.02928e-05,-3.32887,0.162361,0.363387,6.63813,0.0219485,
2,1,0,1,0,66077.3,0.0297635,0.0294233,0.517542,34,0.0011816,10,1.52278e-05,-3.28605,0.186515,0.316328,6.37971,0.02942328,
2,1,0,1,0,66078,0.0372544,0.0368949,0.563875,34,0.00159689,10,2.08041e-05,-3.24882,0.210788,0.279902,6.1693,0.0368949,
2,1,0,1,0,66078.8,0.0447458,0.0444148,0.612152,34,0.00204807,10,2.71886e-05,-3.21314,0.225799,0.261295,6.24192,0.0444148,
2,1,0,1,0,66079.5,0.0522363,0.0518806,0.657625,34,0.00253402,10,3.4118e-05,-3.18202,0.247045,0.238823,6.11655,0.0518806,
2,1,0,1,0,66080.3,0.0597282,0.0594072,0.697569,34,0.00305159,10,4.14406e-05,-3.15641,0.303073,0.194672,5.28481,0.0594072,
2,1,0,1,0,66081,0.0672182,0.0668631,0.733157,34,0.00359706,10,4.90211e-05,-3.1348,0.414201,0.142443,4.06369,0.06686309,
2,1,0,1,0,66081.8,0.0747092,0.0743782,0.761346,34,0.0041667,10,5.66276e-05,-3.11842,0.56819,0.103838,3.08054,0.0743782,
2,1,0,1,0,66082.5,0.0822001,0.081871,0.784752,34,0.00475689,10,6.42485e-05,-3.10527,0.65661,0.0898555,2.76297,0.081871,
2,1,0,1,0,66083.3,0.0896911,0.0893522,0.817461,34,0.00536747,10,7.30419e-05,-3.08753,0.386628,0.152602,4.88149,0.08935219,
2,1,0,1,0,66084,0.097182,0.096827,0.867374,34,0.00600848,10,8.39853e-05,-3.06179,0.211102,0.279486,9.48604,0.096827,
2,1,0,1,0,66084.8,0.104673,0.104395,0.944411,34,0.0066963,10,9.85919e-05,-3.02484,0.191206,0.308568,11.3327,0.104395,
2,1,0,1,0,66085.5,0.112164,0.111801,1.01669,34,0.00744137,10,0.000113667,-2.99281,0.268998,0.219333,8.68256,0.111801,
2,1,0,1,0,66086.3,0.119655,0.119309,1.06941,34,0.00823448,10,0.00012759,-2.97085,0.578818,0.101932,4.24969,0.119309,
2,1,0,1,0,66087,0.127146,0.126835,1.09009,34,0.00905514,10,0.000138262,-2.96254,1.15007,0.0513011,2.18686,0.126835,
2,1,0,1,0,66087.8,0.134637,0.134294,1.08986,34,0.00988631,10,0.000146363,-2.96263,-0.590589,-0.0999002,-4.24405,0.134294,
2,1,0,1,0,66088.5,0.142127,0.141819,1.00298,34,0.0106878,10,0.000142241,-2.99871,-0.123148,-0.479099,-18.6777,0.141819,
2,1,0,1,0,66089.3,0.149619,0.149269,0.826197,34,0.0113859,10,0.000123326,-3.08292,-0.0773566,-0.762701,-24.5901,0.1492694,
2,1,0,1,0,66090,0.157109,0.156782,0.673681,34,0.0119523,10,0.000105621,-3.17155,-0.105469,-0.559405,-14.755,0.156782,
2,1,0,1,0,66090.8,0.164601,0.164318,0.597947,34,0.0124347,10,9.82532e-05,-3.22334,-0.207229,-0.284709,-6.64982,0.164318,
2,1,0,1,0,66091.5,0.172091,0.171751,0.560032,34,0.0128771,10,9.6186e-05,-3.25179,-0.41002,-0.143896,-3.16031,0.171751,
2,1,0,1,0,66092.3,0.179582,0.179236,0.544091,34,0.0132998,10,9.75209e-05,-3.26433,-0.997921,-0.0591229,-1.25806,0.1792365,
2,1,0,1,0,66093,0.187074,0.186769,0.534673,34,0.0137121,10,9.98601e-05,-3.27191,-2.5465,-0.0231691,-0.481378,0.186769,
2,1,0,1,0,66093.8,0.194564,0.194252,0.527719,34,0.0141183,10,0.00010251,-3.2776,-1.70484,-0.0346074,-0.712063,0.194252,
2,1,0,1,0,66094.5,0.202056,0.201757,0.521791,34,0.0145201,10,0.000105275,-3.2825,-1.16999,-0.0504278,-1.02384,0.201757,
2,1,0,1,0,66095.3,0.209546,0.209239,0.517672,34,0.0149186,10,0.000108317,-3.28595,-0.961633,-0.061354,-1.2389,0.209239,
2,1,0,1,0,66096,0.217038,0.216717,0.514219,34,0.015314,10,0.00011144,-3.28885,-2.83442,-0.0208155,-0.418105,0.216717,
2,1,0,1,0,66096.8,0.224528,0.224186,0.511467,34,0.0157072,10,0.000114664,-3.29118,-3.24435,-0.0181854,-0.361951,0.224186,
2,1,0,1,0,66097.5,0.232019,0.231706,0.508657,34,0.0160981,10,0.000117859,-3.29358,-15.7793,-0.00373907,-0.0740445,0.231706,
2,1,0,1,0,66098.3,0.23951,0.239208,0.505248,34,0.0164871,10,0.000120859,-3.2965,-3.15521,-0.0186992,-0.368593,0.239208,
2,1,0,1,0,66099,0.247001,0.24667,0.504424,34,0.0168738,10,0.000124426,-3.2972,-1.0944,-0.0539106,-1.05709,0.24667,
2,1,0,1,0,66099.8,0.254492,0.254161,0.499515,34,0.0172584,10,0.000126957,-3.30145,-3.104,-0.0190077,-0.370999,0.254161,
2,1,0,1,0,66100.5,0.261983,0.261709,0.496485,34,0.0176407,10,0.000129934,-3.30409,-2.42411,-0.0243389,-0.471325,0.261709,
2,1,0,1,0,66101.3,0.269474,0.269152,0.492587,34,0.0180206,10,0.00013258,-3.30752,-326.038,-0.000180961,-0.00347699,0.269152,
2,1,0,1,0,66102,0.276965,0.276637,0.48956,34,0.018398,10,0.00013543,-3.31019,-2.65818,-0.0221956,-0.42488,0.276637,
2,1,0,1,0,66102.8,0.284456,0.284154,0.486397,34,0.0187727,10,0.000138212,-3.31301,-1.92173,-0.0307015,-0.582054,0.284154,
2,1,0,1,0,66103.5,0.291947,0.291645,0.481017,34,0.0191442,10,0.000140286,-3.31784,-1.11309,-0.0530055,-0.998084,0.291645,
2,1,0,1,0,66104.3,0.299437,0.299133,0.478962,34,0.0195129,10,0.000143273,-3.3197,-0.00343232,-17.1895,-183.368,0.299133,
2,0,0,1,0,66104.9,0.293745,0.293422,-0.0698922,34,0.0195452,10,-2.05079e-05,-4.15557,-0.0128004,-4.60923,11.3757,0.293422,
2,0,0,1,0,66105.7,0.286253,0.285937,-0.125909,34,0.0194604,10,-3.60021e-05,-3.89994,-0.0501991,-1.17532,5.78023,0.285937,
2,0,0,1,0,66106.4,0.278763,0.278444,-0.162653,34,0.0193422,10,-4.52896e-05,-3.78874,-0.0924742,-0.638016,4.03458,0.278444,
2,0,0,1,0,66107.2,0.271272,0.270946,-0.189837,34,0.0192001,10,-5.14356e-05,-3.72162,-0.111999,-0.52679,3.91692,0.270946,
2,0,0,1,0,66107.9,0.263781,0.263496,-0.214622,34,0.0190383,10,-5.65521e-05,-3.66833,-0.150031,-0.393252,3.29417,0.2634964,
2,0,0,1,0,66108.7,0.25629,0.255971,-0.236329,34,0.0188597,10,-6.04934e-05,-3.62648,-0.227758,-0.259047,2.37637,0.255971,
2,0,0,1,0,66109.4,0.248799,0.248467,-0.254751,34,0.0186666,10,-6.32972e-05,-3.59388,-0.246038,-0.239801,2.38357,0.248467,
2,0,0,1,0,66110.2,0.241308,0.24102,-0.269621,34,0.0184605,10,-6.49841e-05,-3.56925,-0.286144,-0.20619,2.18765,0.24102,
2,0,0,1,0,66110.9,0.233817,0.233523,-0.286582,34,0.0182426,10,-6.69234e-05,-3.54275,-0.278286,-0.212012,2.37109,0.233523,
2,0,0,1,0,66111.7,0.226326,0.226039,-0.300062,34,0.0180132,10,-6.78256e-05,-3.52279,-0.360892,-0.163484,1.91744,0.226039,
2,0,0,1,0,66112.4,0.218835,0.218497,-0.317824,34,0.0177725,10,-6.94436e-05,-3.49781,-0.293999,-0.200681,2.4779,0.218497,
2,0,0,1,0,66113.2,0.211344,0.211006,-0.329611,34,0.0175209,10,-6.955e-05,-3.482,-0.37868,-0.155804,1.99913,0.211006,
2,0,0,1,0,66113.9,0.203854,0.203527,-0.343639,34,0.0172578,10,-6.99398e-05,-3.4639,-0.465573,-0.126726,1.71354,0.2035272,
2,0,0,1,0,66114.7,0.196362,0.196052,-0.360582,34,0.016984,10,-7.0693e-05,-3.443,-0.377449,-0.156312,2.19989,0.1960524,
2,0,0,1,0,66115.4,0.188872,0.188557,-0.374759,34,0.0166982,10,-7.06635e-05,-3.42625,-0.265486,-0.222234,3.25972,0.188557,
2,0,0,1,0,66116.2,0.18138,0.181032,-0.394907,34,0.0164001,10,-7.14908e-05,-3.4035,-0.41401,-0.142509,2.19117,0.181032,
2,0,0,1,0,66116.9,0.17389,0.173531,-0.414782,34,0.016088,10,-7.19777e-05,-3.38218,-0.318174,-0.185433,2.99941,0.173531,
2,0,0,1,0,66117.7,0.166398,0.166078,-0.43895,34,0.0157591,10,-7.28998e-05,-3.35759,-0.305326,-0.193236,3.31504,0.1660779,
2,0,0,1,0,66118.4,0.158907,0.158613,-0.470489,34,0.0154087,10,-7.46259e-05,-3.32745,-0.192846,-0.305944,5.64078,0.158613,
2,0,0,1,0,66119.2,0.151417,0.151095,-0.522397,34,0.0150273,10,-7.89317e-05,-3.282,-0.151899,-0.388416,7.94623,0.151095,
2,0,0,1,0,66119.9,0.143925,0.143624,-0.603769,34,0.0145975,10,-8.6716e-05,-3.21913,-0.0936688,-0.629879,14.8507,0.143624,
2,0,0,1,0,66120.7,0.136435,0.136142,-0.733329,34,0.0140882,10,-9.98366e-05,-3.1347,-0.0855996,-0.689255,19.7085,0.136142,
2,0,0,1,0,66121.4,0.128943,0.128632,-0.886228,34,0.0134717,10,-0.000113997,-3.05245,-0.105962,-0.556806,19.1877,0.128632,
2,0,0,1,0,66122.2,0.121453,0.121143,-1.01306,34,0.0127476,10,-0.000122725,-2.99436,-0.165628,-0.356219,14.0647,0.121143,
2,0,0,1,0,66122.9,0.113962,0.113676,-1.08773,34,0.0119441,10,-0.000123649,-2.96348,-0.513559,-0.114884,4.88164,0.1136758,
2,0,0,1,0,66123.7,0.106471,0.10613,-1.10301,34,0.011108,10,-0.000117063,-2.95742,2.88153,0.0204752,-0.882981,0.10613,
2,0,0,1,0,66124.4,0.0989798,0.0986753,-1.09066,34,0.0102749,10,-0.000107621,-2.96231,0.999874,0.0590074,-2.50473,0.0986753,
2,0,0,1,0,66125.2,0.0914889,0.0911856,-1.06677,34,0.00945734,10,-9.72738e-05,-2.97193,0.911037,0.0647613,-2.69153,0.0911856,
2,0,0,1,0,66125.9,0.083998,0.0836599,-1.0431,34,0.00865723,10,-8.72657e-05,-2.98167,0.575944,0.102441,-4.16386,0.0836599,
2,0,0,1,0,66126.7,0.076507,0.0762084,-1.01663,34,0.00787548,10,-7.74759e-05,-2.99284,0.633094,0.0931931,-3.69879,0.0762084,
2,0,0,1,0,66127.4,0.069016,0.06874,-0.986541,34,0.00711425,10,-6.78148e-05,-3.00588,0.58908,0.100156,-3.86858,0.06874001,
2,0,0,1,0,66128.2,0.0615251,0.0612164,-0.960823,34,0.00637335,10,-5.88181e-05,-3.01736,0.663486,0.0889242,-3.33653,0.0612164,
2,0,0,1,0,66128.9,0.0540342,0.0537416,-0.931038,34,0.00565414,10,-5.00355e-05,-3.03103,0.560812,0.105205,-3.82181,0.0537416,
2,0,0,1,0,66129.7,0.0465441,0.0462559,-0.901977,34,0.00495712,10,-4.17217e-05,-3.0448,0.53472,0.110338,-3.88375,0.0462559,
2,0,0,1,0,66130.4,0.0390523,0.0387454,-0.868595,34,0.00428369,10,-3.3654e-05,-3.06118,0.39432,0.149625,-5.07045,0.0387454,
2,0,0,1,0,66131.2,0.0315618,0.0312348,-0.837466,34,0.00363445,10,-2.61581e-05,-3.07703,0.435392,0.13551,-4.42894,0.0312348,
2,0,0,1,0,66131.9,0.0240704,0.0237714,-0.806426,34,0.00300872,10,-1.91698e-05,-3.09344,0.492317,0.119842,-3.77883,0.0237714,
2,0,0,1,0,66132.7,0.0165796,0.0162767,-0.784313,34,0.00240304,10,-1.2766e-05,-3.10551,0.905997,0.0651217,-1.99431,0.0162767,
2,0,0,1,0,66133.4,0.00908845,0.00875388,-0.77148,34,0.00181084,10,-6.75344e-06,-3.11268,2.45094,0.0240724,-0.723701,0.00875388,
2,0,0,1,0,66134.2,0.00159728,0.00119284,-0.77825,34,0.00122365,10,-9.28329e-07,-3.10888, , , ,0.00119284,
2,0,0,1,0,66134.3,0.000199195,-0.000243248,-0.77275,34,0.00111345,10,1.8797e-07,-3.11196, , , ,-0.000243248,