File: Figure_codes/Fig_3-5/rawdata_trumpetplot_data/after 10th/20221101_1-115_003_TrumpetPlot_ParaChange_from10_every3_02_CV_C01_28.csv
mode,ox/red,error,control changes,counter inc.,time/s,control/V,Ewe/V,<I>/mA,cycle number,(Q-Qo)/C,I Range,P/W,log(|I|),Tafel slope mV/dec,alpha_eff,dI/d(E-IR),E-IR/V,
2,0,0,1,0,55503.7,2.44065e-05,-0.00042076,-0.400873,29,0.0000000E+000,10,1.68671e-07,-3.39699, , , ,-0.00042076,
2,0,0,1,0,55510.9,0.00729061,0.00696813,-0.0960584,29,-0.000982926,10,-6.69347e-07,-4.01746,-0.0303178,-1.94605,7.38699,0.006968129,
2,0,0,1,0,55518.4,0.0147815,0.0144652,-0.0596826,29,-0.00148325,10,-8.63319e-07,-4.22415,-0.039828,-1.48137,3.45686,0.0144652,
2,0,0,1,0,55525.9,0.0222725,0.0219336,-0.0385257,29,-0.00177793,10,-8.45008e-07,-4.41425,-0.0382005,-1.54448,2.32801,0.0219336,
2,0,0,1,0,55533.4,0.0297635,0.0294446,-0.0232548,29,-0.00193943,10,-6.84726e-07,-4.63349,-0.0275456,-2.1419,1.91881,0.0294446,
2,0,0,1,0,55540.9,0.0372544,0.0369066,-0.0100849,29,-0.00199239,10,-3.722e-07,-4.99633,-0.0131474,-4.48757,1.6271,0.0369066,
2,1,0,1,0,55548.4,0.0447454,0.0444111,0.0011034,29,-0.00195471,10,4.90032e-08,-5.95727,0.015025,3.9268,1.47165,0.0444111,
2,0,0,1,0,55555.9,0.0522363,0.0518923,0.0108421,29,-0.00183621,10,5.62619e-07,-4.96489,0.0179052,3.29514,1.40348,0.0518923,
2,1,0,1,0,55563.4,0.0597273,0.0594084,0.0206286,29,-0.00164309,10,1.22551e-06,-4.68553,0.0358425,1.64609,1.28834,0.0594084,
2,1,0,1,0,55570.9,0.0672183,0.0668992,0.0287962,29,-0.00138471,10,1.92644e-06,-4.54066,0.0644519,0.915411,1.02297,0.0668992,
2,1,0,1,0,55578.4,0.0747092,0.0743612,0.0354741,29,-0.0010686,10,2.6379e-06,-4.45009,0.104911,0.562384,0.791998,0.0743612,
2,1,0,1,0,55585.9,0.0822001,0.0818763,0.0419273,29,-0.000700429,10,3.43285e-06,-4.3775,0.132354,0.445774,0.745143,0.0818763,
2,1,0,1,0,55593.3,0.0896911,0.0893756,0.0513146,29,-0.000275551,10,4.58627e-06,-4.28976,0.0916659,0.643642,1.2921,0.08937557,
2,1,0,1,0,55600.8,0.0971821,0.0968451,0.0606697,29,0.000219035,10,5.87557e-06,-4.21703,0.102147,0.577599,1.36288,0.0968451,
2,1,0,1,0,55608.3,0.104673,0.104347,0.0705989,29,0.000785393,10,7.36681e-06,-4.1512,0.133782,0.441017,1.19923,0.104347,
2,1,0,1,0,55615.8,0.112164,0.111847,0.0787238,29,0.00142195,10,8.80498e-06,-4.10389,0.223727,0.263714,0.811395,0.111847,
2,1,0,1,0,55623.3,0.119655,0.119317,0.0871794,29,0.0021208,10,1.0402e-05,-4.05959,0.229083,0.257549,0.874932,0.119317,
2,1,0,1,0,55630.8,0.127146,0.126813,0.091991,29,0.00287379,10,1.16657e-05,-4.03625,0.571689,0.103203,0.372193,0.126813,
2,1,0,1,0,55638.3,0.134637,0.134294,0.0904276,29,0.003645,10,1.21439e-05,-4.0437,-0.170493,-0.346055,-1.21654,0.134294,
2,1,0,1,0,55645.8,0.142128,0.14184,0.0762114,29,0.00434708,10,1.08098e-05,-4.11798,-0.073496,-0.802765,-2.35552,0.14184,
2,1,0,1,0,55653.3,0.149619,0.149268,0.0597084,29,0.0049243,10,8.91257e-06,-4.22396,-0.084619,-0.697243,-1.64201,0.149268,
2,1,0,1,0,55660.8,0.15711,0.156775,0.052986,29,0.00541197,10,8.30688e-06,-4.27584,-0.168215,-0.350742,-0.721335,0.156775,
2,1,0,1,0,55668.3,0.164601,0.164244,0.0505409,29,0.00586496,10,8.30107e-06,-4.29636,-1.04331,-0.056551,-0.110947,0.164244,
2,1,0,1,0,55675.7,0.172091,0.171738,0.0500498,29,0.00630823,10,8.59546e-06,-4.3006,-3.07436,-0.019191,-0.0378115,0.171738,
2,1,0,1,0,55683.2,0.179582,0.179245,0.0502353,29,0.00675095,10,9.00442e-06,-4.29899,1.23889,0.0476232,0.0930145,0.179245,
2,1,0,1,0,55690.7,0.187073,0.186765,0.0510642,29,0.00719519,10,9.53703e-06,-4.29188,0.896054,0.0658442,0.130715,0.186765,
2,1,0,1,0,55698.2,0.194564,0.194253,0.051767,29,0.00764491,10,1.00559e-05,-4.28595,0.927705,0.0635978,0.12796,0.194253,
2,1,0,1,0,55705.7,0.202055,0.20173,0.0526661,29,0.0080995,10,1.06243e-05,-4.27847,1.40699,0.0419334,0.0861194,0.2017298,
2,1,0,1,0,55713.2,0.209546,0.20921,0.0533089,29,0.00855997,10,1.11527e-05,-4.2732,62.6608,0.000941577,0.00195416,0.20921,
2,1,0,1,0,55720.7,0.217037,0.216713,0.053789,29,0.00902522,10,1.16568e-05,-4.26931,0.511477,0.115352,0.244254,0.216713,
2,1,0,1,0,55728.2,0.224528,0.224192,0.0548574,29,0.00949774,10,1.22986e-05,-4.26076,1.1515,0.0512374,0.110261,0.224192,
2,1,0,1,0,55735.7,0.232019,0.231702,0.0559126,29,0.00997808,10,1.29551e-05,-4.25249,0.473701,0.124551,0.276242,0.231702,
2,1,0,1,0,55743.2,0.23951,0.239213,0.057254,29,0.0104661,10,1.36959e-05,-4.24219,1.51905,0.03884,0.0868696,0.239213,
2,1,0,1,0,55750.7,0.247001,0.246659,0.0583798,29,0.01096,10,1.43999e-05,-4.23374,1.50827,0.0391178,0.0889842,0.246659,
2,1,0,1,0,55758.1,0.254492,0.254153,0.0587905,29,0.0114588,10,1.49418e-05,-4.23069,1.57002,0.0375791,0.0865582,0.254153,
2,1,0,1,0,55765.6,0.261983,0.26164,0.0601888,29,0.0119642,10,1.57478e-05,-4.22048,1.19423,0.049404,0.116418,0.26164,
2,1,0,1,0,55773.1,0.269474,0.26913,0.0608932,29,0.0124781,10,1.63882e-05,-4.21543,0.517179,0.11408,0.273059,0.26913,
2,1,0,1,0,55780.6,0.276965,0.27663,0.0620034,29,0.0129982,10,1.7152e-05,-4.20758,-26.8952,-0.0021937,-0.00531735,0.27663,
2,1,0,1,0,55788.1,0.284456,0.284166,0.0629184,29,0.0135234,10,1.78793e-05,-4.20122,1.00974,0.0584307,0.143426,0.284166,
2,1,0,1,0,55795.6,0.291947,0.291611,0.0634791,29,0.014054,10,1.85112e-05,-4.19737,1.21359,0.0486162,0.120741,0.2916109,
2,1,0,1,0,55803.1,0.299438,0.299097,0.064462,29,0.0145912,10,1.92804e-05,-4.1907,-0.00443198,-13.3123,-21.5155,0.299097,
2,1,0,1,0,55809.9,0.293745,0.293404,0.00786629,29,0.0146874,10,2.308e-06,-5.10423,0.0111529,5.29012,1.59789,0.2934041,
2,1,0,1,0,55817.4,0.286254,0.285895,-0.000823919,29,0.0146566,10,-2.35555e-07,-6.08412,-0.0120615,-4.89158,0.943281,0.285895,
2,0,0,1,0,55824.9,0.278763,0.278457,-0.00652069,29,0.0145729,10,-1.81573e-06,-5.18571,-0.0213815,-2.75939,0.652411,0.278457,
2,1,0,1,0,55832.4,0.271272,0.270965,-0.0104184,29,0.0144518,10,-2.82302e-06,-4.9822,-0.0433001,-1.36258,0.568021,0.270965,
2,0,0,1,0,55839.9,0.263781,0.263477,-0.0146067,29,0.0142988,10,-3.84853e-06,-4.83545,-0.087402,-0.675042,0.384155,0.263477,
2,0,0,1,0,55847.4,0.25629,0.255938,-0.0182317,29,0.0141184,10,-4.66619e-06,-4.73917,-0.0896402,-0.658187,0.456978,0.255938,
2,0,0,1,0,55854.9,0.248799,0.248453,-0.0210847,29,0.013912,10,-5.23856e-06,-4.67603,-0.133146,-0.443123,0.366529,0.248453,
2,0,0,1,0,55862.4,0.241308,0.241013,-0.0243226,29,0.0136839,10,-5.86207e-06,-4.61399,-0.126451,-0.466586,0.438499,0.241013,
2,0,0,1,0,55869.9,0.233817,0.233478,-0.0270897,29,0.0134324,10,-6.32487e-06,-4.5672,-0.153277,-0.384925,0.402753,0.2334784,
2,0,0,1,0,55877.4,0.226326,0.225998,-0.029488,29,0.0131604,10,-6.66424e-06,-4.53035,-0.170788,-0.345457,0.399864,0.225998,
2,0,0,1,0,55884.8,0.218835,0.218511,-0.0326146,29,0.0128667,10,-7.12665e-06,-4.48659,-0.22108,-0.266871,0.333885,0.218511,
2,0,0,1,0,55892.3,0.211344,0.210969,-0.0352951,29,0.0125516,10,-7.44619e-06,-4.45229,-0.272483,-0.216527,0.297578,0.210969,
2,0,0,1,0,55899.8,0.203853,0.203498,-0.0376577,29,0.0122143,10,-7.66326e-06,-4.42415,-0.497725,-0.118539,0.175146,0.203498,
2,0,0,1,0,55907.3,0.196362,0.195988,-0.0405153,29,0.0118567,10,-7.9405e-06,-4.39238,-0.232987,-0.253233,0.399788,0.195988,
2,0,0,1,0,55914.8,0.188871,0.188497,-0.0435731,29,0.0114754,10,-8.21339e-06,-4.36078,-0.194241,-0.303746,0.519931,0.188497,
2,0,0,1,0,55922.3,0.18138,0.181038,-0.0478397,29,0.0110688,10,-8.66081e-06,-4.32021,-0.250741,-0.235303,0.433616,0.181038,
2,0,0,1,0,55929.8,0.173889,0.173546,-0.0508524,29,0.0106351,10,-8.82525e-06,-4.29369,-0.210374,-0.280453,0.554736,0.173546,
2,0,0,1,0,55937.3,0.166398,0.16608,-0.055339,29,0.0101694,10,-9.1907e-06,-4.25697,-0.28732,-0.205346,0.445804,0.16608,
2,0,0,1,0,55944.8,0.158907,0.158567,-0.0607542,29,0.00966438,10,-9.63361e-06,-4.21642,-0.150031,-0.393252,0.937324,0.158567,
2,0,0,1,0,55952.3,0.151417,0.151023,-0.0689442,29,0.00910779,10,-1.04122e-05,-4.1615,-0.117404,-0.502537,1.35977,0.151023,
2,0,0,1,0,55959.8,0.143926,0.143596,-0.0814845,29,0.00847281,10,-1.17009e-05,-4.08893,-0.0892335,-0.661187,2.10293,0.143596,
2,0,0,1,0,55967.2,0.136435,0.136077,-0.100447,29,0.00771929,10,-1.36684e-05,-3.99807,-0.0769012,-0.767218,3.00106,0.1360769,
2,0,0,1,0,55974.7,0.128944,0.128596,-0.121482,29,0.00680851,10,-1.56221e-05,-3.91549,-0.123862,-0.476335,2.25272,0.128596,
2,0,0,1,0,55982.2,0.121453,0.121082,-0.134274,29,0.00576759,10,-1.62581e-05,-3.87201,-0.412095,-0.143171,0.747391,0.121082,
2,0,0,1,0,55989.7,0.113962,0.113585,-0.13644,29,0.00467317,10,-1.54975e-05,-3.86506,-2.81816,-0.0209357,0.11166,0.113585,
2,0,0,1,0,55997.2,0.106471,0.10613,-0.137295,29,0.00357069,10,-1.45711e-05,-3.86235,-1.14348,-0.0515969,0.277186,0.10613,
2,0,0,1,0,56004.7,0.0989798,0.0986307,-0.13662,29,0.00246736,10,-1.34749e-05,-3.86449,1.96869,0.0299692,-0.159301,0.0986307,
2,0,0,1,0,56012.2,0.0914889,0.0911082,-0.133876,29,0.00138009,10,-1.21972e-05,-3.8733,0.763524,0.0772733,-0.402764,0.09110824,
2,0,0,1,0,56019.7,0.083998,0.0836377,-0.129291,29,0.000320731,10,-1.08136e-05,-3.88843,0.38035,0.15512,-0.780297,0.0836377,
2,0,0,1,0,56027.2,0.076507,0.0761395,-0.125469,29,-0.000707076,10,-9.55315e-06,-3.90146,0.637855,0.0924975,-0.453101,0.0761395,
2,0,0,1,0,56034.7,0.069016,0.0686159,-0.121388,29,-0.00170752,10,-8.32915e-06,-3.91582,0.747841,0.0788938,-0.375845,0.0686159,
2,0,0,1,0,56042.2,0.0615251,0.0611751,-0.118954,29,-0.00268381,10,-7.27705e-06,-3.92462,0.677711,0.0870578,-0.404506,0.0611751,
2,0,0,1,0,56049.6,0.0540342,0.0536918,-0.115946,29,-0.00363694,10,-6.22534e-06,-3.93574,1.06726,0.0552816,-0.2494,0.0536918,
2,0,0,1,0,56057.1,0.0465432,0.0461586,-0.112879,29,-0.00456635,10,-5.21036e-06,-3.94739,0.969277,0.0608701,-0.269096,0.0461586,
2,0,0,1,0,56064.6,0.0390522,0.0386668,-0.110427,29,-0.00547626,10,-4.26986e-06,-3.95693,0.57523,0.102568,-0.441902,0.0386668,
2,0,0,1,0,56072.1,0.0315613,0.0311656,-0.108192,29,-0.0063657,10,-3.37188e-06,-3.9658,0.536057,0.110063,-0.464469,0.0311656,
2,0,0,1,0,56079.6,0.0240703,0.0237279,-0.106176,29,-0.00723821,10,-2.51933e-06,-3.97397,2.12032,0.0278259,-0.115727,0.0237279,
2,0,0,1,0,56087.1,0.0165794,0.0162287,-0.10587,29,-0.00810135,10,-1.71813e-06,-3.97523,-22.294,-0.00264645,0.010956,0.0162287,
2,0,0,1,0,56094.6,0.00908843,0.00874538,-0.106774,29,-0.00896791,10,-9.3378e-07,-3.97153,-8.27333,-0.00713135,0.0298227,0.00874538,
2,0,0,1,0,56102.1,0.00159744,0.00123767,-0.110163,29,-0.00984919,10,-1.36345e-07,-3.95797, , , ,0.00123767,
2,0,0,1,0,56103.5,0.000199235,-0.000187808,-0.110144,29,-0.0100157,10,2.06858e-08,-3.95804, , , ,-0.000187808,