File: Figure_codes/Fig_3-5/rawdata_trumpetplot_data/after 10th/20221101_1-115_003_TrumpetPlot_ParaChange_from10_every3_12_CV_C01_30.csv
mode,ox/red,error,control changes,counter inc.,time/s,control/V,Ewe/V,<I>/mA,cycle number,(Q-Qo)/C,I Range,P/W,log(|I|),Tafel slope mV/dec,alpha_eff,dI/d(E-IR),E-IR/V,
2,1,0,1,0,60300.4,2.44065e-05,-0.000306236,13.4322,31,0.0000000E+000,10,-4.11342e-06,-1.87185, , , ,-0.000306236,
2,1,0,1,0,60300.5,0.0104008,0.0100444,16.3612,31,0.000259147,10,0.000164338,-1.78618,0.179027,0.329558,209.36,0.0100444,
2,1,0,1,0,60300.5,0.0212099,0.0208775,18.3435,31,0.000572366,10,0.000382967,-1.73652,0.25993,0.226984,162.072,0.0208775,
2,1,0,1,0,60300.5,0.0320052,0.031647,19.9662,31,0.000917664,10,0.000631869,-1.69971,0.329936,0.178823,139.12,0.031647,
2,1,0,1,0,60300.5,0.0428033,0.0424525,21.401,31,0.00129024,10,0.000908526,-1.66957,0.393072,0.1501,125.22,0.0424525,
2,1,0,1,0,60300.5,0.0535986,0.0532263,22.6981,31,0.00168729,10,0.00120814,-1.64401,0.443703,0.132972,117.729,0.0532263,
2,1,0,1,0,60300.5,0.0644077,0.064036,23.9566,31,0.00210734,10,0.00153409,-1.62057,0.481086,0.122639,114.603,0.064036,
2,1,0,1,0,60300.6,0.075203,0.0748384,25.1905,31,0.00254974,10,0.00188521,-1.59876,0.504894,0.116856,114.868,0.0748384,
2,1,0,1,0,60300.6,0.0860011,0.0856365,26.4268,31,0.00301443,10,0.0022631,-1.57795,0.52406,0.112583,116.144,0.0856365,
2,1,0,1,0,60300.6,0.0968075,0.0964315,27.6886,31,0.00350166,10,0.00267005,-1.5577,0.543513,0.108553,117.289,0.0964315,
2,1,0,1,0,60300.6,0.107606,0.107199,28.96,31,0.00401167,10,0.00310448,-1.5382,0.554838,0.106337,120.184,0.107199,
2,1,0,1,0,60300.6,0.118401,0.118051,30.2638,31,0.00454471,10,0.00357267,-1.51908,0.560466,0.10527,124.367,0.118051,
2,1,0,1,0,60300.6,0.129207,0.128801,31.6326,31,0.00510188,10,0.00407432,-1.49987,0.569839,0.103538,127.78,0.128801,
2,1,0,1,0,60300.7,0.140005,0.1396,33.1127,31,0.00568436,10,0.00462252,-1.48,0.523009,0.112809,145.754,0.1396,
2,1,0,1,0,60300.7,0.150803,0.1504,34.6715,31,0.00629473,10,0.00521459,-1.46003,0.570984,0.10333,139.785,0.1504,
2,1,0,1,0,60300.7,0.161604,0.161195,36.1556,31,0.00693241,10,0.00582808,-1.44182,0.635581,0.0928284,130.886,0.161195,
2,1,0,1,0,60300.7,0.172405,0.172027,37.485,31,0.00759556,10,0.00644842,-1.42614,0.773086,0.0763175,111.53,0.172027,
2,1,0,1,0,60300.7,0.183203,0.182828,38.5077,31,0.00828013,10,0.00704028,-1.41445,1.18671,0.0497173,74.5983,0.182828,
2,1,0,1,0,60300.8,0.194001,0.193644,39.0169,31,0.00897873,10,0.0075554,-1.40875,4.3882,0.0134452,20.4415,0.193644,
2,1,0,1,0,60300.8,0.204808,0.204418,38.9212,31,0.00968114,10,0.0079562,-1.40981,-2.43216,-0.0242582,-36.7927,0.204418,
2,1,0,1,0,60300.8,0.215603,0.215237,38.2071,31,0.0103762,10,0.00822359,-1.41786,-0.949184,-0.0621586,-92.5783,0.215237,
2,1,0,1,0,60300.8,0.226401,0.226067,36.9282,31,0.0110532,10,0.00834825,-1.43264,-0.599335,-0.0984425,-141.738,0.226067,
2,1,0,1,0,60300.8,0.237207,0.236797,35.2321,31,0.011703,10,0.00834288,-1.45306,-0.473575,-0.124584,-171.17,0.236797,
2,1,0,1,0,60300.8,0.248005,0.24767,33.318,31,0.0123199,10,0.00825185,-1.47732,-0.426175,-0.138441,-179.939,0.24767,
2,1,0,1,0,60300.9,0.258801,0.258451,31.3847,31,0.0129019,10,0.0081114,-1.50328,-0.412122,-0.143162,-175.364,0.258451,
2,1,0,1,0,60300.9,0.26961,0.26927,29.5736,31,0.01345,10,0.0079633,-1.5291,-0.425487,-0.138665,-160.043,0.2692703,
2,1,0,1,0,60300.9,0.280405,0.280068,27.9393,31,0.0139671,10,0.00782491,-1.55378,-0.454548,-0.129799,-141.586,0.2800684,
2,1,0,1,0,60300.9,0.291203,0.290851,26.5095,31,0.0144567,10,0.0077103,-1.5766,-0.490241,-0.120349,-124.584,0.290851,
2,1,0,0,0,60300.9,0.300012,0.299632,25.4735,31,0.0148385,10,0.00763269,-1.59391,0.0035614,16.5665,15078.1,0.299632,
2,1,0,1,0,60300.9,0.290843,0.290521,15.545,31,0.0151406,10,0.00451616,-1.80841,0.045777,1.28886,787.651,0.290521,
2,1,0,1,0,60301,0.280047,0.279718,8.68774,31,0.0153541,10,0.00243012,-2.06109,0.0373011,1.58172,531.973,0.279718,
2,1,0,1,0,60301,0.269244,0.268894,3.78595,31,0.0154636,10,0.00101802,-2.42183,0.0209673,2.8139,392.467,0.268894,
2,1,0,1,0,60301,0.258443,0.25812,0.0846665,31,0.0154966,10,2.18541e-05,-4.07229,0.10149,0.581337,299.234,0.25812,
2,0,0,1,0,60301,0.247645,0.247285,-2.81264,31,0.0154706,10,-0.000695522,-2.55089,-0.0249473,-2.36498,240.087,0.247285,
2,0,0,1,0,60301,0.236849,0.236506,-5.14083,31,0.015398,10,-0.00121584,-2.28897,-0.0599071,-0.984859,193.993,0.236506,
2,0,0,1,0,60301.1,0.22604,0.225743,-7.06292,31,0.0152874,10,-0.0015944,-2.15102,-0.0999127,-0.590515,161.176,0.225743,
2,0,0,1,0,60301.1,0.215245,0.214922,-8.66777,31,0.0151454,10,-0.0018629,-2.06209,-0.144116,-0.409394,137.805,0.214922,
2,0,0,1,0,60301.1,0.204447,0.20411,-10.0524,31,0.0149766,10,-0.00205179,-1.99773,-0.191405,-0.308248,120.47,0.20411,
2,0,0,1,0,60301.1,0.19364,0.193272,-11.2791,31,0.0147844,10,-0.00217994,-1.94772,-0.245473,-0.240352,105.457,0.193272,
2,0,0,1,0,60301.1,0.182842,0.182516,-12.3707,31,0.0145715,10,-0.00225785,-1.90761,-0.288394,-0.204581,98.6303,0.182516,
2,0,0,1,0,60301.1,0.172047,0.171693,-13.4022,31,0.0143394,10,-0.00230106,-1.87282,-0.32054,-0.184064,96.2763,0.171693,
2,0,0,1,0,60301.2,0.161241,0.16092,-14.4342,31,0.0140888,10,-0.00232276,-1.84061,-0.345868,-0.170586,96.1074,0.16092,
2,0,0,1,0,60301.2,0.150443,0.150104,-15.5305,31,0.0138192,10,-0.00233119,-1.80881,-0.329412,-0.179107,108.667,0.150104,
2,0,0,1,0,60301.2,0.139645,0.139268,-16.8338,31,0.0135281,10,-0.0023444,-1.77382,-0.286596,-0.205865,135.548,0.139268,
2,0,0,1,0,60301.2,0.128849,0.128524,-18.5207,31,0.0132105,10,-0.00238035,-1.73234,-0.238462,-0.247419,179.27,0.128524,
2,0,0,1,0,60301.2,0.118043,0.117719,-20.7267,31,0.0128578,10,-0.00243993,-1.68347,-0.211488,-0.278975,225.893,0.117719,
2,0,0,1,0,60301.3,0.107245,0.106933,-23.341,31,0.0124612,10,-0.00249591,-1.63188,-0.214481,-0.275083,250.402,0.106933,
2,0,0,1,0,60301.3,0.0964468,0.0960985,-26.0274,31,0.0120167,10,-0.0025012,-1.58457,-0.243233,-0.242566,246.062,0.0960985,
2,0,0,1,0,60301.3,0.0856404,0.0853502,-28.5693,31,0.0115248,10,-0.00243839,-1.5441,-0.288386,-0.204587,227.863,0.0853502,
2,0,0,1,0,60301.3,0.0748451,0.074585,-30.8741,31,0.010989,10,-0.00230274,-1.51041,-0.361417,-0.163247,196.366,0.074585,
2,0,0,1,0,60301.3,0.0640471,0.0637529,-32.7728,31,0.0104153,10,-0.00208936,-1.48449,-0.482169,-0.122364,156.305,0.0637529,
2,0,0,1,0,60301.3,0.0532407,0.0529484,-34.2647,31,0.00981129,10,-0.00181426,-1.46515,-0.64813,-0.0910311,121.605,0.0529484,
2,0,0,1,0,60301.4,0.0424426,0.0421037,-35.4072,31,0.00918356,10,-0.00149077,-1.45091,-0.910989,-0.0647648,89.4099,0.0421037,
2,0,0,1,0,60301.4,0.0316473,0.0313024,-36.21,31,0.00853844,10,-0.00113346,-1.44117,-1.35392,-0.0435771,61.5458,0.0313024,
2,0,0,1,0,60301.4,0.0208437,0.0204989,-36.7451,31,0.00788143,10,-0.000753237,-1.4348,-2.24037,-0.026335,37.7438,0.0204989,
2,0,0,1,0,60301.4,0.0100429,0.00966901,-37.0485,31,0.00721693,10,-0.000358223,-1.43123,-4.93963,-0.0119442,17.2577,0.00966901,
2,0,0,1,0,60301.4,-0.000755208,-0.00118531,-37.1694,31,0.00654877,10,4.40574e-05,-1.42981,-88.0841,-0.000669814,0.970613,-0.00118531,
2,0,0,1,0,60301.5,-0.0115505,-0.0119336,-37.0358,31,0.00588074,10,0.000441971,-1.43138,3.92794,0.0150206,-21.695,-0.0119336,
2,0,0,1,0,60301.5,-0.0223597,-0.022772,-36.709,31,0.00521685,10,0.000835937,-1.43523,2.16956,0.0271945,-38.9391,-0.02277202,
2,0,0,1,0,60301.5,-0.033155,-0.03355,-36.232,31,0.00456029,10,0.00121558,-1.44091,1.83544,0.0321449,-45.4525,-0.03355,
2,0,0,1,0,60301.5,-0.043953,-0.044346,-35.7059,31,0.00391286,10,0.00158341,-1.44726,1.66441,0.035448,-49.3972,-0.044346,
2,0,0,1,0,60301.5,-0.0547594,-0.0551537,-35.1886,31,0.00327497,10,0.00194078,-1.4536,1.76885,0.0333551,-45.81,-0.0551537,
2,0,0,1,0,60301.5,-0.0655575,-0.0659507,-34.7406,31,0.00264573,10,0.00229117,-1.45916,2.30265,0.0256226,-34.761,-0.0659507,
2,0,0,1,0,60301.6,-0.0763528,-0.0767573,-34.4224,31,0.0020234,10,0.00264217,-1.46316,3.54161,0.0166591,-22.3935,-0.0767573,
2,0,0,1,0,60301.6,-0.0871592,-0.0874939,-34.2409,31,0.00140563,10,0.00299587,-1.46546,6.56092,0.00899265,-12.0228,-0.0874939,
2,0,0,1,0,60301.6,-0.0979573,-0.0983737,-34.1901,31,0.000789907,10,0.00336341,-1.4661,7.07877,0.00833478,-11.1127,-0.0983737,
2,0,0,1,1,60301.6,-0.0955546,-0.0960133,-27.3167,31,0.000443138,10,0.00262277,-1.56357,-0.0510205,-1.1564,1252.82,-0.0960133,
2,0,0,1,1,60301.6,-0.0847538,-0.0851791,-17.3231,31,4.8886e-05,10,0.00147556,-1.76138,-0.0518219,-1.13852,769.165,-0.08517909,
2,0,0,1,1,60301.6,-0.0739557,-0.074417,-10.152,31,-0.000194889,10,0.00075548,-1.99345,-0.0395744,-1.49086,583.965,-0.074417,
2,0,0,1,1,60301.7,-0.0631604,-0.0635956,-4.47653,31,-0.000324322,10,0.000284687,-2.34906,-0.0201366,-2.92999,476.349,-0.0635956,
2,1,0,1,1,60301.7,-0.0523512,-0.0527985,0.224169,31,-0.000360888,10,-1.18358e-05,-3.64942,0.148279,0.397898,398.395,-0.0527985,
2,1,0,1,1,60301.7,-0.0415559,-0.0420099,4.16149,31,-0.000320134,10,-0.000174824,-2.38075,0.0264807,2.22804,337.732,-0.04200992,
2,1,0,1,1,60301.7,-0.0307579,-0.0312224,7.52666,31,-0.000213829,10,-0.000235,-2.1234,0.0587123,1.0049,290.029,-0.0312224,
2,1,0,1,1,60301.7,-0.0199515,-0.0204116,10.4145,31,-5.13891e-05,10,-0.000212575,-1.98236,0.0965535,0.611061,246.25,-0.0204116,
2,1,0,1,1,60301.8,-0.0091534,-0.00955405,12.8795,31,0.000159044,10,-0.000123051,-1.8901,0.140016,0.421382,210.754,-0.00955405,
2,1,0,0,1,60301.8,-7.54729e-05,-0.00042076,14.619,31,0.000367408,10,-6.1511e-06,-1.83508, , , ,-0.00042076,