File: Figure_codes/Fig_3-5/rawdata_trumpetplot_data/after 10th/20221101_1-115_003_TrumpetPlot_ParaChange_from10_every3_09_CV_C01_4.csv
mode,ox/red,error,control changes,counter inc.,time/s,control/V,Ewe/V,<I>/mA,cycle number,(Q-Qo)/C,I Range,P/W,log(|I|),Tafel slope mV/dec,alpha_eff,dI/d(E-IR),E-IR/V,
2,0,0,0,0,9063.04,2.44065e-05,-0.000268062,-5.29132,5,0.0000000E+000,10,1.4184e-06,-2.27644, , , ,-0.000268062,
2,1,0,1,0,9063.14,0.00978761,0.00950161,2.50746,5,5.86966e-06,10,2.38249e-05,-2.60077,0.0225667,2.61447,244.046,0.00950161,
2,1,0,1,0,9063.24,0.0197755,0.0194549,3.84659,5,0.0003353,10,7.48352e-05,-2.41492,0.111384,0.529701,79.3331,0.0194549,
2,1,0,1,0,9063.34,0.0297635,0.0295186,4.52041,5,0.000755291,10,0.000133436,-2.34482,0.176284,0.334688,59.086,0.0295186,
2,1,0,1,0,9063.44,0.0397514,0.0394427,5.10881,5,0.00123702,10,0.000201505,-2.29168,0.17875,0.330071,65.9211,0.0394427,
2,1,0,1,0,9063.54,0.0497484,0.0494444,5.69849,5,0.00177697,10,0.000281759,-2.24424,0.238815,0.247053,54.8092,0.0494444,
2,1,0,1,0,9063.64,0.0597273,0.0594254,6.23456,5,0.0023722,10,0.000370491,-2.20519,0.26661,0.221297,53.7614,0.0594254,
2,1,0,1,0,9063.74,0.0697152,0.0694147,6.73737,5,0.00302057,10,0.000467673,-2.17151,0.337402,0.174866,45.9962,0.0694147,
2,1,0,1,0,9063.84,0.0797031,0.0794341,7.20164,5,0.00371746,10,0.000572055,-2.14257,0.374531,0.15753,44.2559,0.0794341,
2,1,0,1,0,9063.94,0.0896911,0.0893963,7.61743,5,0.00445799,10,0.00068097,-2.11819,0.394434,0.149581,44.5231,0.0893963,
2,1,0,1,0,9064.04,0.099679,0.0994424,8.14878,5,0.00524303,10,0.000810334,-2.08891,0.306733,0.19235,61.135,0.0994424,
2,1,0,1,0,9064.14,0.109667,0.10936,8.92831,5,0.00609277,10,0.0009764,-2.04923,0.230462,0.256008,89.2107,0.10936,
2,1,0,1,0,9064.24,0.119655,0.119372,9.84742,5,0.00703095,10,0.00117551,-2.00668,0.272396,0.216597,83.2276,0.119372,
2,1,0,1,0,9064.34,0.129643,0.129329,10.5861,5,0.00805416,10,0.00136909,-1.97526,0.375014,0.157327,65.0165,0.129329,
2,1,0,1,0,9064.44,0.139631,0.139311,11.1351,5,0.00914137,10,0.00155124,-1.95331,0.577051,0.102244,44.4391,0.139311,
2,1,0,1,0,9064.54,0.149619,0.149335,11.2348,5,0.0102657,10,0.00167775,-1.94943,-0.507191,-0.116327,-50.8043,0.149335,
2,1,0,1,0,9064.64,0.159607,0.159306,9.74406,5,0.0113293,10,0.00155229,-2.01126,-0.0941561,-0.626619,-237.687,0.159306,
2,1,0,1,0,9064.74,0.169595,0.169296,7.30694,5,0.0121772,10,0.00123704,-2.13626,-0.0824819,-0.715309,-204.267,0.169296,
2,1,0,1,0,9064.84,0.179582,0.179265,5.84148,5,0.0128248,10,0.00104717,-2.23348,-0.136253,-0.433019,-98.977,0.179265,
2,1,0,1,0,9064.94,0.18957,0.18928,5.11557,5,0.0133687,10,0.000968274,-2.29111,-0.22278,-0.264835,-52.9383,0.18928,
2,1,0,1,0,9065.04,0.199558,0.199274,4.69938,5,0.0138569,10,0.000936467,-2.32796,-0.360019,-0.16388,-30.0441,0.199274,
2,1,0,1,0,9065.14,0.209546,0.209276,4.43237,5,0.0143121,10,0.00092759,-2.35336,-0.35893,-0.164378,-28.4522,0.209276,
2,1,0,1,0,9065.24,0.219534,0.219259,4.24423,5,0.0147449,10,0.000930586,-2.3722,-0.688963,-0.0856359,-14.187,0.2192589,
2,1,0,1,0,9065.34,0.229522,0.229221,4.10932,5,0.0151626,10,0.000941941,-2.38623,-0.819589,-0.0719873,-11.5626,0.229221,
2,1,0,1,0,9065.44,0.23951,0.239228,4.02403,5,0.0155695,10,0.000962658,-2.39534,-1.95864,-0.0301229,-4.73544,0.239228,
2,1,0,1,0,9065.54,0.249498,0.249199,3.95645,5,0.0159681,10,0.000985942,-2.40269,-1.68356,-0.0350449,-5.40937,0.2491986,
2,1,0,1,0,9065.64,0.259486,0.259187,3.89866,5,0.0163606,10,0.00101048,-2.40908,-1.27626,-0.0462289,-7.02405,0.259187,
2,1,0,1,0,9065.74,0.269474,0.269143,3.83749,5,0.0167475,10,0.00103283,-2.41595,-2.17221,-0.0271613,-4.07754,0.269143,
2,1,0,1,0,9065.84,0.279462,0.279219,3.79226,5,0.0171293,10,0.00105887,-2.4211,-1.34005,-0.0440281,-6.51283,0.279219,
2,1,0,1,0,9065.94,0.28945,0.289143,3.73844,5,0.0175059,10,0.00108094,-2.42731,-3.30378,-0.0178583,-2.60437,0.289143,
2,1,0,1,0,9066.03,0.299438,0.299161,3.6886,5,0.0178772,10,0.00110349,-2.43314,-0.0247237,-2.38637,-310.291,0.299161,
2,0,0,1,0,9066.12,0.291747,0.291435,-1.23692,5,0.0178966,10,-0.000360483,-2.90766,-0.0250881,-2.35171,108.699,0.291435,
2,0,0,1,0,9066.22,0.281759,0.281442,-1.79426,5,0.0177398,10,-0.00050498,-2.74611,-0.112056,-0.526522,36.7928,0.281442,
2,0,0,1,0,9066.32,0.271771,0.271475,-2.08792,5,0.0175445,10,-0.000566817,-2.68029,-0.175542,-0.336101,27.3292,0.2714746,
2,0,0,1,0,9066.42,0.261783,0.261483,-2.30877,5,0.0173241,10,-0.000603703,-2.63662,-0.307234,-0.192036,17.2568,0.261483,
2,0,0,1,0,9066.52,0.251795,0.251461,-2.47862,5,0.0170845,10,-0.000623276,-2.60579,-0.35293,-0.167172,16.1645,0.251461,
2,0,0,1,0,9066.62,0.241807,0.241487,-2.62548,5,0.0168285,10,-0.00063402,-2.58079,-0.370949,-0.159052,16.3653,0.241487,
2,0,0,1,0,9066.72,0.231815,0.231499,-2.77732,5,0.0165579,10,-0.000642946,-2.55637,-0.384312,-0.153521,16.6177,0.231499,
2,0,0,1,0,9066.82,0.221831,0.221565,-2.90635,5,0.0162737,10,-0.000643945,-2.53665,-0.466445,-0.126489,14.3547,0.221565,
2,0,0,1,0,9066.92,0.211843,0.211569,-3.04627,5,0.0159757,10,-0.000644497,-2.51623,-0.545328,-0.108192,12.8537,0.211569,
2,0,0,1,0,9067.02,0.201856,0.201507,-3.19049,5,0.0156634,10,-0.000642904,-2.49614,-0.541733,-0.10891,13.5669,0.201507,
2,0,0,1,0,9067.12,0.191868,0.191527,-3.35562,5,0.015336,10,-0.000642692,-2.47423,-0.42081,-0.140206,18.3914,0.1915271,
2,0,0,1,0,9067.22,0.18188,0.181581,-3.56948,5,0.014991,10,-0.00064815,-2.4474,-0.310846,-0.189804,26.3331,0.181581,
2,0,0,1,0,9067.32,0.171892,0.171571,-3.83719,5,0.0146218,10,-0.000658349,-2.41599,-0.274038,-0.215298,32.2748,0.1715707,
2,0,0,1,0,9067.42,0.161904,0.161589,-4.26214,5,0.0142185,10,-0.000688717,-2.37037,-0.183171,-0.322103,53.5986,0.161589,
2,0,0,1,0,9067.52,0.151916,0.151579,-4.96473,5,0.0137599,10,-0.000752548,-2.3041,-0.123299,-0.478513,93.1451,0.151579,
2,0,0,1,0,9067.62,0.141928,0.141627,-6.24012,5,0.0132045,10,-0.000883773,-2.20481,-0.0896903,-0.65782,160.365,0.141627,
2,0,0,1,0,9067.72,0.13194,0.131674,-8.07689,5,0.0124928,10,-0.00106352,-2.09276,-0.0928281,-0.635583,199.958,0.131674,
2,0,0,1,0,9067.82,0.121952,0.121663,-9.88189,5,0.0115919,10,-0.00120226,-2.00516,-0.150949,-0.39086,150.455,0.121663,
2,0,0,1,0,9067.92,0.111964,0.111621,-11.0629,5,0.0105393,10,-0.00123485,-1.95613,-0.308363,-0.191333,82.5323,0.111621,
2,0,0,1,0,9068.02,0.101976,0.101656,-11.5158,5,0.00940459,10,-0.00117065,-1.93871,-4.5317,-0.0130194,5.84094,0.101656,
2,0,0,1,0,9068.12,0.0919883,0.0916286,-11.2259,5,0.00826256,10,-0.00102861,-1.94978,0.451625,0.130639,-57.204,0.0916286,
2,0,0,1,0,9068.22,0.0820004,0.081675,-10.4343,5,0.00717903,10,-0.000852219,-1.98154,0.282418,0.20891,-85.0664,0.08167503,
2,0,0,1,0,9068.32,0.0720124,0.0716503,-9.71082,5,0.00617535,10,-0.000695784,-2.01274,0.373695,0.157883,-59.8506,0.0716503,
2,0,0,1,0,9068.42,0.0620245,0.0617342,-9.24836,5,0.00522954,10,-0.00057094,-2.03394,0.522519,0.112915,-40.7863,0.0617342,
2,0,0,1,0,9068.52,0.0520366,0.051682,-8.90269,5,0.00432284,10,-0.000460109,-2.05048,0.590671,0.0998864,-34.6749,0.051682,
2,0,0,1,0,9068.62,0.0420486,0.0417361,-8.53351,5,0.00345122,10,-0.000356155,-2.06887,0.580718,0.101598,-33.8757,0.0417361,
2,0,0,1,0,9068.72,0.0320607,0.031782,-8.13068,5,0.00261848,10,-0.000258409,-2.08987,0.400123,0.147455,-46.7203,0.031782,
2,0,0,1,0,9068.82,0.0220728,0.0217353,-7.61897,5,0.00183136,10,-0.000165601,-2.1181,0.33183,0.177802,-52.8522,0.0217353,
2,0,0,1,0,9068.92,0.0120848,0.0117063,-7.13071,5,0.0010953,10,-8.34744e-05,-2.14687,0.356861,0.165331,-46.0243,0.0117063,
2,0,0,1,0,9069.02,0.0020969,0.0017309,-6.83693,5,0.000402059,10,-1.18341e-05,-2.16514,0.921165,0.0640493,-16.9743,0.0017309,
2,0,0,1,0,9069.12,-0.00789103,-0.00826773,-6.619,5,-0.000267608,10,5.47241e-05,-2.17921,2.11188,0.0279372,-7.22727,-0.00826773,
2,0,0,1,0,9069.22,-0.017879,-0.0182234,-6.6327,5,-0.00092808,10,0.000120871,-2.17831,-1.76347,-0.0334568,8.65092,-0.0182234,
2,0,0,1,0,9069.32,-0.0278669,-0.0282362,-6.7513,5,-0.00159601,10,0.000190631,-2.17061,-1.10847,-0.0532268,14.0385,-0.0282362,
2,0,0,1,0,9069.42,-0.0378548,-0.0381718,-6.96651,5,-0.00228087,10,0.000265924,-2.15698,-0.71933,-0.0820207,22.2815,-0.0381718,
2,0,0,1,0,9069.52,-0.0478428,-0.0481816,-7.23465,5,-0.00299022,10,0.000348577,-2.14058,-0.462692,-0.127515,36.0582,-0.0481816,
2,0,0,1,0,9069.62,-0.0578216,-0.058182,-7.58854,5,-0.00373005,10,0.000441517,-2.11984,-0.455194,-0.129615,38.3858,-0.058182,
2,0,0,1,0,9069.72,-0.0678186,-0.0682077,-8.02174,5,-0.00450911,10,0.000547145,-2.09573,-0.366938,-0.16079,50.3356,-0.0682077,
2,0,0,1,0,9069.82,-0.0778066,-0.078186,-8.54364,5,-0.00533602,10,0.000667993,-2.06836,-0.347293,-0.169886,56.6754,-0.07818599,
2,0,0,1,0,9069.92,-0.0877945,-0.0881561,-9.16299,5,-0.00622015,10,0.000807773,-2.03796,-0.334706,-0.176274,63.0024,-0.0881561,
2,0,0,1,0,9070.02,-0.0977825,-0.0981309,-9.77642,5,-0.00716686,10,0.00095937,-2.00982,-0.361246,-0.163324,62.3361,-0.0981309,
2,0,0,1,1,9070.11,-0.0927386,-0.0930876,-1.22041,5,-0.00771105,10,0.000113605,-2.9135,-0.00307039,-19.2158,630.305,-0.0930876,
2,1,0,1,1,9070.21,-0.0827529,-0.0831574,2.44194,5,-0.0076179,10,-0.000203065,-2.61227,0.0249419,2.36549,219.444,-0.0831574,
2,1,0,1,1,9070.31,-0.0727627,-0.0731074,3.95866,5,-0.00728824,10,-0.000289407,-2.40245,0.0885023,0.666649,102.117,-0.0731074,
2,1,0,1,1,9070.41,-0.0627748,-0.0631252,4.69186,5,-0.00685155,10,-0.000296175,-2.32865,0.199243,0.296121,54.193,-0.0631252,
2,1,0,1,1,9070.51,-0.0527868,-0.0531279,5.09521,5,-0.00635954,10,-0.000270698,-2.29284,0.434394,0.135821,26.9661,-0.0531279,
2,1,0,1,1,9070.61,-0.0427989,-0.0431755,5.29038,5,-0.00583851,10,-0.000228415,-2.27651,0.736832,0.0800725,16.5443,-0.0431755,
2,1,0,1,1,9070.71,-0.0328109,-0.0331447,5.38549,5,-0.00530409,10,-0.0001785,-2.26877,2.87924,0.0204915,4.30089,-0.0331447,
2,1,0,1,1,9070.81,-0.022823,-0.0231986,5.40186,5,-0.00476456,10,-0.000125315,-2.26746,-7.47262,-0.00789549,-1.66429,-0.0231986,
2,1,0,1,1,9070.91,-0.0128351,-0.0131659,5.38428,5,-0.00422504,10,-7.08889e-05,-2.26887,-5.01593,-0.0117625,-2.47316,-0.0131659,
2,1,0,1,1,9071.01,-0.00284713,-0.00318925,5.38337,5,-0.00368673,10,-1.71689e-05,-2.26895,-95.0162,-0.000620947,-0.13032,-0.003189252,
2,1,0,1,1,9071.04,-2.55332e-05,-0.000325324,5.40991,5,-0.00353539,10,-1.75997e-06,-2.26681, , , ,-0.000325324,