File: Figure_codes/Fig_3-5/rawdata_trumpetplot_data/after 10th/20221101_1-115_003_TrumpetPlot_ParaChange_from10_every3_04_CV_C01_18.csv
mode,ox/red,error,control changes,counter inc.,time/s,control/V,Ewe/V,<I>/mA,cycle number,(Q-Qo)/C,I Range,P/W,log(|I|),Tafel slope mV/dec,alpha_eff,dI/d(E-IR),E-IR/V,
2,0,0,1,0,36522.4,2.44065e-05,-0.000325324,-0.390061,19,0.0000000E+000,10,1.26896e-07,-3.40887, , , ,-0.000325324,
2,1,0,1,0,36523.1,0.00729063,0.00696391,0.354338,19,0.000176462,10,2.46758e-06,-3.45058,0.0576208,1.02394,13.9904,0.00696391,
2,1,0,1,0,36523.8,0.0147814,0.0144408,0.42849,19,0.000483528,10,6.18774e-06,-3.36806,0.120192,0.490883,8.21158,0.0144408,
2,1,0,1,0,36524.6,0.0222725,0.0219591,0.485602,19,0.000837757,10,1.06634e-05,-3.31372,0.158532,0.372166,7.04343,0.0219591,
2,1,0,1,0,36525.3,0.0297635,0.0294453,0.537476,19,0.00123177,10,1.58262e-05,-3.26964,0.182743,0.322858,6.75233,0.0294453,
2,1,0,1,0,36526.1,0.0372544,0.0369522,0.588215,19,0.00166415,10,2.17358e-05,-3.23046,0.198529,0.297186,6.83132,0.0369522,
2,1,0,1,0,36526.8,0.0447458,0.0444147,0.639492,19,0.00213545,10,2.84029e-05,-3.19416,0.228754,0.257919,6.42806,0.0444147,
2,1,0,1,0,36527.6,0.0522363,0.0519495,0.686406,19,0.00264338,10,3.56585e-05,-3.16342,0.247286,0.23859,6.38292,0.0519495,
2,1,0,1,0,36528.3,0.0597282,0.0593996,0.727503,19,0.00318446,10,4.32134e-05,-3.13817,0.313931,0.18794,5.33542,0.0593996,
2,1,0,1,0,36529.1,0.0672182,0.0669119,0.766575,19,0.00375564,10,5.1293e-05,-3.11545,0.334309,0.176483,5.26877,0.0669119,
2,1,0,1,0,36529.8,0.0747092,0.0743835,0.79801,19,0.004353,10,5.93588e-05,-3.09799,0.53206,0.11089,3.45617,0.0743835,
2,1,0,1,0,36530.6,0.0822001,0.081818,0.821642,19,0.00497217,10,6.72251e-05,-3.08532,0.557337,0.105861,3.40807,0.081818,
2,1,0,1,0,36531.3,0.0896911,0.0893628,0.859589,19,0.00561309,10,7.68153e-05,-3.06571,0.370616,0.159194,5.34798,0.0893628,
2,1,0,1,0,36532.1,0.097182,0.0968896,0.915666,19,0.00628807,10,8.87184e-05,-3.03826,0.205251,0.287453,10.2822,0.0968896,
2,1,0,1,0,36532.8,0.104673,0.104348,0.99878,19,0.00701407,10,0.000104221,-3.00053,0.189732,0.310965,12.076,0.104348,
2,1,0,1,0,36533.6,0.112164,0.111853,1.07315,19,0.00780176,10,0.000120035,-2.96934,0.299604,0.196926,8.23617,0.111853,
2,1,0,1,0,36534.3,0.119655,0.119356,1.12794,19,0.00863938,10,0.000134626,-2.94772,0.543397,0.108576,4.78274,0.119356,
2,1,0,1,0,36535.1,0.127146,0.126849,1.16023,19,0.00950983,10,0.000147174,-2.93546,0.662253,0.0890898,4.04505,0.126849,
2,1,0,1,0,36535.8,0.134637,0.134347,1.1745,19,0.0104008,10,0.000157791,-2.93015,-0.732634,-0.0805313,-3.68831,0.134347,
2,1,0,1,0,36536.6,0.142127,0.141788,1.08706,19,0.0112682,10,0.000154132,-2.96375,-0.128847,-0.457908,-19.3396,0.141788,
2,1,0,1,0,36537.3,0.149619,0.149286,0.88781,19,0.0120223,10,0.000132538,-3.05168,-0.0717914,-0.821826,-28.4743,0.149286,
2,1,0,1,0,36538.1,0.157109,0.156826,0.714285,19,0.0126276,10,0.000112019,-3.14613,-0.0980819,-0.601538,-16.828,0.156826,
2,1,0,1,0,36538.8,0.164601,0.164246,0.629975,19,0.0131379,10,0.000103471,-3.20068,-0.189209,-0.311824,-7.66366,0.164246,
2,1,0,1,0,36539.6,0.172091,0.171814,0.585845,19,0.0136023,10,0.000100656,-3.23222,-0.367232,-0.160661,-3.68047,0.171814,
2,1,0,1,0,36540.3,0.179582,0.17923,0.562977,19,0.0140428,10,0.000100902,-3.24951,-0.580774,-0.101589,-2.23829,0.17923,
2,1,0,1,0,36541.1,0.187074,0.186757,0.55078,19,0.0144698,10,0.000102862,-3.25902,-1.20309,-0.0490404,-1.05218,0.186757,
2,1,0,1,0,36541.8,0.194564,0.194274,0.539497,19,0.014888,10,0.00010481,-3.26801,-1.50494,-0.0392043,-0.826703,0.1942741,
2,1,0,1,0,36542.6,0.202056,0.201773,0.532498,19,0.0152997,10,0.000107444,-3.27368,-1.06882,-0.055201,-1.14277,0.201773,
2,1,0,1,0,36543.3,0.209546,0.209222,0.526025,19,0.0157063,10,0.000110056,-3.27899,-0.830454,-0.0710455,-1.46,0.2092216,
2,1,0,1,0,36544.1,0.217038,0.216692,0.519142,19,0.0161083,10,0.000112494,-3.28471,-6.53727,-0.00902518,-0.183695,0.216692,
2,1,0,1,0,36544.8,0.224528,0.224207,0.515725,19,0.0165072,10,0.000115629,-3.28758,-1.94202,-0.0303807,-0.611876,0.224207,
2,1,0,1,0,36545.6,0.232019,0.231721,0.512826,19,0.0169024,10,0.000118833,-3.29003,-3.62834,-0.0162609,-0.324671,0.231721,
2,1,0,1,0,36546.3,0.23951,0.239231,0.507392,19,0.0172948,10,0.000121384,-3.29466,-2.53199,-0.0233019,-0.461727,0.239231,
2,1,0,1,0,36547.1,0.247001,0.246729,0.504913,19,0.0176843,10,0.000124577,-3.29678,-1.54108,-0.0382848,-0.751968,0.246729,
2,1,0,1,0,36547.8,0.254492,0.254183,0.499409,19,0.018071,10,0.000126941,-3.30154,-2.90585,-0.0203039,-0.396562,0.254183,
2,1,0,1,0,36548.6,0.261983,0.26168,0.496736,19,0.0184546,10,0.000129986,-3.30387,57.8095,0.00102059,0.0198108,0.26168,
2,1,0,1,0,36549.3,0.269474,0.269218,0.492407,19,0.0188356,10,0.000132565,-3.30768,-2.12209,-0.0278028,-0.533942,0.2692183,
2,1,0,1,0,36550.1,0.276965,0.276633,0.488249,19,0.0192136,10,0.000135066,-3.31136,-1.12758,-0.0523245,-0.998591,0.2766327,
2,1,0,1,0,36550.8,0.284456,0.284168,0.485163,19,0.0195884,10,0.000137868,-3.31411,-5.05321,-0.0116758,-0.220501,0.284168,
2,1,0,1,0,36551.6,0.291947,0.291633,0.479572,19,0.01996,10,0.000139859,-3.31915,-1.46545,-0.0402606,-0.754618,0.291633,
2,1,0,1,0,36552.3,0.299437,0.299111,0.476323,19,0.0203285,10,0.000142473,-3.3221,-0.00283828,-20.7872,-199.494,0.299111,
2,0,0,1,0,36553,0.293745,0.293384,-0.0741353,19,0.0203518,10,-2.17501e-05,-4.12997,-0.0142026,-4.15417,10.9943,0.293384,
2,0,0,1,0,36553.7,0.286253,0.285956,-0.130035,19,0.0202631,10,-3.71844e-05,-3.88594,-0.0498868,-1.18268,5.97039,0.285956,
2,0,0,1,0,36554.5,0.278763,0.278415,-0.164755,19,0.0201409,10,-4.58703e-05,-3.78316,-0.0929923,-0.634461,4.1221,0.278415,
2,0,0,1,0,36555.2,0.271272,0.270969,-0.195773,19,0.0199948,10,-5.30486e-05,-3.70825,-0.114277,-0.51629,3.9332,0.270969,
2,0,0,1,0,36556,0.263781,0.263507,-0.218579,19,0.019829,10,-5.75972e-05,-3.66039,-0.176535,-0.334211,2.85114,0.263507,
2,0,0,1,0,36556.7,0.25629,0.255985,-0.238906,19,0.0196469,10,-6.11564e-05,-3.62177,-0.26886,-0.219445,2.042,0.2559855,
2,0,0,1,0,36557.5,0.248799,0.248464,-0.25652,19,0.0194506,10,-6.37361e-05,-3.59088,-0.256681,-0.229858,2.29762,0.248464,
2,0,0,1,0,36558.2,0.241308,0.241045,-0.273045,19,0.0192414,10,-6.58164e-05,-3.56377,-0.363969,-0.162102,1.73413,0.241045,
2,0,0,1,0,36559,0.233817,0.233499,-0.289759,19,0.0190202,10,-6.76583e-05,-3.53796,-0.338006,-0.174553,1.96426,0.233499,
2,0,0,1,0,36559.7,0.226326,0.226003,-0.303342,19,0.0187877,10,-6.85561e-05,-3.51807,-0.343011,-0.172006,2.04197,0.226003,
2,0,0,1,0,36560.5,0.218835,0.218539,-0.319576,19,0.0185436,10,-6.98399e-05,-3.49543,-0.29966,-0.19689,2.45476,0.218539,
2,0,0,1,0,36561.2,0.211344,0.211077,-0.335277,19,0.0182886,10,-7.07693e-05,-3.4746,-0.423438,-0.139336,1.81057,0.211077,
2,0,0,1,0,36562,0.203854,0.203526,-0.347587,19,0.018022,10,-7.07429e-05,-3.45894,-0.354205,-0.16657,2.26994,0.203526,
2,0,0,1,0,36562.7,0.196362,0.196036,-0.365629,19,0.0177441,10,-7.16767e-05,-3.43696,-0.402852,-0.146456,2.07881,0.196036,
2,0,0,1,0,36563.5,0.188872,0.18852,-0.38232,19,0.0174538,10,-7.20748e-05,-3.41757,-0.281891,-0.209301,3.11809,0.18852,
2,0,0,1,0,36564.2,0.18138,0.181042,-0.401456,19,0.01715,10,-7.26806e-05,-3.39636,-0.35275,-0.167257,2.61863,0.181042,
2,0,0,1,0,36565,0.17389,0.173576,-0.423122,19,0.0168307,10,-7.3444e-05,-3.37353,-0.266871,-0.22108,3.65982,0.173576,
2,0,0,1,0,36565.7,0.166398,0.166098,-0.45301,19,0.0164918,10,-7.52441e-05,-3.34389,-0.26107,-0.225993,4.0051,0.166098,
2,0,0,1,0,36566.5,0.158907,0.158532,-0.493402,19,0.0161266,10,-7.82199e-05,-3.3068,-0.173517,-0.340024,6.56102,0.158532,
2,0,0,1,0,36567.2,0.151417,0.151077,-0.558359,19,0.0157226,10,-8.43554e-05,-3.25309,-0.117551,-0.50191,10.9779,0.151077,
2,0,0,1,0,36568,0.143925,0.143615,-0.66845,19,0.0152544,10,-9.59993e-05,-3.17493,-0.078161,-0.754852,19.7359,0.143615,
2,0,0,1,0,36568.7,0.136435,0.136165,-0.832904,19,0.0146828,10,-0.000113412,-3.07941,-0.0785154,-0.751445,24.3915,0.136165,
2,0,0,1,0,36569.5,0.128943,0.128625,-1.00848,19,0.0139808,10,-0.000129715,-2.99633,-0.112826,-0.522927,20.4818,0.1286245,
2,0,0,1,0,36570.2,0.121453,0.121159,-1.13598,19,0.0131627,10,-0.000137634,-2.94463,-0.225497,-0.261644,11.5553,0.121159,
2,0,0,1,0,36571,0.113962,0.113632,-1.18711,19,0.0122755,10,-0.000134894,-2.92551,-1.16847,-0.0504936,2.33919,0.113632,
2,0,0,1,0,36571.7,0.106471,0.10616,-1.18202,19,0.0113725,10,-0.000125483,-2.92737,0.970192,0.0608127,-2.80867,0.10616,
2,0,0,1,0,36572.5,0.0989798,0.098653,-1.15276,19,0.0104859,10,-0.000113723,-2.93826,0.686948,0.0858872,-3.85462,0.098653,
2,0,0,1,0,36573.2,0.0914889,0.0911549,-1.11778,19,0.00962507,10,-0.000101891,-2.95164,0.681896,0.0865235,-3.76852,0.0911549,
2,0,0,1,0,36574,0.083998,0.0836599,-1.08309,19,0.00879024,10,-9.06111e-05,-2.96534,0.461814,0.127757,-5.39119,0.0836599,
2,0,0,1,0,36574.7,0.076507,0.0761576,-1.04901,19,0.00798035,10,-7.98901e-05,-2.97922,0.562822,0.104829,-4.29309,0.0761576,
2,0,0,1,0,36575.5,0.069016,0.0687474,-1.01583,19,0.0071956,10,-6.9836e-05,-2.99318,0.534614,0.11036,-4.38504,0.0687474,
2,0,0,1,0,36576.2,0.0615251,0.0611793,-0.986605,19,0.00643367,10,-6.03598e-05,-3.00586,0.52898,0.111535,-4.29254,0.06117931,
2,0,0,1,0,36577,0.0540342,0.0537162,-0.955843,19,0.00569553,10,-5.13442e-05,-3.01961,0.586228,0.100643,-3.74953,0.0537162,
2,0,0,1,0,36577.7,0.0465441,0.0462198,-0.919832,19,0.00498155,10,-4.25144e-05,-3.03629,0.487919,0.120922,-4.34782,0.0462198,
2,0,0,1,0,36578.5,0.0390523,0.0386966,-0.887178,19,0.0042933,10,-3.43308e-05,-3.05199,0.363856,0.162152,-5.60899,0.0386966,
2,0,0,1,0,36579.2,0.0315618,0.0311817,-0.852589,19,0.00363087,10,-2.65852e-05,-3.06926,0.43877,0.134467,-4.46941,0.0311817,
2,0,0,1,0,36580,0.0240704,0.0237883,-0.819635,19,0.00299337,10,-1.94977e-05,-3.08638,0.415866,0.141872,-4.54578,0.0237883,
2,0,0,1,0,36580.7,0.0165796,0.0162967,-0.794036,19,0.0023776,10,-1.29402e-05,-3.10016,0.846162,0.0697266,-2.1632,0.0162967,
2,0,0,1,0,36581.5,0.00908846,0.00872525,-0.779141,19,0.00177728,10,-6.7982e-06,-3.10838,1.63479,0.0360903,-1.09776,0.00872525,
2,0,0,1,0,36582.2,0.00159728,0.0012288,-0.786001,19,0.0011832,10,-9.6584e-07,-3.10458, , , ,0.0012288,
2,0,0,1,0,36582.3,0.000199195,-0.000147811,-0.77786,19,0.00107187,10,1.14977e-07,-3.1091, , , ,-0.000147811,