File: Figure_codes/Fig_3-5/rawdata_trumpetplot_data/after 10th/20221101_1-115_003_TrumpetPlot_ParaChange_from10_every3_12_CV_C01_33.csv
mode,ox/red,error,control changes,counter inc.,time/s,control/V,Ewe/V,<I>/mA,cycle number,(Q-Qo)/C,I Range,P/W,log(|I|),Tafel slope mV/dec,alpha_eff,dI/d(E-IR),E-IR/V,
2,1,0,1,0,66210.8,2.44065e-05,-0.000363498,13.8074,34,0.0000000E+000,10,-5.01898e-06,-1.85989, , , ,-0.000363498,
2,1,0,1,0,66210.8,0.0104008,0.0100698,16.7862,34,0.000266267,10,0.000169035,-1.77505,0.181616,0.32486,211.832,0.0100698,
2,1,0,1,0,66210.9,0.0212099,0.0208521,18.7947,34,0.000587432,10,0.000391908,-1.72596,0.263474,0.223931,163.817,0.0208521,
2,1,0,1,0,66210.9,0.0320052,0.0316385,20.4166,34,0.000940874,10,0.000645951,-1.69002,0.334507,0.176379,140.364,0.0316385,
2,1,0,1,0,66210.9,0.0428033,0.042443,21.8396,34,0.00132167,10,0.000926938,-1.66076,0.402631,0.146536,124.849,0.042443,
2,1,0,1,0,66210.9,0.0535986,0.0532602,23.1477,34,0.00172684,10,0.00123285,-1.63549,0.460544,0.128109,115.664,0.0532602,
2,1,0,1,0,66210.9,0.0644077,0.0640795,24.3868,34,0.00215481,10,0.0015627,-1.61284,0.494162,0.119394,113.572,0.0640795,
2,1,0,1,0,66210.9,0.075203,0.0748607,25.6124,34,0.00260487,10,0.00191736,-1.59155,0.518029,0.113893,113.812,0.0748607,
2,1,0,1,0,66211,0.0860011,0.0856599,26.8332,34,0.00307691,10,0.00229853,-1.57133,0.545639,0.10813,113.229,0.0856599,
2,1,0,1,0,66211,0.0968075,0.0964527,28.0768,34,0.00357118,10,0.00270808,-1.55165,0.561635,0.10505,115.066,0.0964527,
2,1,0,1,0,66211,0.107606,0.107268,29.3257,34,0.00408788,10,0.0031457,-1.53275,0.568269,0.103824,118.831,0.107268,
2,1,0,1,0,66211,0.118401,0.118075,30.6161,34,0.00462741,10,0.00361501,-1.51405,0.580469,0.101642,121.473,0.118075,
2,1,0,1,0,66211,0.129207,0.12881,31.9477,34,0.00519064,10,0.00411518,-1.49556,0.569267,0.103642,129.339,0.12881,
2,1,0,1,0,66211.1,0.140005,0.139656,33.4592,34,0.00577924,10,0.00467277,-1.47548,0.537567,0.109754,143.322,0.139656,
2,1,0,1,0,66211.1,0.150803,0.150494,35.0035,34,0.00639564,10,0.00526783,-1.45589,0.575599,0.102502,139.992,0.150494,
2,1,0,1,0,66211.1,0.161604,0.161223,36.4813,34,0.00703932,10,0.00588164,-1.43793,0.646697,0.0912328,129.833,0.161223,
2,1,0,1,0,66211.1,0.172405,0.172077,37.8016,34,0.00770837,10,0.00650477,-1.42249,0.787514,0.0749193,110.416,0.172077,
2,1,0,1,0,66211.1,0.183203,0.182849,38.8088,34,0.00839857,10,0.00709616,-1.41107,1.2438,0.0474354,71.7428,0.182849,
2,1,0,1,0,66211.1,0.194001,0.193616,39.2935,34,0.00910237,10,0.00760783,-1.40568,5.29936,0.0111334,17.0462,0.1936156,
2,1,0,1,0,66211.2,0.204808,0.204447,39.1701,34,0.00980949,10,0.0080082,-1.40705,-2.24501,-0.0262806,-40.1062,0.2044466,
2,1,0,1,0,66211.2,0.215603,0.215271,38.4091,34,0.0105086,10,0.00826838,-1.41557,-0.915563,-0.0644412,-96.457,0.2152712,
2,1,0,1,0,66211.2,0.226401,0.226053,37.0633,34,0.0111885,10,0.00837828,-1.43106,-0.582515,-0.101285,-146.363,0.226053,
2,1,0,1,0,66211.2,0.237207,0.236876,35.3081,34,0.0118402,10,0.00836364,-1.45213,-0.462828,-0.127477,-175.518,0.236876,
2,1,0,1,0,66211.2,0.248005,0.2477,33.3417,34,0.012458,10,0.00825873,-1.47701,-0.419662,-0.140589,-182.903,0.2477,
2,1,0,1,0,66211.3,0.258801,0.258471,31.3712,34,0.0130401,10,0.00810855,-1.50347,-0.404812,-0.145747,-178.538,0.258471,
2,1,0,1,0,66211.3,0.26961,0.269296,29.5558,34,0.0135881,10,0.00795924,-1.52936,-0.420816,-0.140204,-161.757,0.269296,
2,1,0,1,0,66211.3,0.280405,0.280069,27.9161,34,0.0141048,10,0.00781845,-1.55415,-0.453313,-0.130153,-141.845,0.280069,
2,1,0,1,0,66211.3,0.291203,0.290905,26.4894,34,0.0145939,10,0.00770589,-1.57693,-0.492056,-0.119905,-124.006,0.290905,
2,1,0,0,0,66211.3,0.300012,0.299861,25.4608,34,0.0149756,10,0.00763471,-1.59413,0.00268788,21.9504,19937.6,0.299861,
2,1,0,1,0,66211.3,0.290843,0.290578,15.4215,34,0.0152763,10,0.00448115,-1.81187,0.0449698,1.31199,795.312,0.290578,
2,1,0,1,0,66211.4,0.280047,0.279803,8.50114,34,0.015487,10,0.00237865,-2.07052,0.0361765,1.63089,536.304,0.279803,
2,1,0,1,0,66211.4,0.269244,0.268962,3.54998,34,0.0155928,10,0.000954809,-2.44977,0.0192784,3.06041,396.489,0.268962,
2,0,0,1,0,66211.4,0.258443,0.258137,-0.177803,34,0.0156213,10,-4.58974e-05,-3.75006,-0.160333,-0.367984,304.468,0.258137,
2,0,0,1,0,66211.4,0.247645,0.247341,-3.09207,34,0.0155905,10,-0.000764795,-2.50975,-0.0275957,-2.13802,241.675,0.2473411,
2,0,0,1,0,66211.4,0.236849,0.2365,-5.43563,34,0.0155126,10,-0.00128552,-2.26475,-0.0625797,-0.942797,196.866,0.2364995,
2,0,0,1,0,66211.4,0.22604,0.225757,-7.36931,34,0.0153966,10,-0.00166367,-2.13257,-0.103562,-0.569708,162.626,0.225757,
2,0,0,1,0,66211.5,0.215245,0.21493,-8.98027,34,0.0152488,10,-0.00193013,-2.04671,-0.149233,-0.395356,138.114,0.21493,
2,0,0,1,0,66211.5,0.204447,0.204095,-10.3898,34,0.0150741,10,-0.00212049,-1.98339,-0.197389,-0.298902,120.692,0.204095,
2,0,0,1,0,66211.5,0.19364,0.193299,-11.6101,34,0.014876,10,-0.00224421,-1.93517,-0.247446,-0.238436,107.704,0.193299,
2,0,0,1,0,66211.5,0.182842,0.182591,-12.7064,34,0.014657,10,-0.00232006,-1.89598,-0.296,-0.199324,98.6935,0.182591,
2,0,0,1,0,66211.5,0.172047,0.171742,-13.744,34,0.0144188,10,-0.00236042,-1.86189,-0.328422,-0.179647,96.3265,0.171742,
2,0,0,1,0,66211.6,0.161241,0.160946,-14.7825,34,0.014162,10,-0.00237917,-1.83025,-0.348197,-0.169444,97.73,0.160946,
2,0,0,1,0,66211.6,0.150443,0.150117,-15.884,34,0.0138861,10,-0.00238445,-1.79904,-0.334717,-0.176268,109.354,0.150117,
2,0,0,1,0,66211.6,0.139645,0.139381,-17.1882,34,0.0135887,10,-0.0023957,-1.76477,-0.289527,-0.203781,137.099,0.139381,
2,0,0,1,0,66211.6,0.128849,0.128498,-18.9133,34,0.0132642,10,-0.00243033,-1.72323,-0.238546,-0.247332,183.005,0.128498,
2,0,0,1,0,66211.6,0.118043,0.11776,-21.1493,34,0.0129042,10,-0.00249055,-1.6747,-0.211465,-0.279005,230.614,0.11776,
2,0,0,1,0,66211.6,0.107245,0.106974,-23.7933,34,0.0124996,10,-0.00254526,-1.62355,-0.216784,-0.27216,252.663,0.106974,
2,0,0,1,0,66211.7,0.0964468,0.0961876,-26.5235,34,0.0120464,10,-0.00255123,-1.57637,-0.247214,-0.238659,246.664,0.0961876,
2,0,0,1,0,66211.7,0.0856404,0.085381,-29.0658,34,0.0115456,10,-0.00248167,-1.53662,-0.294199,-0.200544,227.272,0.085381,
2,0,0,1,0,66211.7,0.0748451,0.0745447,-31.3684,34,0.0110009,10,-0.00233835,-1.50351,-0.36978,-0.159554,194.984,0.0745447,
2,0,0,1,0,66211.7,0.0640471,0.0637444,-33.2464,34,0.0104185,10,-0.00211927,-1.47826,-0.496878,-0.118741,153.829,0.0637444,
2,0,0,1,0,66211.7,0.0532407,0.0529675,-34.7114,34,0.00980632,10,-0.00183858,-1.45953,-0.664854,-0.0887413,120.073,0.0529675,
2,0,0,1,0,66211.8,0.0424426,0.042163,-35.8128,34,0.00917092,10,-0.00150998,-1.44596,-0.951441,-0.0620112,86.5874,0.04216304,
2,0,0,1,0,66211.8,0.0316473,0.0313321,-36.5781,34,0.00851881,10,-0.00114607,-1.43678,-1.43004,-0.0412576,58.8651,0.0313321,
2,0,0,1,0,66211.8,0.0208437,0.020571,-37.0769,34,0.00785545,10,-0.00076271,-1.4309,-2.50839,-0.0235211,34.0185,0.020571,
2,0,0,1,0,66211.8,0.0100429,0.00974217,-37.3338,34,0.00718531,10,-0.000363713,-1.4279,-5.80616,-0.0101616,14.8008,0.00974217,
2,0,0,1,0,66211.8,-0.000755208,-0.00113866,-37.4245,34,0.00651217,10,4.26136e-05,-1.42684,30.9528,0.00190613,-2.78121,-0.00113866,
2,0,0,1,0,66211.8,-0.0115505,-0.0119516,-37.2502,34,0.00583983,10,0.0004452,-1.42887,3.34916,0.0176163,-25.5961,-0.0119516,
2,0,0,1,0,66211.9,-0.0223597,-0.0227073,-36.8952,34,0.00517236,10,0.000837792,-1.43303,2.05921,0.0286517,-41.2274,-0.0227073,
2,0,0,1,0,66211.9,-0.033155,-0.0335108,-36.3978,34,0.00451268,10,0.00121972,-1.43892,1.77956,0.0331543,-47.0911,-0.0335108,
2,0,0,1,0,66211.9,-0.043953,-0.0443407,-35.8661,34,0.00386241,10,0.00159033,-1.44532,1.67092,0.03531,-49.417,-0.0443407,
2,0,0,1,0,66211.9,-0.0547594,-0.0551399,-35.359,34,0.00322167,10,0.00194969,-1.4515,1.86166,0.0316921,-43.7292,-0.0551399,
2,0,0,1,0,66211.9,-0.0655575,-0.0659528,-34.9274,34,0.00258934,10,0.00230356,-1.45683,2.56021,0.023045,-31.4269,-0.0659528,
2,0,0,1,0,66212,-0.0763528,-0.0767086,-34.6347,34,0.00196345,10,0.00265678,-1.46049,3.95282,0.0149261,-20.1865,-0.0767086,
2,0,0,1,0,66212,-0.0871592,-0.0875396,-34.488,34,0.00134159,10,0.00301907,-1.46233,8.71611,0.00676907,-9.11411,-0.0875396,
2,0,0,1,0,66212,-0.0979573,-0.0983133,-34.4651,34,0.000721209,10,0.00338838,-1.46262,12.3033,0.00479548,-6.44382,-0.0983133,
2,0,0,1,1,66212,-0.0955546,-0.0959921,-27.4386,34,0.000372079,10,0.00263389,-1.56164,-0.0499957,-1.1801,1285.02,-0.0959921,
2,0,0,1,1,66212,-0.0847538,-0.085142,-17.2826,34,-2.27016e-05,10,0.00147147,-1.76239,-0.05145,-1.14674,773.409,-0.085142,
2,0,0,1,1,66212,-0.0739557,-0.0743576,-10.0165,34,-0.000264953,10,0.000744804,-1.99928,-0.0385338,-1.53112,590.836,-0.0743576,
2,0,0,1,1,66212.1,-0.0631604,-0.0635754,-4.24371,34,-0.000390962,10,0.000269795,-2.37225,-0.0185197,-3.1858,483.236,-0.0635754,
2,1,0,1,1,66212.1,-0.0523512,-0.0527423,0.534553,34,-0.00042258,10,-2.81936e-05,-3.27201,0.0468618,1.25902,404.057,-0.0527423,
2,1,0,1,1,66212.1,-0.0415559,-0.0419749,4.53852,34,-0.000375626,10,-0.000190504,-2.34309,0.0286336,2.06052,343.243,-0.0419749,
2,1,0,1,1,66212.1,-0.0307579,-0.0311779,7.95712,34,-0.000262068,10,-0.000248086,-2.09924,0.0615059,0.959258,292.839,-0.0311779,
2,1,0,1,1,66212.1,-0.0199515,-0.0203755,10.8866,34,-9.15045e-05,10,-0.00022182,-1.96311,0.0990855,0.595445,250.892,-0.0203755,
2,1,0,1,1,66212.1,-0.0091534,-0.00955405,13.3818,34,0.000127736,10,-0.00012785,-1.87349,0.143535,0.411051,213.619,-0.00955405,
2,1,0,0,1,66212.2,-7.54729e-05,-0.000363498,15.138,34,0.000343867,10,-5.50264e-06,-1.81993, , , ,-0.000363498,