File: Figure_codes/Fig_3-5/rawdata_trumpetplot_data/after 10th/20221101_1-115_003_TrumpetPlot_ParaChange_from10_every3_09_CV_C01_22.csv
mode,ox/red,error,control changes,counter inc.,time/s,control/V,Ewe/V,<I>/mA,cycle number,(Q-Qo)/C,I Range,P/W,log(|I|),Tafel slope mV/dec,alpha_eff,dI/d(E-IR),E-IR/V,
2,0,0,0,0,44525.4,2.44065e-05,-0.000382585,-5.27415,23,0.0000000E+000,10,2.01781e-06,-2.27785, , , ,-0.000382585,
2,1,0,1,0,44525.5,0.00978761,0.00949597,1.15563,23,-0.000108058,10,1.09738e-05,-2.93718,0.00785704,7.50919,286.773,0.00949597,
2,1,0,1,0,44525.6,0.0197755,0.0194052,2.94626,23,0.000111552,10,5.71727e-05,-2.53073,0.0599698,0.983828,112.364,0.0194052,
2,1,0,1,0,44525.7,0.0297635,0.0294604,3.81399,23,0.000453814,10,0.000112362,-2.41862,0.127831,0.461546,68.528,0.0294604,
2,1,0,1,0,44525.8,0.0397514,0.0394796,4.42453,23,0.000867242,10,0.000174679,-2.35413,0.166686,0.353959,61.1249,0.0394796,
2,1,0,1,0,44525.9,0.0497484,0.0494557,4.97407,23,0.00133765,10,0.000245996,-2.30329,0.223528,0.263949,51.0891,0.0494557,
2,1,0,1,0,44526,0.0597273,0.0593525,5.4623,23,0.00185915,10,0.000324201,-2.26262,0.26027,0.226688,48.2844,0.05935248,
2,1,0,1,0,44526.1,0.0697152,0.069384,5.91451,23,0.00242896,10,0.000410373,-2.22808,0.33326,0.177039,40.889,0.069384,
2,1,0,1,0,44526.2,0.0797031,0.0793582,6.32652,23,0.00304197,10,0.000502061,-2.19884,0.399255,0.147775,36.4672,0.07935816,
2,1,0,1,0,44526.3,0.0896911,0.0893415,6.66504,23,0.00369231,10,0.000595465,-2.1762,0.456907,0.129129,33.6254,0.0893415,
2,1,0,1,0,44526.4,0.099679,0.0993686,7.04196,23,0.00437642,10,0.00069975,-2.15231,0.386769,0.152546,41.9023,0.0993686,
2,1,0,1,0,44526.5,0.109667,0.109348,7.57573,23,0.00510519,10,0.00082839,-2.12058,0.271607,0.217225,64.2627,0.1093478,
2,1,0,1,0,44526.6,0.119655,0.119257,8.28384,23,0.00589778,10,0.000987907,-2.08177,0.28928,0.203955,65.8838,0.119257,
2,1,0,1,0,44526.7,0.129643,0.129304,8.91085,23,0.00675916,10,0.00115221,-2.05008,0.384282,0.153533,53.3645,0.129304,
2,1,0,1,0,44526.8,0.139631,0.139325,9.31641,23,0.0076729,10,0.00129801,-2.03075,0.727383,0.0811127,29.5032,0.139325,
2,1,0,1,0,44526.9,0.149619,0.149275,9.38107,23,0.00861156,10,0.00140036,-2.02775,-0.784179,-0.0752379,-27.4762,0.149275,
2,1,0,1,0,44527,0.159607,0.159295,8.53452,23,0.00951655,10,0.00135951,-2.06882,-0.137916,-0.427797,-142.253,0.159295,
2,1,0,1,0,44527.1,0.169595,0.169248,6.93306,23,0.0102912,10,0.0011734,-2.15908,-0.102638,-0.574833,-155.562,0.169248,
2,1,0,1,0,44527.2,0.179582,0.179304,5.64742,23,0.0109152,10,0.0010126,-2.24815,-0.134038,-0.440175,-97.2092,0.179304,
2,1,0,1,0,44527.3,0.18957,0.189212,4.90714,23,0.0114397,10,0.000928491,-2.30917,-0.207858,-0.283848,-54.4436,0.189212,
2,1,0,1,0,44527.4,0.199558,0.199238,4.48705,23,0.011907,10,0.000893993,-2.34804,-0.324797,-0.181652,-31.7676,0.199238,
2,1,0,1,0,44527.5,0.209546,0.20923,4.22892,23,0.0123416,10,0.000884817,-2.37377,-0.406682,-0.145077,-23.9408,0.20923,
2,1,0,1,0,44527.6,0.219534,0.219217,4.05445,23,0.0127552,10,0.000888804,-2.39207,-0.697691,-0.0845647,-13.382,0.219217,
2,1,0,1,0,44527.7,0.229522,0.229243,3.93467,23,0.0131551,10,0.000901995,-2.40509,-0.907805,-0.0649919,-9.99674,0.229243,
2,1,0,1,0,44527.8,0.23951,0.23922,3.86239,23,0.0135453,10,0.000923959,-2.41314,-1.62019,-0.0364154,-5.48939,0.23922,
2,1,0,1,0,44527.9,0.249498,0.249162,3.79752,23,0.0139281,10,0.000946197,-2.4205,-1.5919,-0.0370626,-5.49514,0.249162,
2,1,0,1,0,44528,0.259486,0.259197,3.74827,23,0.0143056,10,0.00097154,-2.42617,-1.41181,-0.0417904,-6.11226,0.259197,
2,1,0,1,0,44528.1,0.269474,0.269179,3.70312,23,0.0146783,10,0.000996802,-2.43143,-2.24819,-0.0262433,-3.79187,0.269179,
2,1,0,1,0,44528.2,0.279462,0.279195,3.65761,23,0.0150468,10,0.00102119,-2.4368,-2.69924,-0.021858,-3.12304,0.279195,
2,1,0,1,0,44528.3,0.28945,0.289133,3.61663,23,0.0154108,10,0.00104569,-2.4417,-2.62651,-0.0224633,-3.1723,0.289133,
2,1,0,1,0,44528.4,0.299438,0.299142,3.57718,23,0.0157705,10,0.00107008,-2.44646,-0.0332102,-1.77656,-230.668,0.299142,
2,0,0,1,0,44528.5,0.291747,0.291445,-0.638023,23,0.0158477,10,-0.000185948,-3.19516,-0.00697127,-8.4633,170.781,0.291445,
2,0,0,1,0,44528.6,0.281759,0.281424,-1.55896,23,0.0157288,10,-0.000438728,-2.80717,-0.0684958,-0.861367,52.0578,0.281424,
2,0,0,1,0,44528.7,0.271771,0.271415,-1.94251,23,0.0155524,10,-0.000527227,-2.71164,-0.136465,-0.432346,32.6924,0.271415,
2,0,0,1,0,44528.8,0.261783,0.261449,-2.19273,23,0.0153456,10,-0.000573286,-2.65902,-0.251452,-0.234637,20.0235,0.261449,
2,0,0,1,0,44528.9,0.251795,0.251489,-2.37625,23,0.0151175,10,-0.000597601,-2.62411,-0.319027,-0.184937,17.1426,0.251489,
2,0,0,1,0,44529,0.241807,0.241431,-2.52655,23,0.0148724,10,-0.000609989,-2.59747,-0.371126,-0.158975,15.7287,0.241431,
2,0,0,1,0,44529.1,0.231815,0.231474,-2.67222,23,0.0146127,10,-0.000618549,-2.57313,-0.408115,-0.144567,15.065,0.231474,
2,0,0,1,0,44529.2,0.221831,0.221498,-2.80069,23,0.0143401,10,-0.000620346,-2.55274,-0.478373,-0.123335,13.4512,0.221498,
2,0,0,1,0,44529.3,0.211843,0.211501,-2.91883,23,0.0140547,10,-0.000617334,-2.53479,-0.619328,-0.0952646,10.8565,0.211501,
2,0,0,1,0,44529.4,0.201856,0.201514,-3.04464,23,0.0137569,10,-0.000613538,-2.51646,-0.626229,-0.0942148,11.2082,0.201514,
2,0,0,1,0,44529.5,0.191868,0.191516,-3.17674,23,0.0134464,10,-0.000608398,-2.49802,-0.51745,-0.114021,14.1553,0.1915163,
2,0,0,1,0,44529.6,0.18188,0.181539,-3.33154,23,0.0131226,10,-0.000604804,-2.47735,-0.419396,-0.140679,18.2517,0.181539,
2,0,0,1,0,44529.7,0.171892,0.17152,-3.5017,23,0.0127822,10,-0.000600612,-2.45572,-0.392714,-0.150236,20.5511,0.17152,
2,0,0,1,0,44529.8,0.161904,0.161552,-3.74525,23,0.0124213,10,-0.000605051,-2.42652,-0.296157,-0.199219,29.1347,0.1615517,
2,0,0,1,0,44529.9,0.151916,0.151585,-4.11533,23,0.0120302,10,-0.00062382,-2.3856,-0.198563,-0.297135,47.8832,0.151585,
2,0,0,1,0,44530,0.141928,0.141602,-4.80169,23,0.0115883,10,-0.000679929,-2.31861,-0.119155,-0.495152,92.9594,0.141602,
2,0,0,1,0,44530.1,0.13194,0.1316,-5.94234,23,0.011056,10,-0.00078201,-2.22604,-0.102587,-0.575124,133.302,0.1316,
2,0,0,1,0,44530.2,0.121952,0.121583,-7.26903,23,0.0103961,10,-0.000883793,-2.13852,-0.134547,-0.438509,124.276,0.121583,
2,0,0,1,0,44530.3,0.111964,0.111632,-8.40256,23,0.00961106,10,-0.000937992,-2.07559,-0.201458,-0.292865,95.9326,0.111632,
2,0,0,1,0,44530.4,0.101976,0.101611,-9.1668,23,0.00873028,10,-0.000931447,-2.03778,-0.406782,-0.145041,51.7969,0.101611,
2,0,0,1,0,44530.5,0.0919883,0.0917025,-9.42657,23,0.00779762,10,-0.00086444,-2.02565,-6.36819,-0.0092648,3.40597,0.0917025,
2,0,0,1,0,44530.6,0.0820004,0.081675,-9.22806,23,0.00686386,10,-0.000753702,-2.03489,0.625151,0.0943772,-33.9807,0.08167503,
2,0,0,1,0,44530.7,0.0720124,0.0717106,-8.88094,23,0.00595968,10,-0.000636858,-2.05154,0.636096,0.0927534,-32.1686,0.0717106,
2,0,0,1,0,44530.8,0.0620245,0.0617043,-8.60689,23,0.00508676,10,-0.000531082,-2.06515,0.766373,0.076986,-25.8809,0.0617043,
2,0,0,1,0,44530.9,0.0520366,0.0517089,-8.37272,23,0.00423868,10,-0.000432944,-2.07713,0.758038,0.0778325,-25.4205,0.0517089,
2,0,0,1,0,44531,0.0420486,0.041729,-8.10507,23,0.00341537,10,-0.000338216,-2.09124,0.693132,0.0851209,-26.9455,0.041729,
2,0,0,1,0,44531.1,0.0320607,0.0316729,-7.80454,23,0.00262108,10,-0.000247192,-2.10765,0.519928,0.113477,-34.5242,0.0316729,
2,0,0,1,0,44531.2,0.0220728,0.0217526,-7.42794,23,0.00186029,10,-0.000161577,-2.12913,0.434352,0.135835,-39.3671,0.0217526,
2,0,0,1,0,44531.3,0.0120848,0.0117557,-7.05372,23,0.00113771,10,-8.29214e-05,-2.15158,0.449181,0.13135,-36.1657,0.0117557,
2,0,0,1,0,44531.4,0.0020969,0.00173524,-6.79059,23,0.000449563,10,-1.17833e-05,-2.16809,0.800952,0.0736623,-19.4349,0.00173524,
2,0,0,1,0,44531.5,-0.00789103,-0.00825735,-6.56331,23,-0.000215642,10,5.41956e-05,-2.18288,1.16066,0.0508333,-13.045,-0.00825735,
2,0,0,1,0,44531.6,-0.017879,-0.0182541,-6.52161,23,-0.000867704,10,0.000119046,-2.18565,-7.61023,-0.00775272,1.9723,-0.0182541,
2,0,0,1,0,44531.7,-0.0278669,-0.0282926,-6.57228,23,-0.00152068,10,0.000185947,-2.18228,-1.76702,-0.0333896,8.5774,-0.0282926,
2,0,0,1,0,44531.8,-0.0378548,-0.0382411,-6.72299,23,-0.00218399,10,0.000257094,-2.17244,-0.963033,-0.0612648,16.0623,-0.0382411,
2,0,0,1,0,44531.9,-0.0478428,-0.048225,-6.92523,23,-0.00286516,10,0.000333969,-2.15957,-0.576058,-0.10242,27.7124,-0.048225,
2,0,0,1,0,44532,-0.0578217,-0.0582536,-7.203,23,-0.00356982,10,0.000419601,-2.14249,-0.541957,-0.108865,30.5801,-0.0582536,
2,0,0,1,0,44532.1,-0.0678187,-0.0681712,-7.53508,23,-0.00430522,10,0.000513675,-2.12291,-0.438578,-0.134526,39.5378,-0.0681712,
2,0,0,1,0,44532.2,-0.0778066,-0.0781621,-7.93263,23,-0.00507761,10,0.000620032,-2.10058,-0.428036,-0.137839,42.7135,-0.0781621,
2,0,0,1,0,44532.3,-0.0877945,-0.0881424,-8.41342,23,-0.00589413,10,0.000741578,-2.07503,-0.382002,-0.15445,50.707,-0.0881424,
2,0,0,1,0,44532.4,-0.0977825,-0.0981531,-8.919,23,-0.00676031,10,0.000875428,-2.04968,-0.398105,-0.148202,51.5959,-0.0981531,
2,0,0,1,1,44532.5,-0.0927386,-0.0931105,-2.73168,23,-0.00733559,10,0.000254348,-2.56357,-0.0120019,-4.91589,516.86,-0.0931105,
2,1,0,1,1,44532.6,-0.0827529,-0.0831136,0.81827,23,-0.00740969,10,-6.80093e-05,-3.0871,0.00611752,9.64443,251.539,-0.0831136,
2,1,0,1,1,44532.7,-0.0727627,-0.0731265,2.72644,23,-0.00722415,10,-0.000199375,-2.5644,0.0432739,1.36341,143.14,-0.0731265,
2,1,0,1,1,44532.8,-0.0627748,-0.0631777,3.84779,23,-0.00689132,10,-0.000243095,-2.41479,0.0987816,0.597277,89.3561,-0.0631777,
2,1,0,1,1,44532.9,-0.0527868,-0.0531175,4.52285,23,-0.00647011,10,-0.000240243,-2.34459,0.212448,0.277715,48.9193,-0.0531175,
2,1,0,1,1,44533,-0.0427989,-0.0431929,4.91778,23,-0.00599628,10,-0.000212413,-2.30823,0.361848,0.163052,31.2906,-0.0431929,
2,1,0,1,1,44533.1,-0.0328109,-0.0331781,5.14066,23,-0.00549293,10,-0.000170557,-2.28898,0.800364,0.0737165,14.7736,-0.0331781,
2,1,0,1,1,44533.2,-0.022823,-0.0231944,5.23274,23,-0.00497413,10,-0.00012137,-2.28127,2.38398,0.0247485,5.0478,-0.0231944,
2,1,0,1,1,44533.3,-0.0128351,-0.0131793,5.24547,23,-0.00445014,10,-6.91318e-05,-2.28022,-8.29083,-0.00711629,-1.45751,-0.0131793,
2,1,0,1,1,44533.4,-0.00284713,-0.00319299,5.23746,23,-0.00392589,10,-1.67231e-05,-2.28088,-5.1729,-0.0114056,-2.32912,-0.00319299,
2,1,0,1,1,44533.4,-2.55332e-05,-0.000325324,5.24645,23,-0.00377869,10,-1.70679e-06,-2.28013, , , ,-0.000325324,