File: Figure_codes/Fig_3-5/rawdata_trumpetplot_data/after 10th/20221101_1-115_003_TrumpetPlot_ParaChange_from10_every3_06_CV_C01_31.csv
mode,ox/red,error,control changes,counter inc.,time/s,control/V,Ewe/V,<I>/mA,cycle number,(Q-Qo)/C,I Range,P/W,log(|I|),Tafel slope mV/dec,alpha_eff,dI/d(E-IR),E-IR/V,
2,0,0,0,0,62224.1,2.44065e-05,-0.000401673,-1.41789,32,0.0000000E+000,10,5.69527e-07,-2.84836, , , ,-0.000401673,
2,1,0,1,0,62224.2,0.00729063,0.00695342,0.890453,32,3.01717e-05,10,6.1917e-06,-3.05039,0.0170793,3.45448,111.723,0.00695342,
2,1,0,1,0,62224.4,0.014778,0.0143857,1.37524,32,0.000252069,10,1.97839e-05,-2.86162,0.078376,0.752781,40.0584,0.0143857,
2,1,0,1,0,62224.6,0.0222743,0.021929,1.60489,32,0.000535477,10,3.51936e-05,-2.79455,0.143019,0.412534,25.8377,0.021929,
2,1,0,1,0,62224.8,0.0297626,0.0294144,1.78112,32,0.000855605,10,5.23906e-05,-2.74931,0.189013,0.312148,21.6683,0.0294144,
2,1,0,1,0,62225,0.0372544,0.0369348,1.94624,32,0.00120747,10,7.1884e-05,-2.7108,0.219359,0.268966,20.4113,0.0369348,
2,1,0,1,0,62225.2,0.0447472,0.0443911,2.09745,32,0.00158941,10,9.31084e-05,-2.67831,0.22652,0.260463,21.3965,0.0443911,
2,1,0,1,0,62225.4,0.0522345,0.0518541,2.25793,32,0.00200039,10,0.000117083,-2.64629,0.2564,0.230109,20.2644,0.0518541,
2,1,0,1,0,62225.6,0.0597309,0.0593556,2.40518,32,0.0024399,10,0.000142761,-2.61885,0.278947,0.21151,19.8333,0.0593556,
2,1,0,1,0,62225.7,0.0672182,0.0668782,2.53337,32,0.00290492,10,0.000169428,-2.5963,0.339334,0.17387,17.202,0.0668782,
2,1,0,1,0,62225.9,0.0747074,0.074372,2.65118,32,0.00339312,10,0.000197174,-2.57656,0.454911,0.129696,13.3897,0.074372,
2,1,0,1,0,62226.1,0.0822019,0.0818166,2.74698,32,0.00390185,10,0.000224749,-2.56114,0.533823,0.110524,11.864,0.0818166,
2,1,0,1,0,62226.3,0.0896911,0.0893614,2.83908,32,0.00442741,10,0.000253704,-2.54682,0.481187,0.122614,13.6146,0.0893614,
2,1,0,1,0,62226.5,0.097182,0.0968164,2.96564,32,0.00497284,10,0.000287122,-2.52788,0.317489,0.185833,21.4771,0.0968164,
2,1,0,1,0,62226.7,0.104675,0.104352,3.15264,32,0.00554679,10,0.000328985,-2.50133,0.230276,0.256214,31.5573,0.104352,
2,1,0,1,0,62226.9,0.112162,0.111815,3.40274,32,0.00616269,10,0.000380477,-2.46817,0.231914,0.254405,33.7523,0.111815,
2,1,0,1,0,62227.1,0.119655,0.11933,3.63363,32,0.00682481,10,0.000433603,-2.43966,0.341586,0.172724,24.442,0.11933,
2,1,0,1,0,62227.2,0.127146,0.126784,3.77545,32,0.00752314,10,0.000478664,-2.42303,0.612888,0.0962655,14.212,0.126784,
2,1,0,1,0,62227.4,0.134635,0.134293,3.86679,32,0.0082426,10,0.000519281,-2.41265,1.6909,0.0348927,5.26271,0.134293,
2,1,0,1,0,62227.6,0.14213,0.141826,3.84974,32,0.00897053,10,0.000545994,-2.41457,-0.642648,-0.0918077,-13.7646,0.141826,
2,1,0,1,0,62227.8,0.149619,0.149276,3.57942,32,0.00967384,10,0.000534321,-2.44619,-0.146166,-0.403652,-56.2845,0.149276,
2,1,0,1,0,62228,0.157106,0.156761,3.06172,32,0.0103,10,0.000479959,-2.51403,-0.0960031,-0.614564,-73.2803,0.156761,
2,1,0,1,0,62228.2,0.164602,0.164264,2.55759,32,0.0108267,10,0.00042012,-2.59217,-0.107933,-0.546633,-54.7661,0.164264,
2,1,0,1,0,62228.4,0.172091,0.171723,2.2283,32,0.0112752,10,0.000382651,-2.65203,-0.148871,-0.396316,-34.5637,0.171723,
2,1,0,1,0,62228.5,0.179582,0.179247,2.02934,32,0.0116746,10,0.000363753,-2.69265,-0.231027,-0.255382,-20.2265,0.179247,
2,1,0,1,0,62228.7,0.187074,0.186749,1.90553,32,0.0120447,10,0.000355856,-2.71998,-0.378144,-0.156025,-11.615,0.186749,
2,1,0,1,0,62228.9,0.194563,0.194191,1.83434,32,0.0123967,10,0.000356212,-2.73652,-0.585421,-0.100782,-7.20138,0.194191,
2,1,0,1,0,62229.1,0.202059,0.201711,1.78428,32,0.0127373,10,0.000359907,-2.74854,-0.671182,-0.0879047,-6.09872,0.201711,
2,1,0,1,0,62229.3,0.209546,0.209209,1.74433,32,0.0130699,10,0.000364929,-2.75837,-0.8488,-0.0695099,-4.74865,0.209209,
2,1,0,1,0,62229.5,0.217035,0.21667,1.71912,32,0.0133965,10,0.000372481,-2.76469,-1.11631,-0.0528528,-3.54614,0.21667,
2,1,0,1,0,62229.7,0.22453,0.224201,1.69765,32,0.0137191,10,0.000380613,-2.77015,-1.3971,-0.0422303,-2.79832,0.224201,
2,1,0,1,0,62229.9,0.232019,0.231668,1.68027,32,0.0140377,10,0.000389264,-2.77462,-2.31011,-0.0255399,-1.67712,0.231668,
2,1,0,1,0,62230,0.23951,0.239188,1.66871,32,0.0143538,10,0.000399136,-2.77762,-1.76342,-0.0334577,-2.17605,0.239188,
2,1,0,1,0,62230.2,0.247003,0.246676,1.65601,32,0.0146674,10,0.000408499,-2.78094,-2.68638,-0.0219627,-1.41828,0.246676,
2,1,0,1,0,62230.4,0.25449,0.254144,1.64443,32,0.0149787,10,0.000417922,-2.78398,-3.27445,-0.0180183,-1.15722,0.254144,
2,1,0,1,0,62230.6,0.261983,0.261669,1.63669,32,0.0152881,10,0.000428269,-2.78603,-2.19057,-0.0269336,-1.71629,0.261669,
2,1,0,1,0,62230.8,0.269474,0.269122,1.61842,32,0.0155955,10,0.000435553,-2.79091,-5.34534,-0.0110376,-0.700334,0.269122,
2,1,0,1,0,62231,0.276963,0.276635,1.61383,32,0.0159008,10,0.000446442,-2.79214,-2.16681,-0.0272289,-1.71281,0.276635,
2,1,0,1,0,62231.2,0.284458,0.284156,1.60307,32,0.0162041,10,0.000455523,-2.79505,-2.4224,-0.024356,-1.51938,0.284156,
2,1,0,1,0,62231.4,0.291947,0.291629,1.58566,32,0.0165049,10,0.000462425,-2.79979,-2.04317,-0.0288766,-1.79121,0.291629,
2,1,0,1,0,62231.5,0.299434,0.29911,1.57751,32,0.0168033,10,0.00047185,-2.80203,-0.021545,-2.73845,-150.283,0.29911,
2,0,0,1,0,62231.7,0.294196,0.293864,-0.180007,32,0.0168713,10,-5.28977e-05,-3.74471,-0.00441876,-13.3522,87.1059,0.293864,
2,0,0,1,0,62231.9,0.286701,0.286384,-0.512695,32,0.0167973,10,-0.000146828,-3.29014,-0.0429345,-1.37419,27.3806,0.286384,
2,0,0,1,0,62232.1,0.279212,0.278899,-0.663432,32,0.0166831,10,-0.000185031,-3.1782,-0.103168,-0.571883,14.7224,0.278899,
2,0,0,1,0,62232.3,0.271725,0.271412,-0.761522,32,0.0165465,10,-0.000206686,-3.11832,-0.13814,-0.427102,12.7258,0.271412,
2,0,0,1,0,62232.5,0.264228,0.263854,-0.840248,32,0.0163932,10,-0.000221702,-3.07559,-0.202217,-0.291766,9.55576,0.263854,
2,0,0,1,0,62232.6,0.256741,0.256415,-0.905235,32,0.016227,10,-0.000232116,-3.04324,-0.280614,-0.210253,7.39791,0.256415,
2,0,0,1,0,62232.8,0.249248,0.248904,-0.962307,32,0.0160495,10,-0.000239522,-3.01669,-0.356874,-0.165324,6.20179,0.248904,
2,0,0,1,0,62233,0.241756,0.241423,-1.00947,32,0.0158619,10,-0.000243708,-2.99591,-0.377778,-0.156177,6.16387,0.241423,
2,0,0,1,0,62233.2,0.234268,0.233915,-1.05946,32,0.0156652,10,-0.000247823,-2.97492,-0.366106,-0.161156,6.66958,0.233915,
2,0,0,1,0,62233.4,0.226772,0.226415,-1.10389,32,0.0154594,10,-0.000249937,-2.95707,-0.353008,-0.167135,7.21871,0.226415,
2,0,0,1,0,62233.6,0.219284,0.218955,-1.15025,32,0.0152456,10,-0.000251852,-2.93921,-0.435422,-0.135501,6.06361,0.218955,
2,0,0,1,0,62233.8,0.211796,0.211445,-1.19247,32,0.0150238,10,-0.00025214,-2.92355,-0.54544,-0.10817,5.02157,0.211445,
2,0,0,1,0,62234,0.204301,0.203982,-1.23513,32,0.0147934,10,-0.000251944,-2.90829,-0.695824,-0.0847916,4.09608,0.203982,
2,0,0,1,0,62234.1,0.196812,0.196436,-1.28042,32,0.0145553,10,-0.000251522,-2.89265,-0.514878,-0.11459,5.70587,0.196436,
2,0,0,1,0,62234.3,0.189321,0.188975,-1.32318,32,0.0143086,10,-0.000250048,-2.87838,-0.498534,-0.118347,6.13227,0.188975,
2,0,0,1,0,62234.5,0.181828,0.181478,-1.37391,32,0.0140529,10,-0.000249333,-2.86204,-0.379129,-0.15562,8.35127,0.181478,
2,0,0,1,0,62234.7,0.174341,0.173967,-1.43619,32,0.0137872,10,-0.000249849,-2.84279,-0.347599,-0.169736,9.49707,0.173967,
2,0,0,1,0,62234.9,0.166848,0.166506,-1.50185,32,0.0135095,10,-0.000250067,-2.82337,-0.306794,-0.192311,11.3098,0.1665062,
2,0,0,1,0,62235.1,0.159357,0.158985,-1.59507,32,0.0132166,10,-0.000253593,-2.79722,-0.272665,-0.216383,13.4765,0.158985,
2,0,0,1,0,62235.3,0.151868,0.151516,-1.72657,32,0.0129035,10,-0.000261603,-2.76281,-0.191295,-0.308424,20.8303,0.151516,
2,0,0,1,0,62235.5,0.144373,0.144022,-1.93781,32,0.0125586,10,-0.000279087,-2.71269,-0.122866,-0.480198,36.4817,0.1440222,
2,0,0,1,0,62235.6,0.136884,0.136564,-2.28108,32,0.0121628,10,-0.000311513,-2.64186,-0.0951652,-0.619975,55.1915,0.136564,
2,0,0,1,0,62235.8,0.129393,0.129003,-2.72624,32,0.0116919,10,-0.000351694,-2.56444,-0.0998209,-0.591058,62.7843,0.1290033,
2,0,0,1,0,62236,0.1219,0.121562,-3.16564,32,0.0111365,10,-0.000384823,-2.49954,-0.134309,-0.439287,54.1789,0.121562,
2,0,0,1,0,62236.2,0.114413,0.114082,-3.53934,32,0.010505,10,-0.000403775,-2.45108,-0.18973,-0.310968,42.7844,0.114082,
2,0,0,1,0,62236.4,0.10692,0.106559,-3.7846,32,0.00981446,10,-0.000403284,-2.42198,-0.371129,-0.158974,23.4622,0.1065593,
2,0,0,1,0,62236.6,0.0994284,0.0990813,-3.88206,32,0.00909085,10,-0.000384639,-2.41094,-3.7181,-0.0158683,2.4015,0.0990813,
2,0,0,1,0,62236.8,0.0919401,0.0916144,-3.84112,32,0.0083636,10,-0.000351902,-2.41554,0.912704,0.0646431,-9.67071,0.0916144,
2,0,0,1,0,62236.9,0.0844447,0.0840907,-3.7362,32,0.00765028,10,-0.00031418,-2.42757,0.666236,0.0885572,-12.9333,0.0840907,
2,0,0,1,0,62237.1,0.0769565,0.0766286,-3.65023,32,0.00695633,10,-0.000279712,-2.43768,0.748808,0.0787919,-11.2233,0.0766286,
2,0,0,1,0,62237.3,0.0694682,0.0690668,-3.57648,32,0.00627751,10,-0.000247016,-2.44654,0.869633,0.0678447,-9.46451,0.0690668,
2,0,0,1,0,62237.5,0.0619728,0.0615858,-3.49921,32,0.00561111,10,-0.000215501,-2.45603,0.770007,0.0766227,-10.4794,0.06158575,
2,0,0,1,0,62237.7,0.0544836,0.0541468,-3.42114,32,0.00496017,10,-0.000185244,-2.46583,0.773228,0.0763035,-10.1748,0.0541468,
2,0,0,1,0,62237.9,0.0469927,0.0466454,-3.33054,32,0.00432515,10,-0.000155354,-2.47748,0.650578,0.0906886,-11.7742,0.0466454,
2,0,0,1,0,62238.1,0.0394999,0.0391689,-3.22872,32,0.00370812,10,-0.000126465,-2.49097,0.52198,0.113031,-14.2403,0.0391689,
2,0,0,1,0,62238.3,0.0320125,0.031657,-3.11539,32,0.00311144,10,-9.8624e-05,-2.50649,0.450848,0.130865,-15.9101,0.03165701,
2,0,0,1,0,62238.4,0.0245198,0.0241667,-2.99609,32,0.00253594,10,-7.24057e-05,-2.52344,0.436335,0.135217,-15.8308,0.0241667,
2,0,0,1,0,62238.6,0.0170289,0.0166525,-2.89247,32,0.00198146,10,-4.81668e-05,-2.53873,0.544494,0.108357,-12.2467,0.0166525,
2,0,0,1,0,62238.8,0.0095397,0.00922839,-2.81171,32,0.00144525,10,-2.59476e-05,-2.55103,0.684831,0.0861527,-9.43436,0.00922839,
2,0,0,1,0,62239,0.00204518,0.00168208,-2.77405,32,0.000921974,10,-4.66617e-06,-2.55689,1.75498,0.0336186,-3.616,0.00168208,
2,0,0,1,0,62239.1,0.000177222,-0.000214235,-2.74901,32,0.000792338,10,5.88935e-07,-2.56082, , , ,-0.000214235,