File: Figure_codes/Fig_3-5/rawdata_trumpetplot_data/after 10th/20221101_1-115_003_TrumpetPlot_ParaChange_from10_every3_14_CV_C01_17.csv
mode,ox/red,error,control changes,counter inc.,time/s,control/V,Ewe/V,<I>/mA,cycle number,(Q-Qo)/C,I Range,P/W,log(|I|),Tafel slope mV/dec,alpha_eff,dI/d(E-IR),E-IR/V,
2,1,0,1,0,34691.3,2.44065e-05,-0.000268062,34.9072,18,0.0000000E+000,10,-9.35727e-06,-1.45709, , , ,-0.000268062,
2,1,0,1,0,34691.3,0.0133084,0.0129287,38.6634,18,0.000486362,10,0.000499867,-1.4127,0.4106,0.143692,215.957,0.0129287,
2,1,0,1,0,34691.4,0.0273414,0.0269982,41.3083,18,0.00104714,10,0.00111525,-1.38396,0.559689,0.105416,169.471,0.0269982,
2,1,0,1,0,34691.4,0.0413245,0.0409499,43.4381,18,0.00164096,10,0.00177879,-1.36213,0.703526,0.0838633,142.002,0.0409499,
2,1,0,1,0,34691.4,0.0553076,0.0549378,45.2976,18,0.00226252,10,0.00248855,-1.34393,0.811102,0.0727405,128.56,0.0549378,
2,1,0,1,0,34691.4,0.0693407,0.069003,47.026,18,0.00290907,10,0.00324494,-1.32766,0.901797,0.065425,119.974,0.069003,
2,1,0,1,0,34691.4,0.0833238,0.0829717,48.6703,18,0.00357907,10,0.00403826,-1.31274,0.930743,0.0633902,120.46,0.0829717,
2,1,0,1,0,34691.4,0.0973069,0.0969097,50.3927,18,0.00427279,10,0.00488355,-1.29763,0.923303,0.063901,125.72,0.0969097,
2,1,0,1,0,34691.4,0.11134,0.110952,52.2522,18,0.00499112,10,0.00579747,-1.2819,0.857159,0.0688321,140.411,0.110952,
2,1,0,1,0,34691.4,0.125323,0.124928,54.2494,18,0.00573679,10,0.00677726,-1.2656,0.851219,0.0693124,146.805,0.124928,
2,1,0,1,0,34691.5,0.139306,0.138975,56.3877,18,0.00651125,10,0.00783648,-1.24882,0.791753,0.0745182,164.159,0.138975,
2,1,0,1,0,34691.5,0.153339,0.152981,58.8211,18,0.00731779,10,0.0089985,-1.23047,0.757071,0.0779319,178.972,0.152981,
2,1,0,1,0,34691.5,0.167322,0.166937,61.3974,18,0.00815951,10,0.0102495,-1.21185,0.767165,0.0769065,184.22,0.166937,
2,1,0,1,0,34691.5,0.181305,0.180925,63.8829,18,0.00903709,10,0.011558,-1.19462,0.870621,0.0677677,168.848,0.180925,
2,1,0,1,0,34691.5,0.195338,0.194949,66.0375,18,0.00994744,10,0.0128739,-1.18021,1.21307,0.0486369,125.087,0.194949,
2,1,0,1,0,34691.5,0.209322,0.208971,67.3669,18,0.0108824,10,0.0140777,-1.17155,2.76635,0.0213277,55.8945,0.208971,
2,1,0,1,0,34691.5,0.223305,0.222978,67.5078,18,0.0118279,10,0.0150528,-1.17065,-4.65226,-0.012682,-33.3178,0.222978,
2,1,0,1,0,34691.6,0.237338,0.237027,66.3846,18,0.0127668,10,0.0157349,-1.17793,-1.17612,-0.0501651,-129.575,0.237027,
2,1,0,1,0,34691.6,0.251321,0.251013,63.9747,18,0.0136804,10,0.0160585,-1.19399,-0.696896,-0.0846611,-210.77,0.251013,
2,1,0,1,0,34691.6,0.265304,0.264982,60.5323,18,0.0145526,10,0.01604,-1.21801,-0.52095,-0.113255,-267.116,0.264982,
2,1,0,1,0,34691.6,0.279337,0.279037,56.5428,18,0.0153723,10,0.0157775,-1.24762,-0.440386,-0.133974,-295.443,0.279037,
2,1,0,1,0,34691.6,0.29332,0.292993,52.4496,18,0.0161346,10,0.0153674,-1.28026,-0.425258,-0.138739,-285.203,0.292993,
2,1,0,1,0,34691.6,0.298714,0.298588,47.5803,18,0.0165422,10,0.0142069,-1.32257,0.0491894,1.19945,1979.42,0.298588,
2,1,0,1,0,34691.6,0.28473,0.284509,27.6957,18,0.0170522,10,0.00787967,-1.55759,0.0588356,1.00279,1089.05,0.284509,
2,1,0,1,0,34691.7,0.270747,0.270505,15.2074,18,0.0173462,10,0.00411368,-1.81794,0.0456405,1.29271,753.746,0.270505,
2,1,0,1,0,34691.7,0.256714,0.256451,6.16252,18,0.0174916,10,0.00158038,-2.21024,0.0222167,2.65566,554.671,0.256451,
2,0,0,1,0,34691.7,0.242731,0.242448,-0.602107,18,0.0175278,10,-0.00014598,-3.22033,-0.177885,-0.331675,424.136,0.242448,
2,0,0,1,0,34691.7,0.228748,0.228466,-5.83262,18,0.0174808,10,-0.00133255,-2.23414,-0.0361027,-1.63423,333.759,0.228466,
2,0,0,1,0,34691.7,0.214715,0.214438,-10.0389,18,0.017368,10,-0.00215271,-1.99831,-0.0838883,-0.703316,267.963,0.214438,
2,0,0,1,0,34691.7,0.200732,0.200453,-13.4577,18,0.0172025,10,-0.00269763,-1.87103,-0.135813,-0.43442,225.297,0.200453,
2,0,0,1,0,34691.7,0.186735,0.18649,-16.3696,18,0.016993,10,-0.00305276,-1.78596,-0.190693,-0.309397,196.563,0.18649,
2,0,0,1,0,34691.8,0.172716,0.172384,-18.9942,18,0.0167448,10,-0.00327431,-1.72138,-0.241686,-0.244118,180.421,0.172384,
2,0,0,1,0,34691.8,0.158733,0.158396,-21.5041,18,0.0164612,10,-0.00340618,-1.66748,-0.26737,-0.220668,185.156,0.158396,
2,0,0,1,0,34691.8,0.144719,0.144399,-24.2668,18,0.0161411,10,-0.0035041,-1.61499,-0.258544,-0.228201,216.614,0.144399,
2,0,0,1,0,34691.8,0.130717,0.130398,-27.6257,18,0.0157783,10,-0.00360235,-1.55869,-0.235122,-0.250934,271.667,0.130398,
2,0,0,1,0,34691.8,0.116733,0.116466,-31.9562,18,0.015362,10,-0.0037218,-1.49544,-0.215493,-0.273791,341.865,0.116466,
2,0,0,1,0,34691.8,0.102703,0.102447,-37.0679,18,0.0148791,10,-0.0037975,-1.431,-0.228977,-0.257668,371.783,0.102447,
2,0,0,1,0,34691.8,0.0887173,0.0884424,-42.224,18,0.0143234,10,-0.00373439,-1.37444,-0.270501,-0.218114,358.19,0.0884424,
2,0,0,1,0,34691.8,0.0747341,0.0744715,-46.978,18,0.013698,10,-0.00349852,-1.32811,-0.345729,-0.170654,311.423,0.0744715,
2,0,0,1,0,34691.9,0.0607011,0.0604476,-51.0266,18,0.0130115,10,-0.00308444,-1.2922,-0.446799,-0.132051,261.789,0.0604476,
2,0,0,1,0,34691.9,0.046718,0.046498,-54.1551,18,0.0122739,10,-0.0025181,-1.26636,-0.64359,-0.0916732,193.214,0.046498,
2,0,0,1,0,34691.9,0.0327349,0.0325324,-56.4974,18,0.0114985,10,-0.001838,-1.24797,-0.896849,-0.0657859,144.776,0.0325324,
2,0,0,1,0,34691.9,0.0187018,0.0184057,-58.2808,18,0.0106944,10,-0.0010727,-1.23447,-1.30895,-0.0450743,102.273,0.0184057,
2,0,0,1,0,34691.9,0.00471873,0.00438076,-59.361,18,0.00987013,10,-0.000260046,-1.2265,-2.21233,-0.0266687,61.7295,0.00438076,
2,0,0,1,0,34691.9,-0.00926438,-0.00963358,-59.9864,18,0.00903373,10,0.000577884,-1.22195,-5.9588,-0.00990133,23.1506,-0.00963358,
2,0,0,1,0,34691.9,-0.0232974,-0.0236522,-60.1177,18,0.00819263,10,0.00142191,-1.221,15.297,0.00385698,-9.03221,-0.0236522,
2,0,0,1,0,34692,-0.0372805,-0.0376506,-59.701,18,0.0073535,10,0.00224778,-1.22402,3.20222,0.0184247,-42.8853,-0.0376506,
2,0,0,1,0,34692,-0.0512637,-0.0515812,-58.9401,18,0.00652279,10,0.0030402,-1.22959,2.18202,0.0270391,-62.1658,-0.0515812,
2,0,0,1,0,34692,-0.0652967,-0.0656262,-58.0722,18,0.00570395,10,0.00381106,-1.23603,2.08493,0.0282983,-64.0958,-0.0656262,
2,0,0,1,0,34692,-0.0792798,-0.0796809,-57.1507,18,0.00489768,10,0.00455382,-1.24298,2.21713,0.026611,-59.383,-0.0796809,
2,0,0,1,0,34692,-0.0932629,-0.0936083,-56.417,18,0.00410297,10,0.0052811,-1.24859,2.97166,0.0198542,-43.7512,-0.0936083,
2,0,0,1,0,34692,-0.107296,-0.107665,-55.9781,18,0.00331663,10,0.00602689,-1.25198,5.41473,0.0108962,-23.8089,-0.107665,
2,0,0,1,0,34692,-0.121279,-0.121617,-55.7283,18,0.00253511,10,0.00677749,-1.25392,15.162,0.00389132,-8.46878,-0.121617,
2,0,0,1,0,34692.1,-0.135262,-0.13559,-55.7323,18,0.00175514,10,0.00755672,-1.25389,-14.7724,-0.00399393,8.69418,-0.13559,
2,0,0,1,0,34692.1,-0.149295,-0.149654,-56.0263,18,0.000973043,10,0.00838456,-1.25161,-5.01944,-0.0117543,25.7013,-0.149654,
2,0,0,1,0,34692.1,-0.163278,-0.163628,-56.4164,18,0.000186073,10,0.0092313,-1.24859,-3.93636,-0.0149885,33.0089,-0.163628,
2,0,0,1,0,34692.1,-0.177261,-0.177582,-56.9198,18,-0.000607262,10,0.0101079,-1.24474,-3.44148,-0.0171438,38.0878,-0.177582,
2,0,0,1,0,34692.1,-0.191295,-0.191632,-57.5135,18,-0.00140824,10,0.0110214,-1.24023,-3.16226,-0.0186575,41.8552,-0.191632,
2,0,0,0,1,34692.1,-0.199984,-0.200494,-57.5162,18,-0.00194458,10,0.0115317,-1.24021,-0.0403334,-1.46281,2909.61,-0.200494,
2,0,0,1,1,34692.1,-0.186686,-0.187123,-37.6096,18,-0.00254526,10,0.00703764,-1.4247,-0.0801758,-0.735882,1093.59,-0.187123,
2,0,0,1,1,34692.2,-0.172667,-0.173118,-25.0561,18,-0.00297783,10,0.00433765,-1.60109,-0.0743553,-0.793488,774.081,-0.173118,
2,0,0,1,1,34692.2,-0.158684,-0.159142,-15.432,18,-0.00325784,10,0.00245589,-1.81158,-0.0559427,-1.05465,623.306,-0.159142,
2,0,0,1,1,34692.2,-0.14467,-0.145104,-7.40486,18,-0.00341561,10,0.00107447,-2.13048,-0.0293943,-2.0072,528.394,-0.145104,
2,0,0,1,1,34692.2,-0.130668,-0.131088,-0.537832,18,-0.0034695,10,7.05035e-05,-3.26935,-0.0989902,-0.596019,462.333,-0.131088,
2,1,0,1,1,34692.2,-0.116685,-0.117185,5.52383,18,-0.00343324,10,-0.000647312,-2.25776,0.0261412,2.25698,412.775,-0.117185,
2,1,0,1,1,34692.2,-0.102654,-0.103151,11.0608,18,-0.00331635,10,-0.00114093,-1.95621,0.0654419,0.901563,375.177,-0.103151,
2,1,0,1,1,34692.2,-0.0886685,-0.089145,16.0573,18,-0.00312557,10,-0.00143143,-1.79433,0.106484,0.554074,342.349,-0.089145,
2,1,0,1,1,34692.2,-0.0746854,-0.0751286,20.6327,18,-0.00286773,10,-0.00155011,-1.68544,0.150821,0.391192,312.539,-0.0751286,
2,1,0,1,1,34692.3,-0.0606523,-0.0610336,24.8685,18,-0.00254862,10,-0.00151781,-1.60435,0.198657,0.296994,286.285,-0.0610336,
2,1,0,1,1,34692.3,-0.0466692,-0.0470946,28.6594,18,-0.0021733,10,-0.0013497,-1.54273,0.253012,0.23319,259.713,-0.04709458,
2,1,0,1,1,34692.3,-0.0326861,-0.0331227,32.1118,18,-0.00174726,10,-0.00106363,-1.49334,0.313656,0.188104,235.022,-0.0331227,
2,1,0,1,1,34692.3,-0.018653,-0.0190532,35.2543,18,-0.00127519,10,-0.000671706,-1.45279,0.383874,0.153696,210.804,-0.01905317,
2,1,0,1,1,34692.3,-0.00466992,-0.00507701,37.9994,18,-0.000761811,10,-0.000192923,-1.42022, , , ,-0.00507701,
2,1,0,0,1,34692.3,-0.000175352,-0.000668895,38.7978,18,-0.000588983,10,-2.59517e-05,-1.41119, , , ,-0.000668895,