File: Figure_codes/Fig_3-5/rawdata_trumpetplot_data/after 10th/20221101_1-115_003_TrumpetPlot_ParaChange_from10_every3_03_CV_C01_30.csv
mode,ox/red,error,control changes,counter inc.,time/s,control/V,Ewe/V,<I>/mA,cycle number,(Q-Qo)/C,I Range,P/W,log(|I|),Tafel slope mV/dec,alpha_eff,dI/d(E-IR),E-IR/V,
2,0,0,1,0,60043.9,2.44065e-05,-0.000401673,-0.099394,31,0.0000000E+000,10,3.99239e-08,-4.00264, , , ,-0.000401673,
2,1,0,1,0,60045.4,0.00729041,0.00692541,0.198572,31,0.000242138,10,1.37519e-06,-3.70208,0.0830554,0.710369,5.48396,0.00692541,
2,1,0,1,0,60046.9,0.0147815,0.0144164,0.229961,31,0.000583328,10,3.3152e-06,-3.63835,0.166038,0.355341,3.18653,0.0144164,
2,1,0,1,0,60048.4,0.0222725,0.0218606,0.255276,31,0.000965629,10,5.58048e-06,-3.59299,0.176978,0.333374,3.31522,0.0218606,
2,1,0,1,0,60049.9,0.0297635,0.0294464,0.28141,31,0.00138594,10,8.28653e-06,-3.55066,0.192462,0.306555,3.35499,0.0294464,
2,1,0,1,0,60051.4,0.0372545,0.0368952,0.306139,31,0.00184402,10,1.12951e-05,-3.51408,0.19827,0.297574,3.55299,0.0368952,
2,1,0,1,0,60052.9,0.0447456,0.044421,0.33021,31,0.0023396,10,1.46682e-05,-3.48121,0.254069,0.23222,2.99243,0.04442098,
2,1,0,1,0,60054.4,0.0522367,0.0518438,0.353145,31,0.00287029,10,1.83084e-05,-3.45205,0.256239,0.230254,3.16826,0.0518438,
2,1,0,1,0,60055.9,0.0597277,0.0593908,0.373895,31,0.00343371,10,2.22059e-05,-3.42725,0.321866,0.183306,2.66971,0.0593908,
2,1,0,1,0,60057.4,0.0672187,0.0669017,0.392459,31,0.00402646,10,2.62562e-05,-3.40621,0.410872,0.143597,2.19461,0.0669017,
2,1,0,1,0,60058.9,0.0747092,0.0743708,0.40657,31,0.00464371,10,3.02369e-05,-3.39087,0.642401,0.0918429,1.45656,0.0743708,
2,1,0,0,0,60060.4,0.0822001,0.0818392,0.419885,31,0.00528255,10,3.4363e-05,-3.37687,0.480456,0.1228,2.01686,0.0818392,
2,1,0,1,0,60061.9,0.0896911,0.0893395,0.440676,31,0.00594554,10,3.93698e-05,-3.35588,0.290305,0.203234,3.4964,0.0893395,
2,1,0,0,0,60063.4,0.097182,0.0968546,0.46938,31,0.00664499,10,4.54616e-05,-3.32848,0.21769,0.271028,4.96587,0.09685456,
2,1,0,1,0,60064.9,0.104673,0.104354,0.510334,31,0.00739665,10,5.32552e-05,-3.29215,0.212617,0.277495,5.49996,0.104354,
2,1,0,0,0,60066.4,0.112164,0.111807,0.544195,31,0.00820582,10,6.0845e-05,-3.26425,0.35587,0.165791,3.51545,0.111807,
2,1,0,1,0,60067.9,0.119655,0.119326,0.567379,31,0.00905881,10,6.77029e-05,-3.24613,0.702397,0.0839981,1.86043,0.119326,
2,1,0,0,0,60069.4,0.127146,0.126763,0.578661,31,0.00993833,10,7.33531e-05,-3.23758,1.4495,0.0407036,0.920831,0.126763,
2,1,0,1,0,60070.8,0.134637,0.134289,0.570852,31,0.0108253,10,7.66592e-05,-3.24348,-0.296707,-0.198849,-4.42732,0.134289,
2,1,0,1,0,60072.3,0.142127,0.141808,0.50794,31,0.0116607,10,7.203e-05,-3.29419,-0.0991346,-0.595151,-11.7524,0.141808,
2,1,0,1,0,60073.8,0.149618,0.149295,0.410443,31,0.0123673,10,6.12768e-05,-3.38675,-0.0819991,-0.71952,-11.5563,0.149295,
2,1,0,1,0,60075.3,0.157109,0.156761,0.348531,31,0.0129479,10,5.4636e-05,-3.45776,-0.135376,-0.435824,-5.92014,0.1567608,
2,1,0,1,0,60076.8,0.1646,0.164261,0.321126,31,0.0134633,10,5.27485e-05,-3.49332,-0.293119,-0.201283,-2.52187,0.1642611,
2,1,0,1,0,60078.3,0.172091,0.171761,0.305855,31,0.0139489,10,5.25339e-05,-3.51448,-0.457019,-0.129097,-1.54626,0.171761,
2,1,0,1,0,60079.8,0.179582,0.179238,0.298937,31,0.0144191,10,5.35808e-05,-3.52442,-1.18559,-0.0497642,-0.582051,0.179238,
2,1,0,1,0,60081.3,0.187074,0.186747,0.294745,31,0.0148807,10,5.50427e-05,-3.53055,-7.65895,-0.00770341,-0.0883736,0.186747,
2,1,0,1,0,60082.8,0.194564,0.194211,0.291186,31,0.0153366,10,5.65515e-05,-3.53583,29.4102,0.0020061,0.022826,0.194211,
2,1,0,1,0,60084.3,0.202056,0.201724,0.289875,31,0.0157886,10,5.84746e-05,-3.53779,-1.09403,-0.053929,-0.607781,0.2017238,
2,1,0,1,0,60085.8,0.209547,0.20925,0.288234,31,0.0162381,10,6.03131e-05,-3.54025,-4.68637,-0.0125897,-0.141146,0.20925,
2,1,0,1,0,60087.3,0.217038,0.216707,0.284404,31,0.0166842,10,6.16325e-05,-3.54606,-3.38035,-0.0174538,-0.194919,0.216707,
2,1,0,1,0,60088.8,0.224529,0.224174,0.284139,31,0.0171278,10,6.36965e-05,-3.54647,-3.95774,-0.0149075,-0.165374,0.224174,
2,1,0,1,0,60090.3,0.232019,0.231688,0.28228,31,0.0175686,10,6.5401e-05,-3.54932,-2.82733,-0.0208678,-0.229643,0.231688,
2,1,0,0,0,60091.8,0.23951,0.23915,0.280988,31,0.018007,10,6.71985e-05,-3.55131,-2.57995,-0.0228687,-0.25008,0.23915,
2,1,0,1,0,60093.3,0.247001,0.246706,0.279467,31,0.018443,10,6.89463e-05,-3.55367,-2.77745,-0.0212425,-0.231146,0.2467059,
2,1,0,0,0,60094.8,0.254492,0.254137,0.276794,31,0.0188766,10,7.03436e-05,-3.55784,-9.04653,-0.00652184,-0.070645,0.254137,
2,1,0,1,0,60096.3,0.261983,0.261667,0.276052,31,0.0193078,10,7.22337e-05,-3.55901,-1.5826,-0.0372804,-0.401398,0.261667,
2,1,0,0,0,60097.8,0.269474,0.269075,0.274572,31,0.0197364,10,7.38805e-05,-3.56134,-6.56042,-0.00899333,-0.0963162,0.269075,
2,1,0,1,0,60099.3,0.276965,0.276644,0.272589,31,0.0201627,10,7.54102e-05,-3.56449,-3.06265,-0.0192643,-0.205735,0.276644,
2,1,0,0,0,60100.8,0.284456,0.284135,0.271292,31,0.0205865,10,7.70835e-05,-3.56656,-3.22243,-0.0183091,-0.193957,0.284135,
2,1,0,1,0,60102.3,0.291947,0.291631,0.268695,31,0.0210069,10,7.83597e-05,-3.57074,-1.83573,-0.0321398,-0.337341,0.291631,
2,1,0,1,0,60103.8,0.299437,0.299108,0.267739,31,0.0214247,10,8.00828e-05,-3.57229,-0.0028995,-20.3484,-114.585,0.299108,
2,0,0,1,0,60105.2,0.293744,0.293407,-0.016323,31,0.0214713,10,-4.78928e-06,-4.7872,-0.00419504,-14.0642,5.76337,0.293407,
2,0,0,1,0,60106.7,0.286253,0.285928,-0.0463226,31,0.0214068,10,-1.32449e-05,-4.33421,-0.0302287,-1.95178,3.5528,0.285928,
2,0,0,0,0,60108.2,0.278763,0.278433,-0.0673573,31,0.021304,10,-1.87545e-05,-4.17162,-0.0663461,-0.889276,2.33906,0.278433,
2,0,0,1,0,60109.7,0.271272,0.270913,-0.0841676,31,0.0211734,10,-2.28021e-05,-4.07486,-0.0821984,-0.717775,2.34811,0.270913,
2,0,0,0,0,60111.2,0.263781,0.263478,-0.0986078,31,0.0210196,10,-2.5981e-05,-4.00609,-0.129175,-0.456744,1.75966,0.263478,
2,0,0,1,0,60112.7,0.25629,0.255939,-0.111043,31,0.0208463,10,-2.84202e-05,-3.95451,-0.222422,-0.265261,1.13695,0.255939,
2,0,0,0,0,60114.2,0.248799,0.248469,-0.121146,31,0.0206563,10,-3.0101e-05,-3.91669,-0.171443,-0.344138,1.62799,0.248469,
2,0,0,1,0,60115.7,0.241308,0.240975,-0.131134,31,0.0204506,10,-3.16e-05,-3.88229,-0.259412,-0.227437,1.16853,0.240975,
2,0,0,0,0,60117.2,0.233817,0.233507,-0.140449,31,0.0202309,10,-3.27958e-05,-3.85248,-0.251969,-0.234156,1.28005,0.233507,
2,0,0,1,0,60118.7,0.226326,0.225945,-0.148239,31,0.0199976,10,-3.34939e-05,-3.82904,-0.299535,-0.196972,1.14764,0.225945,
2,0,0,0,0,60120.2,0.218835,0.218492,-0.158093,31,0.0197516,10,-3.4542e-05,-3.80109,-0.368535,-0.160093,0.980444,0.218492,
2,0,0,1,0,60121.7,0.211344,0.210991,-0.166735,31,0.0194928,10,-3.51797e-05,-3.77797,-0.52705,-0.111944,0.725601,0.2109914,
2,0,0,1,0,60123.2,0.203854,0.203497,-0.173492,31,0.019221,10,-3.53052e-05,-3.76072,-0.390666,-0.151024,1.02888,0.203497,
2,0,0,1,0,60124.7,0.196363,0.196032,-0.183074,31,0.0189365,10,-3.58884e-05,-3.73737,-0.341972,-0.172529,1.23149,0.196032,
2,0,0,1,0,60126.2,0.188871,0.188521,-0.192773,31,0.0186373,10,-3.63417e-05,-3.71495,-0.25609,-0.230388,1.72861,0.188521,
2,0,0,1,0,60127.7,0.181381,0.181017,-0.203771,31,0.0183224,10,-3.6886e-05,-3.69086,-0.260481,-0.226504,1.7976,0.181017,
2,0,0,1,0,60129.1,0.173889,0.173558,-0.217009,31,0.0179902,10,-3.76636e-05,-3.66352,-0.274008,-0.215322,1.81501,0.173558,
2,0,0,1,0,60130.6,0.166398,0.166021,-0.231712,31,0.017637,10,-3.84689e-05,-3.63505,-0.272,-0.216912,1.96652,0.166021,
2,0,0,1,0,60132.1,0.158907,0.158522,-0.249223,31,0.017258,10,-3.95074e-05,-3.60341,-0.199755,-0.295362,2.89978,0.158522,
2,0,0,1,0,60133.6,0.151416,0.151072,-0.279178,31,0.0168448,10,-4.21759e-05,-3.55412,-0.138809,-0.425044,4.63996,0.151072,
2,0,0,1,0,60135.1,0.143925,0.143544,-0.32409,31,0.0163769,10,-4.65211e-05,-3.48933,-0.0883246,-0.667991,8.48111,0.143544,
2,0,0,1,0,60136.6,0.136434,0.136081,-0.396659,31,0.0158202,10,-5.39777e-05,-3.40158,-0.0844556,-0.698592,10.7892,0.136081,
2,0,0,1,0,60138.1,0.128943,0.12864,-0.480411,31,0.0151442,10,-6.18e-05,-3.31839,-0.103095,-0.572288,10.6951,0.12864,
2,0,0,0,0,60139.6,0.121453,0.121119,-0.548694,31,0.01435,10,-6.64571e-05,-3.26067,-0.18946,-0.311412,6.65608,0.121119,
2,0,0,1,0,60141.1,0.113962,0.113613,-0.578619,31,0.0134794,10,-6.57388e-05,-3.23761,-0.755289,-0.0781158,1.76605,0.113613,
2,0,0,0,0,60142.6,0.106471,0.106128,-0.582743,31,0.0125856,10,-6.18452e-05,-3.23452,3.40174,0.0173441,-0.39518,0.106128,
2,0,0,1,0,60144.1,0.0989798,0.098653,-0.576006,31,0.0116963,10,-5.68247e-05,-3.23957,2.11711,0.0278682,-0.625747,0.098653,
2,0,0,0,0,60145.6,0.0914889,0.0911358,-0.568356,31,0.0108203,10,-5.17975e-05,-3.24538,0.805866,0.0732132,-1.61554,0.0911358,
2,0,0,1,0,60147.1,0.083998,0.0836578,-0.550545,31,0.00996341,10,-4.60574e-05,-3.25921,0.452407,0.130414,-2.80249,0.0836578,
2,0,0,0,0,60148.6,0.076507,0.0761067,-0.535498,31,0.00913054,10,-4.0755e-05,-3.27124,0.490327,0.120328,-2.51309,0.07610666,
2,0,0,1,0,60150.1,0.069016,0.0687103,-0.5178,31,0.00832248,10,-3.55782e-05,-3.28584,0.554569,0.106389,-2.15624,0.0687103,
2,0,0,0,0,60151.6,0.0615251,0.0611867,-0.503551,31,0.00753796,10,-3.08106e-05,-3.29796,0.485975,0.121405,-2.38853,0.0611867,
2,0,0,1,0,60153.1,0.0540342,0.053713,-0.488015,31,0.00677701,10,-2.62128e-05,-3.31157,0.540901,0.109077,-2.0728,0.05371299,
2,0,0,1,0,60154.6,0.0465436,0.0461358,-0.469817,31,0.00604023,10,-2.16754e-05,-3.32807,0.498803,0.118283,-2.17493,0.0461358,
2,0,0,1,0,60156.1,0.0390526,0.0387596,-0.453412,31,0.00532881,10,-1.75741e-05,-3.34351,0.425439,0.13868,-2.45299,0.0387596,
2,0,0,1,0,60157.6,0.0315615,0.0311701,-0.43882,31,0.00464208,10,-1.36781e-05,-3.35771,0.448898,0.131433,-2.25119,0.0311701,
2,0,0,1,0,60159.1,0.0240706,0.0237101,-0.423346,31,0.00397833,10,-1.00376e-05,-3.3733,0.573611,0.102857,-1.70601,0.0237101,
2,0,0,1,0,60160.6,0.0165795,0.0162118,-0.413379,31,0.00333277,10,-6.7016e-06,-3.38365,1.21565,0.0485335,-0.784468,0.0162118,
2,0,0,1,0,60162.1,0.00908846,0.0087051,-0.409095,31,0.00269859,10,-3.56121e-06,-3.38818,8.02316,0.00735371,-0.117271,0.0087051,
2,0,0,1,0,60163.6,0.00159739,0.00118345,-0.415183,31,0.00206608,10,-4.91347e-07,-3.38176, , , ,0.001183446,
2,0,0,0,0,60163.9,0.000199195,-0.000189804,-0.411339,31,0.00194738,10,7.80735e-08,-3.3858, , , ,-0.000189804,