File: Figure_codes/Fig_3-5/rawdata_trumpetplot_data/after 10th/20221101_1-115_003_TrumpetPlot_ParaChange_from10_every3_12_CV_C01_20.csv
mode,ox/red,error,control changes,counter inc.,time/s,control/V,Ewe/V,<I>/mA,cycle number,(Q-Qo)/C,I Range,P/W,log(|I|),Tafel slope mV/dec,alpha_eff,dI/d(E-IR),E-IR/V,
2,1,0,1,0,40599.1,2.44065e-05,-0.000229887,14.9866,21,0.0000000E+000,10,-3.44523e-06,-1.8243, , , ,-0.000229887,
2,1,0,1,0,40599.1,0.0104008,0.0100614,18.0732,21,0.000287259,10,0.000181841,-1.74296,0.188793,0.312512,219.336,0.0100614,
2,1,0,1,0,40599.2,0.0212099,0.0208786,20.1277,21,0.00063206,10,0.000420238,-1.69621,0.279619,0.211001,165.317,0.0208786,
2,1,0,1,0,40599.2,0.0320052,0.0316618,21.7756,21,0.00100974,10,0.000689456,-1.66203,0.355499,0.165964,140.823,0.0316618,
2,1,0,1,0,40599.2,0.0428033,0.0424547,23.2178,21,0.00141494,10,0.000985703,-1.63418,0.41834,0.141034,127.647,0.0424547,
2,1,0,1,0,40599.2,0.0535986,0.053257,24.533,21,0.0018448,10,0.00130656,-1.61025,0.467875,0.126102,120.673,0.053257,
2,1,0,1,0,40599.2,0.0644077,0.0640456,25.8393,21,0.00229824,10,0.00165489,-1.58772,0.492028,0.119912,120.873,0.0640456,
2,1,0,1,0,40599.3,0.075203,0.0748607,27.1466,21,0.00277515,10,0.00203221,-1.56628,0.498557,0.118342,125.392,0.07486067,
2,1,0,1,0,40599.3,0.0860011,0.0856153,28.4903,21,0.00327599,10,0.00243921,-1.5453,0.515867,0.11437,127.198,0.0856153,
2,1,0,1,0,40599.3,0.0968075,0.0964399,29.8764,21,0.00380152,10,0.00288128,-1.52467,0.533582,0.110573,128.946,0.0964399,
2,1,0,1,0,40599.3,0.107606,0.107224,31.3074,21,0.00435226,10,0.00335691,-1.50435,0.539387,0.109383,133.628,0.107224,
2,1,0,1,0,40599.3,0.118401,0.118045,32.7457,21,0.00492891,10,0.00386545,-1.48485,0.567178,0.104024,132.953,0.118045,
2,1,0,1,0,40599.3,0.129207,0.128823,34.2726,21,0.0055318,10,0.00441509,-1.46505,0.524568,0.112474,150.403,0.128823,
2,1,0,1,0,40599.4,0.140005,0.139652,35.9481,21,0.00616379,10,0.0050202,-1.44432,0.521013,0.113241,158.872,0.139652,
2,1,0,1,0,40599.4,0.150803,0.150415,37.6965,21,0.00682665,10,0.0056701,-1.4237,0.536153,0.110043,161.85,0.150415,
2,1,0,1,0,40599.4,0.161604,0.16125,39.4117,21,0.00752091,10,0.00635513,-1.40437,0.598395,0.0985971,151.543,0.16125,
2,1,0,1,0,40599.4,0.172405,0.172036,40.9453,21,0.00824461,10,0.00704407,-1.3878,0.72587,0.0812817,129.746,0.172036,
2,1,0,1,0,40599.4,0.183203,0.18286,42.1327,21,0.00899313,10,0.00770439,-1.37538,1.13386,0.0520347,85.4324,0.18286,
2,1,0,1,0,40599.5,0.194001,0.193616,42.6819,21,0.00975768,10,0.00826388,-1.36976,7.13324,0.00827114,13.752,0.193616,
2,1,0,1,0,40599.5,0.204808,0.204434,42.3868,21,0.0105247,10,0.0086653,-1.37277,-1.41572,-0.041675,-68.8102,0.204434,
2,1,0,1,0,40599.5,0.215603,0.215251,41.1875,21,0.0112782,10,0.00886566,-1.38523,-0.634139,-0.0930396,-149.274,0.215251,
2,1,0,1,0,40599.5,0.226401,0.226085,39.1809,21,0.0120024,10,0.00885823,-1.40693,-0.419017,-0.140806,-215.025,0.226085,
2,1,0,1,0,40599.5,0.237207,0.236854,36.6703,21,0.0126854,10,0.00868549,-1.43569,-0.3469,-0.170078,-243.269,0.236854,
2,1,0,1,0,40599.5,0.248005,0.247686,34.0618,21,0.0133216,10,0.00843663,-1.46773,-0.332511,-0.177438,-235.856,0.247686,
2,1,0,1,0,40599.6,0.258801,0.258528,31.6123,21,0.0139119,10,0.00817269,-1.50014,-0.343089,-0.171967,-212.272,0.258528,
2,1,0,1,0,40599.6,0.26961,0.269263,29.4716,21,0.0144609,10,0.00793562,-1.5306,-0.368684,-0.160029,-184.173,0.269263,
2,1,0,1,0,40599.6,0.280405,0.280101,27.6564,21,0.0149744,10,0.00774658,-1.5582,-0.415916,-0.141856,-153.217,0.280101,
2,1,0,1,0,40599.6,0.291203,0.290856,26.1381,21,0.015458,10,0.00760242,-1.58273,-0.474067,-0.124455,-127.093,0.290856,
2,1,0,0,0,40599.6,0.300012,0.299689,25.0798,21,0.0158343,10,0.00751616,-1.60068,0.00273354,21.5837,19059.9,0.2996892,
2,1,0,1,0,40599.6,0.290843,0.29056,13.886,21,0.0161192,10,0.0040347,-1.85742,0.0366777,1.60861,877.061,0.29056,
2,1,0,1,0,40599.7,0.280047,0.279759,6.44573,21,0.0162965,10,0.00180325,-2.19073,0.0258725,2.28042,559.304,0.279759,
2,1,0,1,0,40599.7,0.269244,0.268973,1.39108,21,0.0163639,10,0.000374162,-2.85665,0.0099792,5.9123,393.908,0.268973,
2,0,0,1,0,40599.7,0.258443,0.25813,-2.25565,21,0.016354,10,-0.00058225,-2.64673,-0.0145667,-4.05033,288.917,0.25813,
2,0,0,1,0,40599.7,0.247645,0.247346,-5.00762,21,0.0162872,10,-0.00123862,-2.30037,-0.0501542,-1.17637,224.111,0.247346,
2,0,0,1,0,40599.7,0.236849,0.236548,-7.165,21,0.0161766,10,-0.00169487,-2.14478,-0.0917136,-0.643307,178.075,0.236548,
2,0,0,1,0,40599.8,0.22604,0.225754,-8.91582,21,0.0160312,10,-0.00201279,-2.04984,-0.140048,-0.421284,145.625,0.225754,
2,0,0,1,0,40599.8,0.215245,0.214895,-10.3438,21,0.0158575,10,-0.00222283,-1.98532,-0.191003,-0.308895,124.333,0.214895,
2,0,0,1,0,40599.8,0.204447,0.204102,-11.5982,21,0.0156597,10,-0.00236721,-1.93561,-0.24686,-0.239002,107.849,0.204102,
2,0,0,1,0,40599.8,0.19364,0.193345,-12.6914,21,0.015441,10,-0.00245383,-1.89649,-0.300337,-0.196446,97.088,0.193345,
2,0,0,1,0,40599.8,0.182842,0.182519,-13.6904,21,0.0152034,10,-0.00249877,-1.86358,-0.341497,-0.172769,92.2832,0.182519,
2,0,0,1,0,40599.8,0.172047,0.171762,-14.6649,21,0.014948,10,-0.00251886,-1.83372,-0.364174,-0.16201,92.7876,0.171762,
2,0,0,1,0,40599.9,0.161241,0.160943,-15.6919,21,0.0146748,10,-0.00252551,-1.80432,-0.371236,-0.158929,97.3842,0.160943,
2,0,0,1,0,40599.9,0.150443,0.150105,-16.8489,21,0.0143821,10,-0.0025291,-1.77343,-0.327114,-0.180365,118.797,0.150105,
2,0,0,1,0,40599.9,0.139645,0.13931,-18.3236,21,0.014066,10,-0.00255266,-1.73699,-0.268486,-0.219751,157.549,0.13931,
2,0,0,1,0,40599.9,0.128849,0.128502,-20.3158,21,0.0137189,10,-0.00261063,-1.69217,-0.220551,-0.267512,212.593,0.128502,
2,0,0,1,0,40599.9,0.118043,0.117758,-22.9451,21,0.0133303,10,-0.00270198,-1.63931,-0.197898,-0.298134,266.999,0.117758,
2,0,0,1,0,40600,0.107245,0.106948,-25.9645,21,0.0128902,10,-0.00277684,-1.58562,-0.208744,-0.282643,286.119,0.106948,
2,0,0,1,0,40600,0.0964468,0.0961293,-29.0191,21,0.0123949,10,-0.00278958,-1.53732,-0.244505,-0.241304,272.721,0.0961293,
2,0,0,1,0,40600,0.0856404,0.0853364,-31.8836,21,0.0118465,10,-0.00272083,-1.49643,-0.290143,-0.203348,252.408,0.0853364,
2,0,0,1,0,40600,0.0748451,0.0745818,-34.3613,21,0.0112495,10,-0.00256273,-1.46393,-0.372739,-0.158288,211.886,0.0745818,
2,0,0,1,0,40600,0.0640471,0.0637635,-36.3617,21,0.010612,10,-0.00231855,-1.43936,-0.513588,-0.114878,162.818,0.0637635,
2,0,0,1,0,40600,0.0532407,0.0529474,-37.8897,21,0.00994287,10,-0.00200616,-1.42148,-0.750761,-0.0785869,116.044,0.0529474,
2,0,0,1,0,40600.1,0.0424426,0.0421397,-38.9035,21,0.00925093,10,-0.00163938,-1.41001,-1.18483,-0.0497961,75.5421,0.0421397,
2,0,0,1,0,40600.1,0.0316473,0.0313193,-39.5347,21,0.00854432,10,-0.0012382,-1.40302,-2.08753,-0.0282631,43.5853,0.0313193,
2,0,0,1,0,40600.1,0.0208437,0.0205117,-39.8714,21,0.00782926,10,-0.000817829,-1.39934,-5.18233,-0.0113848,17.7029,0.0205117,
2,0,0,1,0,40600.1,0.0100429,0.00974112,-39.962,21,0.00711049,10,-0.000389275,-1.39835,35.7722,0.00164933,-2.57007,0.00974112,
2,0,0,1,0,40600.1,-0.000755207,-0.00112169,-39.8586,21,0.00639192,10,4.4709e-05,-1.39948,4.83377,0.0122058,-18.9667,-0.00112169,
2,0,0,1,0,40600.1,-0.0115505,-0.0119124,-39.4884,21,0.00567752,10,0.000470402,-1.40353,2.01157,0.0293303,-45.1741,-0.0119124,
2,0,0,1,0,40600.2,-0.0223597,-0.0227148,-38.8985,21,0.00497184,10,0.00088357,-1.41007,1.37111,0.0430308,-65.2738,-0.0227148,
2,0,0,1,0,40600.2,-0.033155,-0.0335023,-38.126,21,0.0042786,10,0.00127731,-1.41878,1.21978,0.0483693,-71.9666,-0.0335023,
2,0,0,1,0,40600.2,-0.043953,-0.0443386,-37.3117,21,0.00359975,10,0.00165435,-1.42816,1.17127,0.0503726,-73.3715,-0.04433858,
2,0,0,1,0,40600.2,-0.0547594,-0.0551208,-36.5707,21,0.00293506,10,0.00201581,-1.43687,1.31902,0.04473,-63.8729,-0.0551208,
2,0,0,1,0,40600.2,-0.0655575,-0.0659168,-35.9804,21,0.00228242,10,0.00237171,-1.44393,1.87556,0.0314572,-44.1965,-0.0659168,
2,0,0,1,0,40600.3,-0.0763528,-0.0767181,-35.5821,21,0.00163864,10,0.00272979,-1.44877,3.0719,0.0192063,-26.6912,-0.0767181,
2,0,0,1,0,40600.3,-0.0871592,-0.0875364,-35.397,21,0.00100017,10,0.00309852,-1.45103,8.05353,0.00732598,-10.1238,-0.0875364,
2,0,0,1,0,40600.3,-0.0979573,-0.0983271,-35.3907,21,0.000363397,10,0.00347986,-1.45111,35.5031,0.00166183,-2.29302,-0.0983271,
2,0,0,1,1,40600.3,-0.0955546,-0.0960122,-27.9258,21,5.52807e-06,10,0.00268121,-1.554,-0.0465826,-1.26657,1399.38,-0.09601222,
2,0,0,1,1,40600.3,-0.0847538,-0.0851918,-16.7612,21,-0.000388396,10,0.00142792,-1.77569,-0.0453813,-1.30009,849.294,-0.0851918,
2,0,0,1,1,40600.3,-0.0739557,-0.0743322,-8.83384,21,-0.000614949,10,0.000656639,-2.05385,-0.0308182,-1.91445,645.06,-0.0743322,
2,0,0,1,1,40600.4,-0.0631604,-0.0635839,-2.61221,21,-0.000715268,10,0.000166095,-2.58299,-0.0071397,-8.26365,517.377,-0.0635839,
2,1,0,1,1,40600.4,-0.0523512,-0.052807,2.4576,21,-0.000714669,10,-0.000129778,-2.60949,0.00840977,7.01565,425.162,-0.052807,
2,1,0,1,1,40600.4,-0.0415559,-0.0420131,6.63177,21,-0.000631392,10,-0.000278621,-2.17837,0.0413976,1.4252,357.497,-0.0420131,
2,1,0,1,1,40600.4,-0.0307579,-0.0311651,10.1537,21,-0.000478915,10,-0.00031644,-1.99338,0.0774358,0.761922,298.594,-0.03116514,
2,1,0,1,1,40600.4,-0.0199515,-0.0203585,13.1083,21,-0.000268463,10,-0.000266867,-1.88245,0.120383,0.490104,248.997,-0.0203585,
2,1,0,1,1,40600.4,-0.0091534,-0.00953708,15.5593,21,-9.57456e-06,10,-0.00014839,-1.80801,0.172635,0.341762,206.651,-0.00953708,
2,1,0,0,1,40600.5,-7.54729e-05,-0.000458935,17.2477,21,0.00023891,10,-7.91559e-06,-1.76327, , , ,-0.000458935,