File: Figure_codes/Fig_3-5/rawdata_trumpetplot_data/after 10th/20221101_1-115_003_TrumpetPlot_ParaChange_from10_every3_11_CV_C01_20.csv
mode,ox/red,error,control changes,counter inc.,time/s,control/V,Ewe/V,<I>/mA,cycle number,(Q-Qo)/C,I Range,P/W,log(|I|),Tafel slope mV/dec,alpha_eff,dI/d(E-IR),E-IR/V,
2,1,0,1,0,40597.1,2.44065e-05,-0.000325324,9.49896,21,0.0000000E+000,10,-3.09024e-06,-2.02232, , , ,-0.000325324,
2,1,0,1,0,40597.2,0.0101427,0.00978565,12.6862,21,0.000285857,10,0.000124143,-1.89667,0.134117,0.439915,216.79,0.00978565,
2,1,0,1,0,40597.2,0.0205441,0.0201692,14.5464,21,0.00064146,10,0.000293389,-1.83724,0.218379,0.270172,153.086,0.0201692,
2,1,0,1,0,40597.2,0.0309482,0.0305866,15.9385,21,0.0010387,10,0.000487504,-1.79755,0.301399,0.195754,121.686,0.0305866,
2,1,0,1,0,40597.2,0.0413439,0.0410231,17.1,21,0.00146866,10,0.000701495,-1.767,0.374576,0.157511,105.048,0.0410231,
2,1,0,1,0,40597.3,0.0517425,0.0514225,18.1556,21,0.00192723,10,0.000933605,-1.74099,0.411512,0.143374,101.598,0.0514225,
2,1,0,1,0,40597.3,0.0621438,0.0617912,19.1872,21,0.00241282,10,0.0011856,-1.71699,0.450279,0.13103,98.0969,0.0617912,
2,1,0,1,0,40597.3,0.0725479,0.0722637,20.2319,21,0.00292535,10,0.00146203,-1.69396,0.454061,0.129939,102.602,0.0722637,
2,1,0,1,0,40597.3,0.0829437,0.08259,21.2995,21,0.00346534,10,0.00175913,-1.67163,0.474176,0.124426,103.454,0.08259,
2,1,0,1,0,40597.4,0.0933422,0.0929915,22.3946,21,0.00403356,10,0.00208251,-1.64986,0.501649,0.117612,102.755,0.0929915,
2,1,0,1,0,40597.4,0.103749,0.103329,23.4511,21,0.0046295,10,0.00242318,-1.62984,0.51045,0.115584,105.791,0.103329,
2,1,0,1,0,40597.4,0.114148,0.113815,24.5543,21,0.00525373,10,0.00279464,-1.60987,0.517411,0.114029,109.273,0.113815,
2,1,0,1,0,40597.4,0.124543,0.124187,25.7153,21,0.00590705,10,0.0031935,-1.58981,0.502984,0.1173,117.707,0.124187,
2,1,0,1,0,40597.5,0.134942,0.134582,27.0135,21,0.00659245,10,0.00363552,-1.56842,0.473351,0.124643,131.498,0.134582,
2,1,0,1,0,40597.5,0.145349,0.145032,28.4278,21,0.00731333,10,0.00412295,-1.54626,0.487912,0.120924,134.098,0.145032,
2,1,0,1,0,40597.5,0.155747,0.155412,29.7673,21,0.00807019,10,0.00462621,-1.52626,0.559638,0.105425,122.384,0.155412,
2,1,0,1,0,40597.5,0.166143,0.165809,30.8836,21,0.00885948,10,0.00512076,-1.51027,0.797441,0.0739867,89.1222,0.165809,
2,1,0,1,0,40597.6,0.176542,0.176226,31.5436,21,0.0096726,10,0.0055588,-1.50109,2.54307,0.0232003,28.5319,0.176226,
2,1,0,1,0,40597.6,0.186949,0.186605,31.3877,21,0.0104927,10,0.00585711,-1.50324,-1.14006,-0.0517518,-63.2828,0.186605,
2,1,0,1,0,40597.6,0.197347,0.196989,30.2071,21,0.0112955,10,0.00595046,-1.51989,-0.429886,-0.137246,-161.505,0.196989,
2,1,0,1,0,40597.6,0.207743,0.207416,28.1525,21,0.0120553,10,0.00583927,-1.55048,-0.286233,-0.206126,-226.223,0.207416,
2,1,0,1,0,40597.7,0.218141,0.217829,25.6822,21,0.0127551,10,0.00559432,-1.59037,-0.25272,-0.23346,-234.069,0.217829,
2,1,0,1,0,40597.7,0.228548,0.228216,23.3432,21,0.0133916,10,0.00532728,-1.63184,-0.255651,-0.230783,-210.185,0.228216,
2,1,0,1,0,40597.7,0.238947,0.238628,21.3432,21,0.0139712,10,0.00509308,-1.67074,-0.28455,-0.207345,-172.769,0.238628,
2,1,0,1,0,40597.8,0.249343,0.249045,19.7348,21,0.0145044,10,0.00491485,-1.70477,-0.340378,-0.173337,-133.695,0.249045,
2,1,0,1,0,40597.8,0.259741,0.259436,18.4879,21,0.0150006,10,0.00479642,-1.73311,-0.396979,-0.148623,-107.25,0.2594361,
2,1,0,1,0,40597.8,0.270148,0.269786,17.4858,21,0.0154677,10,0.00471743,-1.75731,-0.473711,-0.124548,-85.0435,0.269786,
2,1,0,1,0,40597.8,0.280547,0.280225,16.684,21,0.0159115,10,0.00467528,-1.7777,-0.550371,-0.1072,-69.8574,0.280225,
2,1,0,1,0,40597.9,0.290942,0.290605,16.032,21,0.0163364,10,0.00465896,-1.79501,-0.649431,-0.0908487,-56.8425,0.290605,
2,1,0,0,0,40597.9,0.300012,0.299727,15.5489,21,0.0166947,10,0.00466043,-1.8083,0.00159997,36.8757,20030.8,0.299727,
2,1,0,1,0,40597.9,0.290704,0.290434,6.16559,21,0.0169275,10,0.0017907,-2.21003,0.0218431,2.70108,646.36,0.290434,
2,1,0,1,0,40597.9,0.280305,0.280006,1.08529,21,0.0170151,10,0.000303886,-2.96446,0.00299497,19.6997,371.912,0.280006,
2,0,0,1,0,40598,0.269909,0.269607,-2.00374,21,0.017,10,-0.000540224,-2.69816,-0.0178308,-3.30888,239.006,0.269607,
2,0,0,1,0,40598,0.2595,0.259196,-4.0836,21,0.016919,10,-0.00105846,-2.38896,-0.0551732,-1.06936,168.239,0.259196,
2,0,0,1,0,40598,0.249104,0.248783,-5.58252,21,0.0167924,10,-0.00138884,-2.25317,-0.102858,-0.573608,124.12,0.248783,
2,0,0,1,0,40598,0.238705,0.238406,-6.72013,21,0.0166319,10,-0.00160212,-2.17262,-0.159072,-0.370901,96.9808,0.238406,
2,0,0,1,0,40598.1,0.22831,0.227969,-7.61803,21,0.016445,10,-0.00173667,-2.11816,-0.219559,-0.26872,79.9458,0.227969,
2,0,0,1,0,40598.1,0.2179,0.217574,-8.40028,21,0.0162364,10,-0.00182769,-2.07571,-0.279424,-0.211149,69.0914,0.217574,
2,0,0,1,0,40598.1,0.207504,0.207223,-9.05592,21,0.0160093,10,-0.00187659,-2.04307,-0.34437,-0.171328,60.5248,0.207223,
2,0,0,1,0,40598.1,0.197106,0.196794,-9.66358,21,0.0157656,10,-0.00190173,-2.01486,-0.391205,-0.150816,56.9373,0.196794,
2,0,0,1,0,40598.2,0.18671,0.18639,-10.2387,21,0.0155067,10,-0.0019084,-1.98975,-0.419276,-0.140719,56.2521,0.18639,
2,0,0,1,0,40598.2,0.1763,0.175959,-10.8356,21,0.0152327,10,-0.00190661,-1.96515,-0.426729,-0.138261,58.4297,0.175959,
2,0,0,1,0,40598.2,0.165905,0.165592,-11.4646,21,0.014943,10,-0.00189846,-1.94064,-0.410795,-0.143624,64.2549,0.165592,
2,0,0,1,0,40598.2,0.155506,0.155181,-12.2145,21,0.0146355,10,-0.00189546,-1.91312,-0.342498,-0.172264,82.2449,0.155181,
2,0,0,1,0,40598.3,0.145105,0.144796,-13.2265,21,0.0143053,10,-0.00191514,-1.87856,-0.26048,-0.226505,117.063,0.144796,
2,0,0,1,0,40598.3,0.134701,0.134392,-14.6902,21,0.0139436,10,-0.00197424,-1.83297,-0.200101,-0.294851,169.152,0.1343919,
2,0,0,1,0,40598.3,0.124305,0.124009,-16.7533,21,0.0135359,10,-0.00207756,-1.7759,-0.172119,-0.342785,224.391,0.124009,
2,0,0,1,0,40598.3,0.113906,0.113602,-19.2514,21,0.0130679,10,-0.00218699,-1.71554,-0.177934,-0.331584,249.271,0.113602,
2,0,0,1,0,40598.4,0.103505,0.103238,-21.8011,21,0.0125335,10,-0.00225071,-1.66152,-0.208607,-0.282828,240.477,0.1032382,
2,0,0,1,0,40598.4,0.0931008,0.0928314,-24.1646,21,0.0119351,10,-0.00224323,-1.61682,-0.26263,-0.224651,211.626,0.0928314,
2,0,0,1,0,40598.4,0.0827051,0.0823991,-26.1255,21,0.01128,10,-0.00215272,-1.58294,-0.362652,-0.16269,165.744,0.0823991,
2,0,0,1,0,40598.4,0.0723065,0.0720167,-27.6191,21,0.0105801,10,-0.00198903,-1.55879,-0.527544,-0.111839,120.429,0.0720167,
2,0,0,1,0,40598.5,0.0618997,0.0616024,-28.5799,21,0.00984821,10,-0.00176059,-1.54394,-1.03925,-0.0567718,63.2505,0.0616024,
2,0,0,1,0,40598.5,0.0515011,0.0511457,-29.032,21,0.00909846,10,-0.00148486,-1.53712,-2.4805,-0.0237856,26.9306,0.0511457,
2,0,0,1,0,40598.5,0.0411053,0.0407909,-29.1509,21,0.00834152,10,-0.00118909,-1.53535,-179.706,-0.000328314,0.373471,0.0407909,
2,0,0,1,0,40598.6,0.0307068,0.0303809,-29.0782,21,0.00758415,10,-0.000883421,-1.53643,4.95439,0.0119086,-13.5123,0.0303809,
2,0,0,1,0,40598.6,0.0202999,0.0199528,-28.8739,21,0.00683059,10,-0.000576117,-1.53949,2.47228,0.0238646,-26.8799,0.0199528,
2,0,0,1,0,40598.6,0.00990136,0.00956297,-28.5168,21,0.00608429,10,-0.000272706,-1.5449,1.63532,0.0360785,-40.1427,0.00956297,
2,0,0,1,0,40598.6,-0.000494411,-0.000841742,-28.0215,21,0.00534905,10,2.35868e-05,-1.55251,1.1146,0.0529338,-57.8074,-0.000841742,
2,0,0,1,0,40598.7,-0.010893,-0.0112931,-27.2809,21,0.00462991,10,0.000308086,-1.56414,0.831745,0.0709352,-75.5043,-0.0112931,
2,0,0,1,0,40598.7,-0.0212998,-0.0216904,-26.4513,21,0.00393132,10,0.000573738,-1.57755,0.753186,0.0783339,-80.8864,-0.0216904,
2,0,0,1,0,40598.7,-0.0316984,-0.0321142,-25.6739,21,0.00325411,10,0.000824496,-1.59051,0.845317,0.0697963,-69.8973,-0.0321142,
2,0,0,1,0,40598.7,-0.0420942,-0.0424967,-25.021,21,0.00259565,10,0.00106331,-1.60169,1.04415,0.0565054,-55.194,-0.0424967,
2,0,0,1,0,40598.8,-0.0524927,-0.0528441,-24.5776,21,0.00195127,10,0.00129878,-1.60946,1.70747,0.034554,-33.1736,-0.0528441,
2,0,0,1,0,40598.8,-0.0628996,-0.063269,-24.3572,21,0.00131559,10,0.00154105,-1.61337,4.70743,0.0125334,-11.9132,-0.06326896,
2,0,0,1,0,40598.8,-0.0732982,-0.0737023,-24.3088,21,0.000683474,10,0.00179161,-1.61424,-14.5299,-0.00406059,3.85188,-0.0737023,
2,0,0,1,0,40598.8,-0.0836939,-0.0840614,-24.4149,21,5.04694e-05,10,0.00205235,-1.61235,-3.14545,-0.0187573,17.8786,-0.0840614,
2,0,0,1,0,40598.9,-0.0940925,-0.0944333,-24.6818,21,-0.000587479,10,0.00233079,-1.60762,-1.75123,-0.0336907,32.4615,-0.0944333,
2,0,0,1,1,40598.9,-0.0978574,-0.0982645,-21.0908,21,-0.00108187,10,0.00207248,-1.67591,-0.0334948,-1.76147,1430.05,-0.0982645,
2,0,0,1,1,40598.9,-0.0874588,-0.0878524,-10.8395,21,-0.00148276,10,0.000952276,-1.96499,-0.0328253,-1.7974,757.173,-0.0878524,
2,0,0,1,1,40598.9,-0.0770519,-0.0774371,-4.19463,21,-0.00167284,10,0.00032482,-2.37731,-0.0169594,-3.47889,546.75,-0.0774371,
2,1,0,1,1,40599,-0.0666562,-0.0670281,0.76144,21,-0.0017142,10,-5.10379e-05,-3.11836,0.0125069,4.71741,415.031,-0.0670281,
2,1,0,1,1,40599,-0.0562576,-0.056705,4.60721,21,-0.001642,10,-0.000261252,-2.33656,0.0313714,1.88069,330.669,-0.056705,
2,1,0,1,1,40599,-0.0458563,-0.0463025,7.69874,21,-0.00148012,10,-0.000356471,-2.11358,0.0661523,0.891882,265.971,-0.0463025,
2,1,0,1,1,40599,-0.0354522,-0.035867,10.1766,21,-0.00124637,10,-0.000365003,-1.9924,0.110165,0.535562,211.489,-0.035867,
2,1,0,1,1,40599.1,-0.0250564,-0.0254718,12.1173,21,-0.000955386,10,-0.00030865,-1.91659,0.168123,0.350934,165.684,-0.0254718,
2,1,0,1,1,40599.1,-0.0146579,-0.0150067,13.6583,21,-0.000619269,10,-0.000204965,-1.8646,0.239496,0.246351,131.212,-0.0150067,
2,1,0,1,1,40599.1,-0.00425653,-0.00461361,14.8725,21,-0.00024759,10,-6.8616e-05,-1.82762,0.336095,0.175546,101.749,-0.00461361,
2,1,0,0,1,40599.1,-7.54729e-05,-0.000554371,15.2684,21,-8.92399e-05,10,-8.46437e-06,-1.81621, , , ,-0.000554371,