File: Figure_codes/Fig_3-5/rawdata_trumpetplot_data/after 10th/20221101_1-115_003_TrumpetPlot_ParaChange_from10_every3_10_CV_C01_4.csv
mode,ox/red,error,control changes,counter inc.,time/s,control/V,Ewe/V,<I>/mA,cycle number,(Q-Qo)/C,I Range,P/W,log(|I|),Tafel slope mV/dec,alpha_eff,dI/d(E-IR),E-IR/V,
2,1,0,0,0,9071.04,-2.44065e-05,-0.000306236,5.32532,5,0.0000000E+000,10,-1.63081e-06,-2.27365, , , ,-0.000306236,
2,1,0,1,0,9071.09,0.00977853,0.00942916,8.65765,5,0.000360322,10,8.16344e-05,-2.0626,0.111702,0.528193,177.779,0.00942916,
2,1,0,1,0,9071.14,0.0197755,0.0194387,9.84616,5,0.000826562,10,0.000191397,-2.00673,0.263917,0.223555,85.8166,0.0194387,
2,1,0,1,0,9071.19,0.0297726,0.0294405,10.5868,5,0.0013383,10,0.00031168,-1.97524,0.36624,0.161096,66.5832,0.0294405,
2,1,0,1,0,9071.24,0.0397514,0.0393866,11.2871,5,0.00188411,10,0.000444561,-1.94742,0.335988,0.175602,77.3645,0.0393866,
2,1,0,1,0,9071.29,0.0497393,0.0494379,12.0504,5,0.00246612,10,0.000595747,-1.919,0.355872,0.16579,77.9237,0.0494379,
2,1,0,1,0,9071.34,0.0597364,0.0593937,12.8555,5,0.00308842,10,0.000763538,-1.89091,0.348653,0.169223,84.8311,0.0593937,
2,1,0,1,0,9071.39,0.0697152,0.0693999,13.6566,5,0.00374979,10,0.000947764,-1.86466,0.380107,0.15522,82.7503,0.0693999,
2,1,0,1,0,9071.44,0.0796941,0.0793625,14.465,5,0.00445188,10,0.00114798,-1.83968,0.421341,0.140029,79.0122,0.0793625,
2,1,0,1,0,9071.49,0.0896911,0.0893634,15.1966,5,0.00519404,10,0.00135802,-1.81825,0.477916,0.123453,73.3036,0.0893634,
2,1,0,1,0,9071.54,0.099679,0.0993606,15.9483,5,0.00597094,10,0.00158464,-1.79728,0.466365,0.12651,78.6511,0.0993606,
2,1,0,1,0,9071.59,0.109658,0.109374,16.8388,5,0.00678767,10,0.00184172,-1.77369,0.359473,0.164129,107.953,0.109374,
2,1,0,1,0,9071.64,0.119655,0.119299,18.0978,5,0.00765975,10,0.00215905,-1.74237,0.307553,0.191837,135.415,0.119299,
2,1,0,1,0,9071.69,0.129652,0.129324,19.4857,5,0.00859955,10,0.00251995,-1.71028,0.32786,0.179955,136.81,0.129324,
2,1,0,1,0,9071.74,0.139631,0.139352,20.7213,5,0.00960412,10,0.00288757,-1.68358,0.435379,0.135514,109.558,0.139352,
2,1,0,1,0,9071.79,0.149619,0.149292,21.678,5,0.0106633,10,0.00323635,-1.66398,0.662771,0.0890203,75.2251,0.149292,
2,1,0,1,0,9071.84,0.159616,0.159334,21.8881,5,0.0117573,10,0.00348751,-1.65979,-0.852042,-0.0692454,-59.0402,0.159334,
2,1,0,1,0,9071.89,0.169595,0.169252,20.1005,5,0.0128155,10,0.00340205,-1.69679,-0.147767,-0.399277,-312.34,0.169252,
2,1,0,1,0,9071.94,0.179573,0.179265,16.2264,5,0.0137254,10,0.00290884,-1.78978,-0.0925342,-0.637602,-403.932,0.1792655,
2,1,0,1,0,9071.99,0.18957,0.189254,12.8625,5,0.0144459,10,0.00243429,-1.89067,-0.118117,-0.499505,-251.221,0.189254,
2,1,0,1,0,9072.04,0.199558,0.199231,10.9966,5,0.0150359,10,0.00219086,-1.95874,-0.197978,-0.298012,-128.013,0.199231,
2,1,0,1,0,9072.09,0.209537,0.209266,9.99854,5,0.0155572,10,0.00209235,-2.00006,-0.272308,-0.216666,-84.568,0.209266,
2,1,0,1,0,9072.14,0.219534,0.21924,9.34838,5,0.0160395,10,0.00204954,-2.02926,-0.416653,-0.141605,-51.6929,0.21924,
2,1,0,1,0,9072.19,0.229531,0.229192,8.8905,5,0.0164952,10,0.00203763,-2.05107,-0.502309,-0.117458,-40.8036,0.229192,
2,1,0,1,0,9072.24,0.23951,0.23919,8.56643,5,0.0169307,10,0.00204901,-2.0672,-0.756913,-0.0779482,-26.0747,0.2391903,
2,1,0,1,0,9072.29,0.249498,0.249196,8.30746,5,0.0173516,10,0.00207019,-2.08053,-0.801612,-0.0736016,-23.867,0.249196,
2,1,0,1,0,9072.34,0.259495,0.259178,8.10034,5,0.0177616,10,0.00209943,-2.0915,-0.85227,-0.0692269,-21.8884,0.259178,
2,1,0,1,0,9072.39,0.269474,0.269169,7.92223,5,0.0181613,10,0.00213241,-2.10115,-1.12485,-0.0524515,-16.2312,0.269169,
2,1,0,1,0,9072.44,0.279453,0.279123,7.76552,5,0.018553,10,0.00216754,-2.10983,-1.26758,-0.0465455,-14.1169,0.2791234,
2,1,0,1,0,9072.49,0.28945,0.289175,7.62997,5,0.018938,10,0.0022064,-2.11748,-1.62499,-0.0363079,-10.8072,0.289175,
2,1,0,1,0,9072.54,0.299438,0.299144,7.50272,5,0.0193154,10,0.00224439,-2.12478,-0.0509493,-1.15802,-322.762,0.299144,
2,0,0,1,0,9072.58,0.291747,0.291441,-0.98715,5,0.0194133,10,-0.000287696,-3.00562,-0.00374172,-15.7681,370.958,0.291441,
2,0,0,1,0,9072.63,0.28175,0.281403,-2.89195,5,0.019306,10,-0.000813805,-2.53881,-0.0642303,-0.918569,102.3,0.281403,
2,0,0,1,0,9072.68,0.27178,0.271462,-3.60915,5,0.0191422,10,-0.000979745,-2.4426,-0.135369,-0.435845,61.5235,0.271462,
2,0,0,1,0,9072.73,0.261783,0.261465,-4.10173,5,0.0189486,10,-0.00107246,-2.38703,-0.230392,-0.256085,40.8761,0.261465,
2,0,0,1,0,9072.78,0.251786,0.251459,-4.464,5,0.018734,10,-0.00112251,-2.35028,-0.283305,-0.208256,36.3794,0.251459,
2,0,0,1,0,9072.83,0.241807,0.241502,-4.78837,5,0.0185025,10,-0.0011564,-2.31981,-0.359504,-0.164115,30.7103,0.241502,
2,0,0,1,0,9072.88,0.231824,0.23153,-5.07897,5,0.0182562,10,-0.00117594,-2.29422,-0.387683,-0.152186,30.1735,0.23153,
2,0,0,1,0,9072.93,0.221822,0.221553,-5.35543,5,0.0179954,10,-0.00118651,-2.27121,-0.463977,-0.127162,26.4978,0.2215526,
2,0,0,1,0,9072.98,0.211844,0.211545,-5.61268,5,0.0177218,10,-0.00118733,-2.25083,-0.538109,-0.109643,24.0516,0.211545,
2,0,0,1,0,9073.03,0.201865,0.201531,-5.89558,5,0.0174346,10,-0.00118814,-2.22947,-0.491958,-0.119929,27.5697,0.201531,
2,0,0,1,0,9073.08,0.191868,0.191573,-6.18787,5,0.0171323,10,-0.00118543,-2.20846,-0.39359,-0.149902,36.3291,0.191573,
2,0,0,1,0,9073.13,0.18188,0.181612,-6.57498,5,0.0168143,10,-0.00119409,-2.18211,-0.33586,-0.175668,44.9566,0.181612,
2,0,0,1,0,9073.18,0.171901,0.171619,-7.03574,5,0.0164755,10,-0.00120747,-2.15269,-0.29448,-0.200353,55.0494,0.171619,
2,0,0,1,0,9073.23,0.161904,0.161611,-7.71968,5,0.0161078,10,-0.00124758,-2.1124,-0.210176,-0.280717,84.5452,0.161611,
2,0,0,1,0,9073.28,0.151907,0.151606,-8.76546,5,0.0156974,10,-0.0013289,-2.05723,-0.15423,-0.382545,131.276,0.151606,
2,0,0,1,0,9073.33,0.141928,0.141646,-10.4988,5,0.0152198,10,-0.00148712,-1.97886,-0.110178,-0.535498,219.629,0.141646,
2,0,0,1,0,9073.38,0.13194,0.13165,-13.0206,5,0.0146353,10,-0.00171415,-1.88537,-0.107616,-0.548245,278.679,0.13165,
2,0,0,1,0,9073.43,0.121943,0.121687,-15.8699,5,0.0139125,10,-0.00193116,-1.79942,-0.130347,-0.452639,279.681,0.121687,
2,0,0,1,0,9073.48,0.111964,0.111689,-18.34,5,0.0130558,10,-0.00204836,-1.7366,-0.198511,-0.297213,212.57,0.111689,
2,0,0,1,0,9073.53,0.101985,0.101739,-20.0698,5,0.0120941,10,-0.00204188,-1.69746,-0.357475,-0.165046,129.099,0.101739,
2,0,0,1,0,9073.58,0.0919883,0.0916426,-20.9062,5,0.0110654,10,-0.0019159,-1.67972,-1.18033,-0.0499862,40.7863,0.0916426,
2,0,0,1,0,9073.63,0.0820004,0.0817231,-20.7762,5,0.0100208,10,-0.00169789,-1.68243,0.770153,0.0766081,-62.0394,0.0817231,
2,0,0,1,0,9073.68,0.0720215,0.0716634,-19.8196,5,0.00900589,10,-0.00142034,-1.7029,0.397132,0.148565,-114.931,0.0716634,
2,0,0,1,0,9073.73,0.0620245,0.0616755,-18.7314,5,0.0080432,10,-0.00115527,-1.72743,0.431999,0.136574,-99.8225,0.0616755,
2,0,0,1,0,9073.78,0.0520275,0.051672,-17.894,5,0.0071288,10,-0.000924618,-1.74729,0.548604,0.107546,-75.0944,0.051672,
2,0,0,1,0,9073.83,0.0420486,0.0417519,-17.2203,5,0.00625323,10,-0.000718981,-1.76396,0.652108,0.0904757,-60.8156,0.0417519,
2,0,0,1,0,9073.88,0.0320607,0.0317657,-16.5672,5,0.00541001,10,-0.000526269,-1.78075,0.558781,0.105587,-68.2654,0.0317657,
2,0,0,1,0,9073.93,0.0220637,0.0217561,-15.8261,5,0.00459957,10,-0.000344314,-1.80063,0.428595,0.137659,-84.9596,0.0217561,
2,0,0,1,0,9073.98,0.0120848,0.0117896,-14.9094,5,0.00383223,10,-0.000175775,-1.82654,0.330794,0.178359,-103.787,0.0117896,
2,0,0,1,0,9074.03,0.00210598,0.00175172,-14.0267,5,0.00311251,10,-2.45709e-05,-1.85305,0.431086,0.136864,-74.6606,0.00175172,
2,0,0,1,0,9074.08,-0.00789103,-0.00827693,-13.2269,5,0.00243267,10,0.000109478,-1.87854,0.522152,0.112994,-58.4244,-0.008276931,
2,0,0,1,0,9074.13,-0.017879,-0.0182396,-12.838,5,0.00178368,10,0.00023416,-1.8915,1.22243,0.0482645,-24.1561,-0.0182396,
2,0,0,1,0,9074.18,-0.0278578,-0.0282241,-12.6883,5,0.00114801,10,0.000358114,-1.8966,7.66516,0.00769717,-3.81449,-0.0282241,
2,0,0,1,0,9074.23,-0.0378548,-0.0382562,-12.7702,5,0.000512232,10,0.000488538,-1.8938,-2.29124,-0.0257503,12.8274,-0.03825618,
2,0,0,1,0,9074.28,-0.0478519,-0.0481443,-12.9837,5,-0.000131234,10,0.000625089,-1.8866,-0.968048,-0.0609474,30.9063,-0.0481443,
2,0,0,1,0,9074.33,-0.0578126,-0.0581625,-13.321,5,-0.000785846,10,0.000774781,-1.87546,-0.784882,-0.0751705,39.0714,-0.0581625,
2,0,0,1,0,9074.38,-0.0678187,-0.0681981,-13.7532,5,-0.00146223,10,0.000937945,-1.8616,-0.630017,-0.0936483,50.2477,-0.0681981,
2,0,0,1,0,9074.43,-0.0778157,-0.078166,-14.2878,5,-0.00216277,10,0.00111682,-1.84503,-0.578885,-0.10192,56.8402,-0.078166,
2,0,0,1,0,9074.48,-0.0877945,-0.0881644,-14.9555,5,-0.00289177,10,0.00131855,-1.8252,-0.467579,-0.126182,73.6169,-0.0881644,
2,0,0,1,0,9074.53,-0.0977734,-0.0981557,-15.7065,5,-0.00365652,10,0.00154169,-1.80392,-0.42827,-0.137763,84.5042,-0.09815567,
2,0,0,1,1,9074.57,-0.0936874,-0.0940616,-5.42269,5,-0.00414115,10,0.000510067,-2.26579,-0.0111527,-5.29022,1098.68,-0.0940616,
2,1,0,1,1,9074.62,-0.0837086,-0.084097,2.01397,5,-0.00420172,10,-0.000169369,-2.69595,0.00795489,7.41682,508.887,-0.084097,
2,1,0,1,1,9074.67,-0.0737025,-0.0740458,5.82524,5,-0.00399605,10,-0.000431335,-2.23469,0.0467051,1.26324,284.527,-0.0740458,
2,1,0,1,1,9074.72,-0.0637236,-0.0640865,7.96826,5,-0.00364691,10,-0.000510658,-2.09864,0.11632,0.507221,157.128,-0.0640865,
2,1,0,1,1,9074.77,-0.0537447,-0.0540961,9.17743,5,-0.0032162,10,-0.000496463,-2.03728,0.240933,0.244882,87.6207,-0.0540961,
2,1,0,1,1,9074.82,-0.0437477,-0.0440743,9.86603,5,-0.00273832,10,-0.000434839,-2.00586,0.476558,0.123805,47.6163,-0.0440743,
2,1,0,1,1,9074.87,-0.0337507,-0.0341021,10.2203,5,-0.00223495,10,-0.000348532,-1.99054,0.951956,0.0619776,24.7282,-0.0341021,
2,1,0,1,1,9074.92,-0.0237809,-0.0241333,10.3827,5,-0.00172154,10,-0.000250568,-1.98369,2.31582,0.025477,10.305,-0.0241333,
2,1,0,1,1,9074.97,-0.0137839,-0.0141593,10.4034,5,-0.00120156,10,-0.000147305,-1.98282,-14.5572,-0.00405296,-1.6468,-0.0141593,
2,1,0,1,1,9075.02,-0.0037869,-0.00411416,10.4062,5,-0.000681266,10,-4.28127e-05,-1.98271,-35.6209,-0.00165633,-0.671804,-0.00411416,
2,1,0,1,1,9075.04,-2.55332e-05,-0.000363498,10.3748,5,-0.000486826,10,-3.77121e-06,-1.98402, , , ,-0.000363498,