File: Figure_codes/Fig_3-5/rawdata_trumpetplot_data/after 10th/20221101_1-115_003_TrumpetPlot_ParaChange_from10_every3_13_CV_C01_21.csv
mode,ox/red,error,control changes,counter inc.,time/s,control/V,Ewe/V,<I>/mA,cycle number,(Q-Qo)/C,I Range,P/W,log(|I|),Tafel slope mV/dec,alpha_eff,dI/d(E-IR),E-IR/V,
2,1,0,1,0,42570.6,2.44065e-05,-0.000268062,17.6771,22,0.0000000E+000,10,-4.73854e-06,-1.75259, , , ,-0.000268062,
2,1,0,1,0,42570.6,0.0122624,0.0118842,21.7842,22,0.000303289,10,0.000258888,-1.66186,0.196321,0.300529,253.67,0.0118842,
2,1,0,1,0,42570.6,0.0250636,0.0246536,24.6332,22,0.000675865,10,0.000607297,-1.60848,0.281957,0.209252,200.502,0.0246536,
2,1,0,1,0,42570.6,0.0378704,0.0375269,27.0102,22,0.00108964,10,0.00101361,-1.56847,0.358448,0.164598,173.124,0.0375269,
2,1,0,1,0,42570.7,0.0506632,0.0503282,29.1166,22,0.00153902,10,0.00146538,-1.53586,0.418826,0.14087,159.898,0.0503282,
2,1,0,1,0,42570.7,0.0634672,0.063122,31.1032,22,0.00202114,10,0.0019633,-1.50719,0.463376,0.127327,154.528,0.063122,
2,1,0,1,0,42570.7,0.0762628,0.07592,33.0754,22,0.00253495,10,0.00251108,-1.4805,0.492488,0.1198,154.655,0.07592,
2,1,0,1,0,42570.7,0.0890668,0.0887022,35.0868,22,0.00308045,10,0.00311228,-1.45486,0.510995,0.115461,158.07,0.0887022,
2,1,0,1,0,42570.7,0.10186,0.101529,37.1302,22,0.00365835,10,0.00376979,-1.43027,0.530448,0.111227,161.142,0.101529,
2,1,0,1,0,42570.7,0.114666,0.114262,39.2145,22,0.00426928,10,0.00448074,-1.40655,0.542223,0.108811,166.533,0.1142622,
2,1,0,1,0,42570.8,0.127462,0.127049,41.3909,22,0.00491421,10,0.00525865,-1.3831,0.542317,0.108793,175.782,0.1270486,
2,1,0,1,0,42570.8,0.140263,0.139831,43.665,22,0.00559504,10,0.00610571,-1.35987,0.535064,0.110267,188.192,0.139831,
2,1,0,1,0,42570.8,0.153064,0.152668,46.2282,22,0.0063144,10,0.00705757,-1.33509,0.548561,0.107554,193.843,0.152668,
2,1,0,1,0,42570.8,0.165866,0.165502,48.6176,22,0.00707364,10,0.00804632,-1.31321,0.62824,0.0939131,177.996,0.1655021,
2,1,0,1,0,42570.8,0.178667,0.178279,50.7126,22,0.00786897,10,0.00904099,-1.29488,0.799447,0.073801,145.855,0.178279,
2,1,0,1,0,42570.8,0.191463,0.191061,52.2496,22,0.00869398,10,0.00998286,-1.28192,1.35384,0.0435797,88.6876,0.191061,
2,1,0,1,0,42570.8,0.204269,0.203895,52.9036,22,0.00953676,10,0.0107868,-1.27651,17.5331,0.00336506,6.92895,0.203895,
2,1,0,1,0,42570.9,0.217062,0.216737,52.434,22,0.0103809,10,0.0113644,-1.28039,-1.49588,-0.0394416,-80.4856,0.2167367,
2,1,0,1,0,42570.9,0.229866,0.229525,50.8631,22,0.0112086,10,0.0116744,-1.2936,-0.725001,-0.0813792,-161.136,0.229525,
2,1,0,1,0,42570.9,0.242662,0.242319,48.3471,22,0.0120031,10,0.0117154,-1.31563,-0.498811,-0.118281,-222.816,0.242319,
2,1,0,1,0,42570.9,0.255466,0.255133,45.2615,22,0.0127523,10,0.0115477,-1.34427,-0.417795,-0.141218,-249.314,0.255133,
2,1,0,1,0,42570.9,0.268259,0.267959,42.059,22,0.0134505,10,0.0112701,-1.37614,-0.396494,-0.148804,-244.333,0.267959,
2,1,0,1,0,42570.9,0.281065,0.280722,39.0763,22,0.014099,10,0.0109696,-1.40809,-0.410811,-0.143618,-219.202,0.280722,
2,1,0,1,0,42571,0.293861,0.293498,36.4605,22,0.0147026,10,0.0107011,-1.43818,-0.443701,-0.132972,-189.736,0.293498,
2,1,0,1,0,42571,0.298983,0.298782,33.1213,22,0.0150225,10,0.00989605,-1.47989,0.0409381,1.4412,1649.02,0.298782,
2,1,0,1,0,42571,0.286187,0.285918,17.5834,22,0.0154114,10,0.00502739,-1.7549,0.0452851,1.30286,895.15,0.285918,
2,1,0,1,0,42571,0.273386,0.273121,8.29347,22,0.0156127,10,0.00226512,-2.08126,0.0305471,1.93144,602.921,0.273121,
2,1,0,1,0,42571,0.260585,0.260278,1.72771,22,0.0156893,10,0.000449686,-2.76253,0.0174966,3.37208,439.005,0.260278,
2,0,0,1,0,42571,0.247783,0.247496,-3.15387,22,0.0156756,10,-0.000780569,-2.50116,-0.0167144,-3.52989,332.581,0.2474959,
2,0,0,1,0,42571.1,0.234982,0.234707,-6.90967,22,0.0155935,10,-0.00162175,-2.16054,-0.0588717,-1.00218,260.866,0.234707,
2,0,0,1,0,42571.1,0.222187,0.22186,-9.88966,22,0.0154579,10,-0.00219411,-2.00482,-0.107028,-0.55126,209.909,0.22186,
2,0,0,1,0,42571.1,0.20938,0.20907,-12.3227,22,0.0152793,10,-0.0025763,-1.9093,-0.161271,-0.365844,174.914,0.20907,
2,0,0,1,0,42571.1,0.196587,0.196274,-14.3864,22,0.0150649,10,-0.00282367,-1.84205,-0.221379,-0.266512,149.179,0.196274,
2,0,0,1,0,42571.1,0.183783,0.183475,-16.211,22,0.0148196,10,-0.00297431,-1.79019,-0.274112,-0.21524,135.864,0.1834749,
2,0,0,1,0,42571.1,0.170987,0.170675,-17.8812,22,0.0145466,10,-0.00305187,-1.7476,-0.315822,-0.186814,130.312,0.170675,
2,0,0,1,0,42571.1,0.158183,0.157861,-19.5887,22,0.0142468,10,-0.00309229,-1.70799,-0.323031,-0.182645,139.719,0.157861,
2,0,0,1,0,42571.2,0.145385,0.145054,-21.5056,22,0.0139182,10,-0.00311948,-1.66745,-0.294882,-0.20008,168.43,0.145054,
2,0,0,1,0,42571.2,0.132584,0.132307,-23.9848,22,0.0135547,10,-0.00317336,-1.62006,-0.248301,-0.237615,223.213,0.132307,
2,0,0,1,0,42571.2,0.119783,0.119525,-27.2821,22,0.0131454,10,-0.00326089,-1.56412,-0.216109,-0.27301,291.315,0.119525,
2,0,0,1,0,42571.2,0.106987,0.1067,-31.3118,22,0.0126768,10,-0.00334099,-1.50429,-0.220968,-0.267007,325.891,0.1067,
2,0,0,1,0,42571.2,0.0941801,0.0939109,-35.5038,22,0.0121418,10,-0.0033342,-1.44972,-0.258659,-0.2281,314.969,0.09391088,
2,0,0,1,0,42571.2,0.0813844,0.0811393,-39.3712,22,0.0115422,10,-0.00319455,-1.40482,-0.311572,-0.189362,290.13,0.0811393,
2,0,0,1,0,42571.3,0.0685832,0.0683381,-42.7356,22,0.010884,10,-0.00292047,-1.36921,-0.41995,-0.140493,233.713,0.0683381,
2,0,0,1,0,42571.3,0.0557876,0.0555295,-45.376,22,0.0101779,10,-0.00251971,-1.34317,-0.579568,-0.1018,179.898,0.0555295,
2,0,0,1,0,42571.3,0.0429808,0.0426932,-47.3738,22,0.00943485,10,-0.00202254,-1.32446,-0.830994,-0.0709993,130.994,0.0426932,
2,0,0,1,0,42571.3,0.030188,0.0298475,-48.7328,22,0.00866513,10,-0.00145455,-1.31218,-1.28923,-0.0457638,86.9368,0.02984748,
2,0,0,1,0,42571.3,0.017384,0.0170187,-49.6033,22,0.00787755,10,-0.000844184,-1.30449,-2.20517,-0.0267554,51.7575,0.0170187,
2,0,0,1,0,42571.3,0.00458834,0.00428108,-50.0673,22,0.00707941,10,-0.000214342,-1.30045,-5.02638,-0.0117381,22.9264,0.00428108,
2,0,0,1,0,42571.4,-0.00821564,-0.00855302,-50.1802,22,0.00627661,10,0.000429192,-1.29947,11.2354,0.00525126,-10.2732,-0.00855302,
2,0,0,1,0,42571.4,-0.0210196,-0.0214115,-49.8688,22,0.00547586,10,0.00106777,-1.30217,3.01342,0.0195791,-38.0668,-0.0214115,
2,0,0,1,0,42571.4,-0.0338153,-0.0342223,-49.2206,22,0.00468279,10,0.00168444,-1.30785,1.96071,0.0300911,-57.7841,-0.0342223,
2,0,0,1,0,42571.4,-0.0466193,-0.0469981,-48.3953,22,0.00390167,10,0.00227449,-1.3152,1.62942,0.0362092,-68.3896,-0.04699808,
2,0,0,1,0,42571.4,-0.0594121,-0.0598099,-47.5351,22,0.00313427,10,0.00284307,-1.32299,1.71755,0.0343512,-63.7459,-0.0598099,
2,0,0,1,0,42571.4,-0.0722189,-0.0725868,-46.8033,22,0.00237989,10,0.0033973,-1.32972,2.12005,0.0278295,-50.8473,-0.07258676,
2,0,0,1,0,42571.5,-0.0850146,-0.0853806,-46.2512,22,0.00163584,10,0.00394895,-1.33488,3.29805,0.0178894,-32.3147,-0.0853806,
2,0,0,1,0,42571.5,-0.0978158,-0.0981935,-45.9652,22,0.000898388,10,0.00451348,-1.33757,9.50554,0.00620691,-11.1447,-0.0981935,
2,0,0,1,0,42571.5,-0.110611,-0.111016,-45.9356,22,0.000163372,10,0.00509959,-1.33785,-14.2022,-0.00415428,7.45531,-0.1110159,
2,0,0,1,0,42571.5,-0.123418,-0.123738,-46.1749,22,-0.000573406,10,0.00571357,-1.33559,-3.84009,-0.0153642,27.7077,-0.1237376,
2,0,0,1,0,42571.5,-0.136214,-0.136574,-46.6399,22,-0.00131574,10,0.00636979,-1.33124,-2.56421,-0.0230091,41.8946,-0.136574,
2,0,0,1,0,42571.5,-0.149015,-0.14936,-47.2577,22,-0.00206682,10,0.00705843,-1.32553,-2.07149,-0.0284819,52.5301,-0.14936,
2,0,0,1,0,42571.5,-0.161816,-0.162159,-47.9404,22,-0.00282845,10,0.00777399,-1.3193,-2.05154,-0.0287589,53.803,-0.162159,
2,0,0,1,0,42571.6,-0.174615,-0.174925,-48.5995,22,-0.00360099,10,0.00850125,-1.31337,-2.31039,-0.0255368,48.4268,-0.174925,
2,0,0,1,0,42571.6,-0.187419,-0.187804,-49.1865,22,-0.00438354,10,0.00923743,-1.30815,-2.66721,-0.0221205,42.4506,-0.187804,
2,0,0,1,0,42571.6,-0.199647,-0.199964,-49.6612,22,-0.00513998,10,0.00993048,-1.30398,0.243537,0.242263,-455.983,-0.1999644,
2,0,0,1,1,42571.6,-0.192535,-0.192987,-37.4804,22,-0.00557532,10,0.00723324,-1.4262,-0.070211,-0.840324,1258.53,-0.192987,
2,0,0,1,1,42571.6,-0.179739,-0.180139,-25.4845,22,-0.00607113,10,0.00459074,-1.59372,-0.0759429,-0.7769,774.435,-0.180139,
2,0,0,1,1,42571.6,-0.166932,-0.167375,-16.8118,22,-0.00640576,10,0.00281388,-1.77439,-0.0633573,-0.931227,607.08,-0.167375,
2,0,0,1,1,42571.7,-0.154139,-0.154529,-9.78365,22,-0.0066161,10,0.00151185,-2.0095,-0.0434021,-1.35938,506.067,-0.154529,
2,0,0,1,1,42571.7,-0.141335,-0.14179,-3.78333,22,-0.00672279,10,0.000536438,-2.42213,-0.0160033,-3.68675,438.239,-0.14179,
2,1,0,1,1,42571.7,-0.12854,-0.128982,1.49765,22,-0.00673965,10,-0.00019317,-2.82459,0.0223918,2.63489,389.761,-0.128982,
2,1,0,1,1,42571.7,-0.115736,-0.116195,6.24167,22,-0.00667665,10,-0.00072525,-2.2047,0.0382285,1.54335,355.597,-0.116195,
2,1,0,1,1,42571.7,-0.102932,-0.103373,10.5932,22,-0.00654116,10,-0.00109504,-1.97497,0.0738074,0.799377,324.539,-0.1033725,
2,1,0,1,1,42571.7,-0.0901361,-0.0905278,14.5777,22,-0.00633893,10,-0.00131969,-1.83631,0.111202,0.530567,299.412,-0.0905278,
2,1,0,1,1,42571.7,-0.0773322,-0.0777615,18.254,22,-0.0060754,10,-0.00141946,-1.73864,0.153091,0.385391,273.11,-0.0777615,
2,1,0,1,1,42571.8,-0.0645393,-0.064937,21.6206,22,-0.00575572,10,-0.00140398,-1.66513,0.196863,0.299701,251.859,-0.064937,
2,1,0,1,1,42571.8,-0.0517325,-0.052123,24.6995,22,-0.00538453,10,-0.00128741,-1.60731,0.246946,0.238919,229.642,-0.052123,
2,1,0,1,1,42571.8,-0.0389369,-0.0393207,27.4947,22,-0.00496632,10,-0.00108111,-1.56075,0.302834,0.194826,208.652,-0.03932073,
2,1,0,1,1,42571.8,-0.0261357,-0.0265354,30.0077,22,-0.00450559,10,-0.000796266,-1.52277,0.374089,0.157717,184.441,-0.0265354,
2,1,0,1,1,42571.8,-0.01334,-0.0137352,32.2345,22,-0.00400694,10,-0.000442749,-1.49168,0.455294,0.129587,162.826,-0.0137352,
2,1,0,1,1,42571.8,-0.000774628,-0.0011938,34.1623,22,-0.00348521,10,-4.07829e-05,-1.46645, , , ,-0.0011938,
2,1,0,0,1,42571.8,-0.000125413,-0.000516197,34.2635,22,-0.00345785,10,-1.76867e-05,-1.46517, , , ,-0.000516197,