File: Figure_codes/Fig_3-5/rawdata_trumpetplot_data/after 10th/20221101_1-115_003_TrumpetPlot_ParaChange_from10_every3_07_CV_C01_11.csv
mode,ox/red,error,control changes,counter inc.,time/s,control/V,Ewe/V,<I>/mA,cycle number,(Q-Qo)/C,I Range,P/W,log(|I|),Tafel slope mV/dec,alpha_eff,dI/d(E-IR),E-IR/V,
2,0,0,0,0,22836.5,2.44065e-05,-0.000344411,-2.73193,12,0.0000000E+000,10,9.40906e-07,-2.56353, , , ,-0.000344411,
2,1,0,1,0,22836.6,0.007288,0.00696327,1.48039,12,2.38042e-05,10,1.03083e-05,-2.82962,0.0174747,3.37631,181.233,0.00696327,
2,1,0,1,0,22836.7,0.0147816,0.0144694,2.22213,12,0.000265681,10,3.2153e-05,-2.65323,0.0815072,0.723862,62.5757,0.01446941,
2,1,0,1,0,22836.8,0.0222712,0.021954,2.58022,12,0.000569534,10,5.66461e-05,-2.58834,0.15565,0.379056,38.2134,0.021954,
2,1,0,1,0,22836.9,0.0297648,0.0294645,2.87021,12,0.000912217,10,8.45693e-05,-2.54209,0.178009,0.331445,36.9799,0.0294645,
2,1,0,1,0,22837.1,0.0372518,0.0369414,3.13515,12,0.00128887,10,0.000115817,-2.50374,0.205318,0.287359,35.1443,0.0369414,
2,1,0,1,0,22837.2,0.0447467,0.044462,3.39554,12,0.00169901,10,0.000150972,-2.46909,0.21258,0.277542,36.8268,0.044462,
2,1,0,1,0,22837.3,0.052235,0.0519231,3.64486,12,0.00214101,10,0.000189253,-2.43832,0.259275,0.227558,32.424,0.0519231,
2,1,0,1,0,22837.4,0.0597299,0.0593999,3.89155,12,0.00261424,10,0.000231158,-2.40988,0.296996,0.198656,30.1176,0.0593999,
2,1,0,1,0,22837.6,0.0672156,0.06691,4.11386,12,0.00311567,10,0.000275259,-2.38575,0.291467,0.202424,32.4274,0.06691,
2,1,0,1,0,22837.7,0.0747105,0.0744203,4.304,12,0.00364371,10,0.000320305,-2.36613,0.394418,0.149588,25.1642,0.0744203,
2,1,0,1,0,22837.8,0.0821988,0.081915,4.46688,12,0.00419408,10,0.000365905,-2.35,0.577147,0.102227,17.8577,0.081915,
2,1,0,1,0,22837.9,0.0896937,0.0893414,4.64645,12,0.00476515,10,0.00041512,-2.33288,0.491209,0.120112,21.7671,0.0893414,
2,1,0,1,0,22838.1,0.0971794,0.096855,4.85887,12,0.0053589,10,0.000470606,-2.31346,0.28039,0.210421,39.8642,0.096855,
2,1,0,1,0,22838.2,0.104674,0.104336,5.18899,12,0.00598705,10,0.000541399,-2.28492,0.221221,0.266702,54.0651,0.1043361,
2,1,0,1,0,22838.3,0.112163,0.111808,5.60787,12,0.00666273,10,0.000627002,-2.2512,0.23411,0.252019,55.1589,0.1118075,
2,1,0,1,0,22838.4,0.119657,0.119361,6.02006,12,0.00739184,10,0.00071856,-2.2204,0.320197,0.184262,43.1977,0.119361,
2,1,0,1,0,22838.6,0.127143,0.126836,6.29312,12,0.0081634,10,0.000798194,-2.20113,0.470359,0.125436,30.8085,0.1268359,
2,1,0,1,0,22838.7,0.134638,0.134306,6.48994,12,0.00896494,10,0.000871635,-2.18776,0.658966,0.0895342,22.6991,0.134306,
2,1,0,1,0,22838.8,0.142126,0.141748,6.57054,12,0.00978491,10,0.00093136,-2.1824,-2.02625,-0.0291179,-7.45485,0.141748,
2,1,0,1,0,22838.9,0.149621,0.149327,6.23508,12,0.0105933,10,0.000931063,-2.20516,-0.157825,-0.373831,-90.4628,0.1493265,
2,1,0,1,0,22839.1,0.157107,0.156812,5.28282,12,0.0113182,10,0.000828408,-2.27713,-0.0820082,-0.71944,-147.898,0.156812,
2,1,0,1,0,22839.2,0.164602,0.164283,4.24773,12,0.0119123,10,0.000697828,-2.37184,-0.0842321,-0.700446,-116.372,0.164283,
2,1,0,1,0,22839.3,0.17209,0.171759,3.55995,12,0.0123986,10,0.000611455,-2.44856,-0.120117,-0.491188,-68.7047,0.171759,
2,1,0,1,0,22839.4,0.179585,0.179308,3.17592,12,0.0128201,10,0.000569468,-2.49813,-0.176807,-0.333697,-41.467,0.179308,
2,1,0,1,0,22839.6,0.187072,0.186776,2.94713,12,0.0132029,10,0.000550454,-2.5306,-0.270382,-0.218209,-25.0354,0.186776,
2,1,0,1,0,22839.7,0.194566,0.194273,2.79512,12,0.0135625,10,0.000543017,-2.5536,-0.476526,-0.123813,-13.5119,0.194273,
2,1,0,1,0,22839.8,0.202055,0.201719,2.69282,12,0.0139068,10,0.000543192,-2.56979,-0.527872,-0.11177,-11.7594,0.201719,
2,1,0,1,0,22839.9,0.209549,0.209239,2.63278,12,0.0142412,10,0.00055088,-2.57959,-0.509848,-0.115721,-11.8586,0.209239,
2,1,0,1,0,22840.1,0.217036,0.216746,2.57429,12,0.0145678,10,0.000557968,-2.58934,-1.15664,-0.0510099,-5.12913,0.216746,
2,1,0,1,0,22840.2,0.224529,0.22425,2.53545,12,0.0148892,10,0.000568575,-2.59595,-1.88607,-0.031282,-3.09948,0.22425,
2,1,0,1,0,22840.3,0.232019,0.231737,2.50082,12,0.0152059,10,0.000579535,-2.60192,-1.10484,-0.0534016,-5.22462,0.231737,
2,1,0,1,0,22840.4,0.239513,0.239216,2.47884,12,0.0155194,10,0.000592979,-2.60575,-1.27704,-0.0462007,-4.46561,0.239216,
2,1,0,1,0,22840.6,0.247001,0.246717,2.46554,12,0.0158297,10,0.000608292,-2.60809,-1.60066,-0.0368597,-3.52946,0.246717,
2,1,0,1,0,22840.7,0.254493,0.254198,2.43225,12,0.0161374,10,0.000618274,-2.61399,-7.28361,-0.00810038,-0.770773,0.254198,
2,1,0,1,0,22840.8,0.261983,0.261679,2.41179,12,0.0164422,10,0.000631116,-2.61766,-2.39745,-0.0246094,-2.3247,0.261679,
2,1,0,1,0,22840.9,0.269477,0.26916,2.39745,12,0.0167447,10,0.000645298,-2.62025,-1.77557,-0.0332288,-3.1029,0.26916,
2,1,0,1,0,22841.1,0.276965,0.276657,2.37662,12,0.0170445,10,0.000657508,-2.62404,-1.6861,-0.0349919,-3.24192,0.276657,
2,1,0,1,0,22841.2,0.284457,0.284167,2.35177,12,0.0173417,10,0.000668298,-2.6286,-14.2093,-0.0041522,-0.381329,0.284167,
2,1,0,1,0,22841.3,0.291947,0.291622,2.32518,12,0.017636,10,0.000678072,-2.63354,-1.98851,-0.0296704,-2.70002,0.291622,
2,1,0,1,0,22841.4,0.29944,0.299138,2.30793,12,0.0179277,10,0.00069039,-2.63678,-0.00622693,-9.47497,-615.874,0.299138,
2,0,0,1,0,22841.6,0.293742,0.293414,-0.593649,12,0.017962,10,-0.000174185,-3.22647,-0.0125603,-4.69735,94.441,0.293414,
2,0,0,1,0,22841.7,0.286254,0.285916,-0.956547,12,0.0178591,10,-0.000273492,-3.01929,-0.0701292,-0.841304,31.2958,0.285916,
2,0,0,1,0,22841.8,0.278761,0.278443,-1.1331,12,0.0177253,10,-0.000315505,-2.94573,-0.132303,-0.445945,19.7915,0.278443,
2,0,0,1,0,22841.9,0.271272,0.270947,-1.2639,12,0.0175727,10,-0.000342452,-2.89829,-0.191465,-0.30815,15.2292,0.270947,
2,0,0,1,0,22842.1,0.263778,0.263472,-1.37701,12,0.0174055,10,-0.000362804,-2.86106,-0.240344,-0.245481,13.1135,0.263472,
2,0,0,1,0,22842.2,0.25629,0.255983,-1.46439,12,0.0172265,10,-0.000374858,-2.83434,-0.295843,-0.19943,11.3182,0.255983,
2,0,0,1,0,22842.3,0.248797,0.248469,-1.52992,12,0.017037,10,-0.000380138,-2.81533,-0.3407,-0.173173,10.404,0.248469,
2,0,0,1,0,22842.4,0.241308,0.240981,-1.60518,12,0.0168383,10,-0.000386819,-2.79448,-0.438495,-0.134551,8.46228,0.240981,
2,0,0,1,0,22842.6,0.233814,0.233497,-1.68199,12,0.0166308,10,-0.00039274,-2.77418,-0.526171,-0.112131,7.31917,0.233497,
2,0,0,1,0,22842.7,0.226326,0.226049,-1.74711,12,0.0164152,10,-0.000394932,-2.75768,-0.406538,-0.145128,9.85225,0.226049,
2,0,0,1,0,22842.8,0.218834,0.218514,-1.80104,12,0.0161916,10,-0.000393551,-2.74448,-0.333468,-0.176928,12.4947,0.218514,
2,0,0,1,0,22842.9,0.211344,0.211056,-1.86892,12,0.0159602,10,-0.000394448,-2.72841,-0.695896,-0.0847828,6.18237,0.211056,
2,0,0,1,0,22843.1,0.203856,0.203561,-1.93834,12,0.0157206,10,-0.00039457,-2.71257,-0.664141,-0.0888366,6.70584,0.203561,
2,0,0,1,0,22843.2,0.196362,0.196026,-2.00718,12,0.0154728,10,-0.000393458,-2.69741,-0.46721,-0.126281,9.85306,0.196026,
2,0,0,1,0,22843.3,0.18887,0.188541,-2.07121,12,0.0152159,10,-0.000390508,-2.68378,-0.349082,-0.169015,13.7318,0.188541,
2,0,0,1,0,22843.4,0.18138,0.181083,-2.1597,12,0.014949,10,-0.000391086,-2.66561,-0.394261,-0.149647,12.6701,0.181083,
2,0,0,1,0,22843.6,0.173892,0.173537,-2.28004,12,0.0146698,10,-0.000395671,-2.64206,-0.337904,-0.174606,15.5033,0.173537,
2,0,0,1,0,22843.7,0.166398,0.166053,-2.42607,12,0.0143747,10,-0.000402854,-2.6151,-0.258956,-0.227838,21.5008,0.166053,
2,0,0,1,0,22843.8,0.158905,0.158595,-2.61683,12,0.0140584,10,-0.000415016,-2.58223,-0.171038,-0.344952,35.3554,0.158595,
2,0,0,1,0,22843.9,0.151417,0.151096,-2.93362,12,0.0137104,10,-0.000443258,-2.5326,-0.132878,-0.444018,51.0768,0.1510959,
2,0,0,1,0,22844.1,0.143927,0.143618,-3.45809,12,0.0133116,10,-0.000496643,-2.46116,-0.0924863,-0.637932,86.1878,0.143618,
2,0,0,1,0,22844.2,0.136435,0.136117,-4.22068,12,0.0128321,10,-0.000574505,-2.37462,-0.084606,-0.69735,114.7,0.136117,
2,0,0,1,0,22844.3,0.128941,0.128609,-5.10019,12,0.0122479,10,-0.000655932,-2.29241,-0.101895,-0.57903,114.886,0.128609,
2,0,0,1,0,22844.4,0.121453,0.121117,-5.85577,12,0.0115598,10,-0.000709234,-2.23242,-0.160378,-0.367882,83.9746,0.1211172,
2,0,0,1,0,22844.6,0.113963,0.113678,-6.37622,12,0.0107909,10,-0.000724836,-2.19544,-0.298542,-0.197627,49.1399,0.113678,
2,0,0,1,0,22844.7,0.106471,0.106167,-6.64671,12,0.00997238,10,-0.000705662,-2.17739,-0.923265,-0.0639037,16.5427,0.106167,
2,0,0,1,0,22844.8,0.0989825,0.0986773,-6.62934,12,0.00913879,10,-0.000654165,-2.17853,0.98967,0.0596158,-15.4048,0.0986773,
2,0,0,1,0,22844.9,0.0914889,0.0911981,-6.39117,12,0.00832142,10,-0.000582863,-2.19442,0.376926,0.156529,-39.0389,0.0911981,
2,0,0,1,0,22845.1,0.0839993,0.0836932,-6.07682,12,0.00754101,10,-0.000508588,-2.21632,0.320279,0.184214,-43.6708,0.0836932,
2,0,0,1,0,22845.2,0.076507,0.0761641,-5.83225,12,0.0067965,10,-0.000444208,-2.23416,0.466184,0.126559,-28.7792,0.0761641,
2,0,0,1,0,22845.3,0.0690187,0.068708,-5.64676,12,0.00607897,10,-0.000387978,-2.2482,0.622306,0.0948087,-20.8983,0.068708,
2,0,0,1,0,22845.4,0.0615251,0.0611776,-5.49697,12,0.00538045,10,-0.000336291,-2.25988,0.691463,0.0853263,-18.3353,0.0611776,
2,0,0,1,0,22845.6,0.0540355,0.0537815,-5.35161,12,0.00470094,10,-0.000287818,-2.27152,0.574263,0.10274,-21.4514,0.0537815,
2,0,0,1,0,22845.7,0.0465432,0.0462216,-5.19803,12,0.0040399,10,-0.000240261,-2.28416,0.547402,0.107782,-21.8371,0.04622161,
2,0,0,1,0,22845.8,0.0390549,0.0387341,-5.02486,12,0.00339997,10,-0.000194634,-2.29888,0.496596,0.118809,-23.2519,0.0387341,
2,0,0,1,0,22845.9,0.0315613,0.0312072,-4.81981,12,0.00278259,10,-0.000150413,-2.31697,0.399085,0.147838,-27.8425,0.0312072,
2,0,0,1,0,22846.1,0.0240717,0.0237642,-4.60752,12,0.0021915,10,-0.000109494,-2.33653,0.343032,0.171995,-30.981,0.0237642,
2,0,0,1,0,22846.2,0.0165781,0.0162289,-4.41584,12,0.00162598,10,-7.16642e-05,-2.35499,0.402138,0.146716,-25.2746,0.0162289,
2,0,0,1,0,22846.3,0.00909108,0.00879088,-4.25335,12,0.00108332,10,-3.73907e-05,-2.37127,0.643481,0.0916888,-15.2182,0.00879088,
2,0,0,1,0,22846.4,0.00159616,0.00122101,-4.17668,12,0.000556711,10,-5.09976e-06,-2.37917, , , ,0.001221007,
2,0,0,1,0,22846.4,0.000199195,-0.000157355,-4.14532,12,0.000459267,10,6.52287e-07,-2.38244, , , ,-0.000157355,