File: Figure_codes/Fig_3-5/rawdata_trumpetplot_data/after 10th/20221101_1-115_003_TrumpetPlot_ParaChange_from10_every3_03_CV_C01_34.csv
mode,ox/red,error,control changes,counter inc.,time/s,control/V,Ewe/V,<I>/mA,cycle number,(Q-Qo)/C,I Range,P/W,log(|I|),Tafel slope mV/dec,alpha_eff,dI/d(E-IR),E-IR/V,
2,0,0,1,0,67924.4,2.44065e-05,-0.000363498,-0.0936697,35,0.0000000E+000,10,3.40488e-08,-4.0284, , , ,-0.000363498,
2,1,0,1,0,67925.9,0.0072904,0.00697534,0.197207,35,0.000245113,10,1.37559e-06,-3.70508,0.0794078,0.743,5.71299,0.00697534,
2,1,0,1,0,67927.4,0.0147815,0.0144301,0.227485,35,0.000585983,10,3.28264e-06,-3.64305,0.159219,0.37056,3.29668,0.0144301,
2,1,0,1,0,67928.9,0.0222725,0.0219389,0.251742,35,0.000966637,10,5.52295e-06,-3.59904,0.175302,0.336562,3.31394,0.0219389,
2,1,0,1,0,67930.4,0.0297635,0.029452,0.278258,35,0.00138464,10,8.19523e-06,-3.55555,0.195603,0.301632,3.26562,0.029452,
2,1,0,1,0,67931.9,0.0372545,0.0369088,0.302393,35,0.00183985,10,1.1161e-05,-3.51943,0.216866,0.272057,3.22819,0.0369088,
2,1,0,1,0,67933.4,0.0447456,0.0443912,0.32729,35,0.00233238,10,1.45288e-05,-3.48507,0.252433,0.233725,2.9802,0.0443912,
2,1,0,1,0,67934.9,0.0522367,0.0518607,0.349043,35,0.00286006,10,1.81016e-05,-3.45712,0.243866,0.241936,3.29575,0.0518607,
2,1,0,1,0,67936.4,0.0597277,0.0593772,0.370191,35,0.00342047,10,2.19809e-05,-3.43157,0.301739,0.195533,2.82179,0.0593772,
2,1,0,1,0,67937.9,0.0672187,0.0669016,0.388819,35,0.0040097,10,2.60126e-05,-3.41025,0.373047,0.158157,2.39596,0.0669016,
2,1,0,1,0,67939.4,0.0747092,0.0744026,0.402047,35,0.00462331,10,2.99134e-05,-3.39572,0.608839,0.0969058,1.52505,0.0744026,
2,1,0,0,0,67940.9,0.0822001,0.0818965,0.415025,35,0.00525893,10,3.39891e-05,-3.38193,0.529657,0.111393,1.81228,0.0818965,
2,1,0,1,0,67942.4,0.0896911,0.0893829,0.436083,35,0.00591827,10,3.89784e-05,-3.36043,0.295366,0.199752,3.40665,0.0893829,
2,1,0,0,0,67943.9,0.097182,0.0967814,0.464208,35,0.0066139,10,4.49267e-05,-3.33329,0.208434,0.283063,5.14006,0.0967814,
2,1,0,1,0,67945.4,0.104673,0.10435,0.504552,35,0.00736036,10,5.26498e-05,-3.29709,0.202917,0.290759,5.69696,0.10435,
2,1,0,0,0,67946.9,0.112164,0.111884,0.539822,35,0.00816408,10,6.03973e-05,-3.26775,0.34339,0.171816,3.60702,0.1118837,
2,1,0,1,0,67948.4,0.119655,0.119331,0.562721,35,0.00901237,10,6.715e-05,-3.24971,0.758071,0.0778291,1.7088,0.119331,
2,1,0,0,0,67949.9,0.127146,0.126827,0.573451,35,0.00988689,10,7.2729e-05,-3.2415,2.15607,0.0273646,0.613446,0.126827,
2,1,0,1,0,67951.4,0.134637,0.134319,0.564127,35,0.0107667,10,7.57728e-05,-3.24862,-0.287057,-0.205534,-4.5227,0.134319,
2,1,0,1,0,67952.9,0.142127,0.141793,0.499994,35,0.0115936,10,7.08958e-05,-3.30104,-0.0974483,-0.605449,-11.7872,0.141793,
2,1,0,1,0,67954.4,0.149618,0.14928,0.405022,35,0.0122927,10,6.04615e-05,-3.39252,-0.0843069,-0.699824,-11.0996,0.14928,
2,1,0,1,0,67955.9,0.157109,0.156773,0.344665,35,0.0128687,10,5.40341e-05,-3.4626,-0.136198,-0.433194,-5.83192,0.156773,
2,1,0,1,0,67957.4,0.1646,0.164269,0.318512,35,0.0133818,10,5.23215e-05,-3.49687,-0.298285,-0.197797,-2.45516,0.164269,
2,1,0,1,0,67958.9,0.172091,0.171782,0.304852,35,0.0138672,10,5.23681e-05,-3.51591,-0.566364,-0.104173,-1.24287,0.171782,
2,1,0,1,0,67960.4,0.179582,0.179248,0.297875,35,0.0143388,10,5.33935e-05,-3.52597,-1.47545,-0.0399879,-0.466222,0.179248,
2,1,0,1,0,67961.9,0.187074,0.186749,0.294512,35,0.0148025,10,5.5e-05,-3.5309,-2.11251,-0.0279288,-0.320714,0.186749,
2,1,0,1,0,67963.4,0.194564,0.194227,0.291893,35,0.0152611,10,5.66934e-05,-3.53478,-3.12849,-0.0188589,-0.21465,0.194227,
2,1,0,1,0,67964.9,0.202056,0.20175,0.289285,35,0.0157157,10,5.83633e-05,-3.53867,-1.19649,-0.0493111,-0.556121,0.20175,
2,1,0,1,0,67966.4,0.209547,0.209237,0.288129,35,0.0161674,10,6.02871e-05,-3.54041,-2.51211,-0.0234862,-0.26411,0.209237,
2,1,0,1,0,67967.9,0.217038,0.216721,0.284869,35,0.0166156,10,6.17371e-05,-3.54535,-1.9885,-0.0296706,-0.330903,0.216721,
2,1,0,1,0,67969.3,0.224529,0.224223,0.283661,35,0.0170612,10,6.36032e-05,-3.5472,-1.65261,-0.035701,-0.395171,0.224223,
2,1,0,1,0,67970.8,0.232019,0.231712,0.282198,35,0.0175039,10,6.53887e-05,-3.54945,5.16921,0.0114137,0.125654,0.231712,
2,1,0,0,0,67972.3,0.23951,0.239214,0.28207,35,0.0179445,10,6.74752e-05,-3.54964,-12.1427,-0.00485891,-0.0532418,0.239214,
2,1,0,1,0,67973.8,0.247001,0.246677,0.279883,35,0.0183827,10,6.90407e-05,-3.55302,-2.43135,-0.0242663,-0.264349,0.246677,
2,1,0,0,0,67975.3,0.254492,0.254194,0.277283,35,0.018819,10,7.04837e-05,-3.55708,-1.79866,-0.0328022,-0.356251,0.2541945,
2,1,0,1,0,67976.8,0.261983,0.261654,0.276318,35,0.0192523,10,7.22999e-05,-3.55859,-2.25188,-0.0262004,-0.283314,0.261654,
2,1,0,0,0,67978.3,0.269474,0.269178,0.275641,35,0.0196833,10,7.41965e-05,-3.55966,4.96573,0.0118814,0.127571,0.269178,
2,1,0,1,0,67979.8,0.276965,0.276645,0.27319,35,0.0201123,10,7.55766e-05,-3.56354,-1.29114,-0.0456959,-0.488258,0.276645,
2,1,0,0,0,67981.3,0.284456,0.284173,0.27129,35,0.0205382,10,7.70934e-05,-3.56657,-4.16612,-0.0141619,-0.150836,0.284173,
2,1,0,1,0,67982.8,0.291947,0.291585,0.269525,35,0.020962,10,7.85896e-05,-3.5694,-2.96874,-0.0198738,-0.209076,0.291585,
2,1,0,1,0,67984.3,0.299437,0.299132,0.268079,35,0.0213826,10,8.01911e-05,-3.57174,-0.00277842,-21.2351,-117.902,0.299132,
2,0,0,1,0,67985.7,0.293744,0.293392,-0.0143083,35,0.0214288,10,-4.19794e-06,-4.84441,-0.00325532,-18.1242,5.72107,0.293392,
2,0,0,1,0,67987.2,0.286253,0.285963,-0.0448573,35,0.0213649,10,-1.28275e-05,-4.34817,-0.0315369,-1.87083,3.30983,0.285963,
2,0,0,0,0,67988.7,0.278763,0.278411,-0.0660068,35,0.021263,10,-1.8377e-05,-4.18041,-0.0596867,-0.988494,2.52507,0.278411,
2,0,0,1,0,67990.2,0.271272,0.270952,-0.082738,35,0.0211324,10,-2.2418e-05,-4.0823,-0.112674,-0.523636,1.688,0.270952,
2,0,0,0,0,67991.7,0.263781,0.263479,-0.0973269,35,0.0209789,10,-2.56436e-05,-4.01177,-0.128342,-0.45971,1.74273,0.263479,
2,0,0,1,0,67993.2,0.25629,0.255944,-0.109111,35,0.0208057,10,-2.79264e-05,-3.96213,-0.183573,-0.321399,1.36135,0.255944,
2,0,0,0,0,67994.7,0.248799,0.248504,-0.120114,35,0.0206157,10,-2.98488e-05,-3.92041,-0.217027,-0.271855,1.26737,0.248504,
2,0,0,1,0,67996.2,0.241308,0.241019,-0.128753,35,0.0204106,10,-3.10319e-05,-3.89024,-0.26458,-0.222995,1.12576,0.241019,
2,0,0,0,0,67997.7,0.233817,0.233458,-0.139201,35,0.0201912,10,-3.24975e-05,-3.85636,-0.226992,-0.259921,1.41268,0.233458,
2,0,0,1,0,67999.2,0.226326,0.225986,-0.147199,35,0.0199575,10,-3.3265e-05,-3.83209,-0.297724,-0.19817,1.14383,0.225986,
2,0,0,0,0,68000.7,0.218835,0.218462,-0.15668,35,0.0197108,10,-3.42285e-05,-3.80499,-0.298662,-0.197548,1.20432,0.218462,
2,0,0,1,0,68002.2,0.211344,0.21102,-0.164634,35,0.0194513,10,-3.47412e-05,-3.78348,-0.343608,-0.171707,1.10319,0.21102,
2,0,0,1,0,68003.7,0.203854,0.203507,-0.172796,35,0.0191788,10,-3.51653e-05,-3.76247,-0.341199,-0.17292,1.17304,0.203507,
2,0,0,1,0,68005.2,0.196363,0.19606,-0.183072,35,0.0188931,10,-3.58932e-05,-3.73738,-0.29613,-0.199237,1.41827,0.19606,
2,0,0,1,0,68006.7,0.188871,0.188529,-0.19127,35,0.0185928,10,-3.60599e-05,-3.71835,-0.229974,-0.256551,1.91331,0.188529,
2,0,0,1,0,68008.2,0.181381,0.181012,-0.204175,35,0.0182775,10,-3.6958e-05,-3.69,-0.316128,-0.186633,1.47895,0.1810118,
2,0,0,1,0,68009.7,0.173889,0.17357,-0.215473,35,0.0179446,10,-3.73995e-05,-3.66661,-0.240837,-0.244979,2.05421,0.17357,
2,0,0,1,0,68011.2,0.166398,0.166089,-0.229865,35,0.0175911,10,-3.81779e-05,-3.63853,-0.281677,-0.20946,1.89521,0.1660886,
2,0,0,1,0,68012.7,0.158907,0.158545,-0.249029,35,0.0172118,10,-3.94823e-05,-3.60375,-0.199716,-0.295419,2.88909,0.158545,
2,0,0,1,0,68014.2,0.151416,0.151088,-0.278764,35,0.0167973,10,-4.21178e-05,-3.55476,-0.133386,-0.442324,4.81078,0.151088,
2,0,0,1,0,68015.7,0.143925,0.143617,-0.323061,35,0.0163285,10,-4.63971e-05,-3.49072,-0.0898806,-0.656426,8.33445,0.143617,
2,0,0,1,0,68017.2,0.136434,0.136088,-0.394979,35,0.0157714,10,-5.3752e-05,-3.40343,-0.0835559,-0.706114,10.8531,0.136088,
2,0,0,1,0,68018.7,0.128943,0.128609,-0.476825,35,0.015097,10,-6.13241e-05,-3.32164,-0.105176,-0.560963,10.4143,0.128609,
2,0,0,0,0,68020.2,0.121453,0.121137,-0.54343,35,0.0143066,10,-6.58294e-05,-3.26486,-0.201044,-0.293468,6.21031,0.121137,
2,0,0,1,0,68021.7,0.113962,0.113641,-0.569891,35,0.0134437,10,-6.47629e-05,-3.24421,-0.897049,-0.0657712,1.46511,0.1136408,
2,0,0,0,0,68023.2,0.106471,0.106143,-0.574432,35,0.0125604,10,-6.09717e-05,-3.24076,13.4541,0.00438529,-0.0984096,0.106143,
2,0,0,1,0,68024.7,0.0989798,0.0986456,-0.568191,35,0.0116805,10,-5.60495e-05,-3.24551,1.45177,0.0406401,-0.900485,0.0986456,
2,0,0,0,0,68026.2,0.0914889,0.0911294,-0.560239,35,0.0108131,10,-5.10543e-05,-3.25163,0.956497,0.0616834,-1.3451,0.0911294,
2,0,0,1,0,68027.6,0.083998,0.0836801,-0.545323,35,0.0099632,10,-4.56327e-05,-3.26335,0.510907,0.115481,-2.45401,0.0836801,
2,0,0,0,0,68029.1,0.076507,0.0761597,-0.530627,35,0.00913557,10,-4.04123e-05,-3.27521,0.573775,0.102828,-2.12838,0.0761597,
2,0,0,1,0,68030.6,0.069016,0.0686827,-0.512749,35,0.00833199,10,-3.5217e-05,-3.2901,0.547798,0.107704,-2.16396,0.0686827,
2,0,0,0,0,68032.1,0.0615251,0.0612366,-0.499109,35,0.00755136,10,-3.05637e-05,-3.3018,0.544679,0.108321,-2.11518,0.0612366,
2,0,0,1,0,68033.6,0.0540342,0.0537194,-0.48303,35,0.0067946,10,-2.59481e-05,-3.31603,0.752196,0.078437,-1.47662,0.0537194,
2,0,0,1,0,68035.1,0.0465436,0.0461909,-0.465801,35,0.00606211,10,-2.15157e-05,-3.3318,0.542993,0.108657,-1.9809,0.0461909,
2,0,0,1,0,68036.6,0.0390526,0.0386819,-0.449363,35,0.00535498,10,-1.73822e-05,-3.3474,0.368512,0.160103,-2.79937,0.0386819,
2,0,0,1,0,68038.1,0.0315615,0.0312029,-0.433306,35,0.00467293,10,-1.35204e-05,-3.3632,0.441278,0.133703,-2.26284,0.0312029,
2,0,0,1,0,68039.6,0.0240706,0.0237567,-0.419794,35,0.0040131,10,-9.97293e-06,-3.37696,0.681078,0.0866273,-1.42184,0.0237567,
2,0,0,1,0,68041.1,0.0165795,0.0162256,-0.411536,35,0.00337023,10,-6.67742e-06,-3.38559,1.95593,0.0301648,-0.485478,0.0162256,
2,0,0,1,0,68042.6,0.00908846,0.00877724,-0.40847,35,0.0027363,10,-3.58524e-06,-3.38884,4.33285,0.0136169,-0.2174,0.00877724,
2,0,0,1,0,68044.1,0.00159739,0.0012483,-0.41449,35,0.00210208,10,-5.17406e-07,-3.38249, , , ,0.001248296,
2,0,0,0,0,68044.4,0.000199195,-0.000191712,-0.412046,35,0.0019828,10,7.89943e-08,-3.38505, , , ,-0.0001917123,