File: Figure_codes/Fig_3-5/rawdata_trumpetplot_data/after 10th/20221101_1-115_003_TrumpetPlot_ParaChange_from10_every3_10_CV_C01_28.csv
mode,ox/red,error,control changes,counter inc.,time/s,control/V,Ewe/V,<I>/mA,cycle number,(Q-Qo)/C,I Range,P/W,log(|I|),Tafel slope mV/dec,alpha_eff,dI/d(E-IR),E-IR/V,
2,1,0,0,0,56354.2,-2.44065e-05,-0.000497109,5.00285,29,0.0000000E+000,10,-2.48697e-06,-2.30078, , , ,-0.000497109,
2,1,0,1,0,56354.2,0.00977853,0.00943784,7.12534,29,0.000305898,10,6.72478e-05,-2.14719,0.121377,0.486091,134.917,0.00943784,
2,1,0,1,0,56354.3,0.0197755,0.0193962,8.1793,29,0.00069072,10,0.000158647,-2.08728,0.231051,0.255354,81.4109,0.0193962,
2,1,0,1,0,56354.3,0.0297726,0.0294283,8.89376,29,0.00111841,10,0.000261729,-2.05091,0.336786,0.175185,60.7815,0.0294283,
2,1,0,1,0,56354.4,0.0397514,0.0393699,9.48322,29,0.00157715,10,0.000373354,-2.02304,0.362045,0.162963,60.2855,0.0393699,
2,1,0,1,0,56354.4,0.0497394,0.0493546,10.0427,29,0.00206431,10,0.000495653,-1.99815,0.403608,0.146182,57.2919,0.0493546,
2,1,0,1,0,56354.5,0.0597364,0.0593538,10.6163,29,0.00258066,10,0.000630115,-1.97403,0.421442,0.139996,57.938,0.0593538,
2,1,0,1,0,56354.5,0.0697152,0.0693307,11.1894,29,0.00312468,10,0.00077577,-1.95119,0.44582,0.13234,57.8394,0.0693307,
2,1,0,1,0,56354.6,0.0796941,0.0793408,11.7908,29,0.00369814,10,0.000935489,-1.92846,0.461287,0.127903,58.7864,0.0793408,
2,1,0,1,0,56354.6,0.0896911,0.0893183,12.3334,29,0.00430155,10,0.0011016,-1.90892,0.499132,0.118205,56.9804,0.0893183,
2,1,0,1,0,56354.7,0.099679,0.0993025,12.8994,29,0.00493142,10,0.00128095,-1.88943,0.554954,0.106315,53.451,0.0993025,
2,1,0,1,0,56354.7,0.109658,0.109306,13.452,29,0.0055884,10,0.00147038,-1.87121,0.486068,0.121382,63.7873,0.109306,
2,1,0,1,0,56354.8,0.119655,0.1193,14.168,29,0.0062782,10,0.00169024,-1.84869,0.428395,0.137723,76.0846,0.1193001,
2,1,0,1,0,56354.8,0.129652,0.129303,14.9839,29,0.00700664,10,0.00193746,-1.82437,0.402243,0.146678,85.8105,0.129303,
2,1,0,1,0,56354.9,0.139631,0.139271,15.8013,29,0.0077754,10,0.00220067,-1.80131,0.476265,0.123881,76.3613,0.139271,
2,1,0,1,0,56354.9,0.149619,0.149222,16.4684,29,0.00858138,10,0.00245744,-1.78335,0.679529,0.0868249,55.7777,0.149222,
2,1,0,1,0,56355,0.159616,0.159235,16.8035,29,0.0094152,10,0.00267571,-1.7746,14.1843,0.00415952,2.72431,0.1592351,
2,1,0,1,0,56355,0.169595,0.169247,16.4509,29,0.0102482,10,0.00278427,-1.78381,-0.486053,-0.121386,-77.8606,0.169247,
2,1,0,1,0,56355.1,0.179573,0.179214,15.2626,29,0.0110423,10,0.00273528,-1.81637,-0.2282,-0.258545,-153.868,0.179214,
2,1,0,1,0,56355.1,0.18957,0.1892,13.6003,29,0.0117644,10,0.00257318,-1.86645,-0.191589,-0.307952,-163.526,0.1892,
2,1,0,1,0,56355.2,0.199558,0.199207,12.0496,29,0.012403,10,0.00240036,-1.91903,-0.202791,-0.29094,-136.75,0.199207,
2,1,0,1,0,56355.2,0.209537,0.209165,10.8262,29,0.012972,10,0.00226447,-1.96552,-0.230362,-0.256118,-108.365,0.209165,
2,1,0,1,0,56355.3,0.219534,0.219253,9.93265,29,0.0134896,10,0.00217777,-2.00293,-0.299612,-0.196921,-76.3054,0.219253,
2,1,0,1,0,56355.3,0.229531,0.229166,9.26661,29,0.0139688,10,0.00212359,-2.03308,-0.38252,-0.15424,-55.8455,0.229166,
2,1,0,1,0,56355.4,0.23951,0.239183,8.78441,29,0.0144187,10,0.00210108,-2.05629,-0.485695,-0.121475,-41.6451,0.239183,
2,1,0,1,0,56355.4,0.249498,0.249177,8.40507,29,0.0148471,10,0.00209435,-2.07546,-0.591234,-0.0997912,-32.7582,0.249177,
2,1,0,1,0,56355.5,0.259495,0.259183,8.11727,29,0.0152598,10,0.00210386,-2.09059,-0.680067,-0.0867562,-27.4509,0.259183,
2,1,0,1,0,56355.5,0.269474,0.269134,7.87097,29,0.0156583,10,0.00211835,-2.10397,-0.864425,-0.0682534,-20.9933,0.269134,
2,1,0,1,0,56355.6,0.279453,0.279075,7.67909,29,0.0160462,10,0.00214304,-2.11469,-0.894234,-0.0659783,-19.7571,0.279075,
2,1,0,1,0,56355.6,0.28945,0.289086,7.49668,29,0.0164255,10,0.00216719,-2.12513,-1.25883,-0.046869,-13.7369,0.289086,
2,1,0,1,0,56355.7,0.299438,0.299074,7.3596,29,0.0167962,10,0.00220106,-2.13315,-0.0797667,-0.739657,-205.897,0.299074,
2,1,0,1,0,56355.7,0.291747,0.291348,1.65192,29,0.0169764,10,0.000481283,-2.78201,0.00967136,6.10049,382.277,0.291348,
2,0,0,1,0,56355.8,0.28175,0.281402,-0.908759,29,0.0169863,10,-0.000255726,-3.04155,-0.0110138,-5.35692,176.227,0.281402,
2,0,0,1,0,56355.8,0.27178,0.271433,-2.21589,29,0.0169052,10,-0.000601466,-2.65445,-0.0494487,-1.19316,102.425,0.271433,
2,0,0,1,0,56355.9,0.261783,0.261411,-3.0244,29,0.0167727,10,-0.000790613,-2.51936,-0.106044,-0.556371,65.5615,0.261411,
2,0,0,1,0,56355.9,0.251786,0.25146,-3.59375,29,0.0166065,10,-0.000903684,-2.44445,-0.166374,-0.354623,49.5836,0.25146,
2,0,0,1,0,56356,0.241807,0.241474,-4.01976,29,0.0164159,10,-0.00097067,-2.3958,-0.237656,-0.248258,39.0231,0.241474,
2,0,0,1,0,56356,0.231824,0.231438,-4.38742,29,0.0162058,10,-0.00101542,-2.35779,-0.289541,-0.203771,34.8462,0.231438,
2,0,0,1,0,56356.1,0.221822,0.221464,-4.68939,29,0.0159786,10,-0.00103853,-2.32888,-0.367288,-0.160637,29.4022,0.221464,
2,0,0,1,0,56356.1,0.211844,0.211534,-4.97227,29,0.0157374,10,-0.0010518,-2.30344,-0.450307,-0.131022,25.3922,0.211534,
2,0,0,1,0,56356.2,0.201865,0.201504,-5.22956,29,0.0154828,10,-0.00105378,-2.28154,-0.476073,-0.123931,25.3183,0.201504,
2,0,0,1,0,56356.2,0.191868,0.191519,-5.48754,29,0.0152148,10,-0.00105097,-2.26062,-0.491302,-0.120089,25.7146,0.191519,
2,0,0,1,0,56356.3,0.18188,0.181499,-5.75657,29,0.0149345,10,-0.00104481,-2.23984,-0.441227,-0.133718,30.0048,0.181499,
2,0,0,1,0,56356.3,0.171901,0.171522,-6.04294,29,0.0146406,10,-0.0010365,-2.21875,-0.453857,-0.129997,30.6275,0.171522,
2,0,0,1,0,56356.4,0.161904,0.161552,-6.38086,29,0.0143304,10,-0.00103084,-2.19512,-0.370192,-0.159377,39.7007,0.161552,
2,0,0,1,0,56356.4,0.151907,0.151499,-6.84019,29,0.0140004,10,-0.00103628,-2.16493,-0.296321,-0.199108,53.1957,0.151499,
2,0,0,1,0,56356.5,0.141928,0.141605,-7.54946,29,0.0136426,10,-0.00106904,-2.12208,-0.191892,-0.307464,90.7045,0.141605,
2,0,0,1,0,56356.5,0.13194,0.131572,-8.68817,29,0.0132395,10,-0.00114312,-2.06107,-0.145693,-0.40496,137.337,0.131572,
2,0,0,1,0,56356.6,0.121943,0.121624,-10.2474,29,0.0127671,10,-0.00124633,-1.98939,-0.145482,-0.405547,162.167,0.121624,
2,0,0,1,0,56356.6,0.111964,0.111631,-11.8927,29,0.0122146,10,-0.00132759,-1.92472,-0.17297,-0.3411,158.205,0.111631,
2,0,0,1,0,56356.7,0.101985,0.101665,-13.3686,29,0.0115831,10,-0.00135912,-1.87391,-0.236502,-0.249469,130.038,0.101665,
2,0,0,1,0,56356.7,0.0919883,0.0916556,-14.5285,29,0.010884,10,-0.00133162,-1.83778,-0.330736,-0.17839,101.137,0.0916556,
2,0,0,1,0,56356.8,0.0820004,0.0816229,-15.2936,29,0.0101376,10,-0.00124831,-1.81549,-0.700193,-0.0842625,50.2449,0.0816229,
2,0,0,1,0,56356.8,0.0720215,0.0716625,-15.5756,29,0.00936581,10,-0.00111618,-1.80756,-4.48821,-0.0131455,7.98642,0.0716625,
2,0,0,1,0,56356.9,0.0620245,0.0616764,-15.52,29,0.00858746,10,-0.000957219,-1.80911,2.3074,0.0255699,-15.4887,0.0616764,
2,0,0,1,0,56356.9,0.0520275,0.0516729,-15.3557,29,0.00781538,10,-0.000793471,-1.81373,1.76294,0.0334669,-20.0423,0.0516729,
2,0,0,1,0,56357,0.0420486,0.041701,-15.1395,29,0.00705437,10,-0.000631331,-1.81989,1.70841,0.034535,-20.4173,0.04170097,
2,0,0,1,0,56357,0.0320607,0.0316746,-14.9033,29,0.00630448,10,-0.000472057,-1.82672,1.15201,0.0512151,-29.7781,0.03167456,
2,0,0,1,0,56357.1,0.0220637,0.021691,-14.5795,29,0.00556711,10,-0.000316245,-1.83626,0.922247,0.0639742,-36.4038,0.021691,
2,0,0,1,0,56357.1,0.0120848,0.0117243,-14.1651,29,0.00484959,10,-0.000166076,-1.84878,0.653115,0.0903363,-49.9222,0.01172434,
2,0,0,1,0,56357.2,0.00210598,0.0017309,-13.6859,29,0.00415545,10,-2.3689e-05,-1.86373,0.683938,0.0862651,-46.0073,0.0017309,
2,0,0,1,0,56357.2,-0.00789103,-0.0082804,-13.1477,29,0.00348491,10,0.000108869,-1.88115,0.633704,0.0931034,-47.8083,-0.0082804,
2,0,0,1,0,56357.3,-0.017879,-0.018269,-12.741,29,0.0028394,10,0.000232766,-1.89479,0.884823,0.06668,-33.157,-0.018269,
2,0,0,1,0,56357.3,-0.0278578,-0.02827,-12.4573,29,0.00221137,10,0.00035217,-1.90457,1.2587,0.0468739,-22.8023,-0.02827,
2,0,0,1,0,56357.4,-0.0378549,-0.0382423,-12.3288,29,0.00159226,10,0.000471482,-1.90908,3.51817,0.0167701,-8.0672,-0.0382423,
2,0,0,1,0,56357.4,-0.0478519,-0.0482389,-12.3129,29,0.000976657,10,0.000593959,-1.90964,-3.72778,-0.0158271,7.6107,-0.0482389,
2,0,0,1,0,56357.5,-0.0578126,-0.058218,-12.4164,29,0.000361106,10,0.000722857,-1.90601,-1.79648,-0.0328419,15.9184,-0.058218,
2,0,0,1,0,56357.5,-0.0678187,-0.0682051,-12.6057,29,-0.000264089,10,0.000859771,-1.89943,-1.27942,-0.0461146,22.6817,-0.0682051,
2,0,0,1,0,56357.6,-0.0778157,-0.0782094,-12.869,29,-0.000900766,10,0.00100647,-1.89046,-0.976223,-0.060437,30.3649,-0.0782094,
2,0,0,1,0,56357.6,-0.0877945,-0.0881787,-13.2257,29,-0.00155157,10,0.00116622,-1.87858,-0.767023,-0.0769207,39.7125,-0.0881787,
2,0,0,1,0,56357.7,-0.0977734,-0.0981756,-13.6579,29,-0.00222219,10,0.00134088,-1.86462,-0.658152,-0.0896449,47.8078,-0.0981756,
2,0,0,1,1,56357.7,-0.0936874,-0.0940878,-7.4465,29,-0.0026924,10,0.000700625,-2.12805,-0.0250441,-2.35584,686.038,-0.0940878,
2,0,0,1,1,56357.8,-0.0837086,-0.08411,-2.24392,29,-0.00292262,10,0.000188736,-2.64899,-0.0120887,-4.88059,411.973,-0.08411,
2,1,0,1,1,56357.8,-0.0737025,-0.0740649,1.19525,29,-0.00294324,10,-8.85259e-05,-2.92254,0.00856237,6.89061,285.781,-0.0740649,
2,1,0,1,1,56357.9,-0.0637236,-0.0641565,3.61603,29,-0.00281992,10,-0.000231992,-2.44177,0.0394225,1.49661,209.969,-0.0641565,
2,1,0,1,1,56357.9,-0.0537448,-0.0541429,5.41298,29,-0.0025922,10,-0.000293074,-2.26656,0.0808043,0.730159,153.592,-0.0541429,
2,1,0,1,1,56358,-0.0437477,-0.0441516,6.71855,29,-0.00228689,10,-0.000296634,-2.17272,0.139436,0.423134,110.949,-0.0441516,
2,1,0,1,1,56358,-0.0337507,-0.0341108,7.68379,29,-0.00192527,10,-0.0002621,-2.11442,0.219214,0.269144,80.572,-0.0341108,
2,1,0,1,1,56358.1,-0.0237809,-0.0241333,8.35945,29,-0.00152484,10,-0.000201741,-2.07782,0.330419,0.178561,58.2071,-0.0241333,
2,1,0,1,1,56358.1,-0.0137839,-0.014155,8.82009,29,-0.00109462,10,-0.000124848,-2.05453,0.564893,0.104444,35.9283,-0.014155,
2,1,0,1,1,56358.2,-0.0037869,-0.00417402,9.11664,29,-0.000645506,10,-3.8053e-05,-2.04017,0.893914,0.0660019,23.4998,-0.00417402,
2,1,0,1,1,56358.2,-2.55332e-05,-0.000516197,9.18667,29,-0.000474161,10,-4.74213e-06,-2.03684, , , ,-0.000516197,