File: Figure_codes/Fig_3-5/rawdata_trumpetplot_data/after 10th/20221101_1-115_003_TrumpetPlot_ParaChange_from10_every3_11_CV_C01_30.csv
mode,ox/red,error,control changes,counter inc.,time/s,control/V,Ewe/V,<I>/mA,cycle number,(Q-Qo)/C,I Range,P/W,log(|I|),Tafel slope mV/dec,alpha_eff,dI/d(E-IR),E-IR/V,
2,1,0,1,0,60298.4,2.44065e-05,-0.000268062,9.11544,31,0.0000000E+000,10,-2.4435e-06,-2.04022, , , ,-0.000268062,
2,1,0,1,0,60298.5,0.0101427,0.00973793,12.0103,31,0.000272074,10,0.000116955,-1.92045,0.139563,0.422748,197.364,0.009737934,
2,1,0,1,0,60298.5,0.0205441,0.0201893,13.7353,31,0.000608078,10,0.000277307,-1.86216,0.220033,0.268141,143.44,0.0201893,
2,1,0,1,0,60298.5,0.0309482,0.0305982,15.051,31,0.000983067,10,0.000460534,-1.82243,0.304562,0.193721,113.708,0.0305982,
2,1,0,1,0,60298.5,0.0413439,0.0409828,16.1573,31,0.00138929,10,0.000662171,-1.79163,0.3726,0.158347,99.828,0.0409828,
2,1,0,1,0,60298.6,0.0517425,0.0513769,17.158,31,0.00182272,10,0.000881526,-1.76553,0.422515,0.13964,93.4964,0.0513769,
2,1,0,1,0,60298.6,0.0621438,0.0617996,18.1162,31,0.00228143,10,0.00111957,-1.74193,0.461286,0.127903,90.3965,0.0617996,
2,1,0,1,0,60298.6,0.0725479,0.0721938,19.0611,31,0.00276477,10,0.00137609,-1.71985,0.477757,0.123494,91.8605,0.0721938,
2,1,0,1,0,60298.6,0.0829437,0.0825412,20.0072,31,0.00327273,10,0.00165142,-1.69881,0.500253,0.11794,92.0942,0.0825412,
2,1,0,1,0,60298.7,0.0933422,0.0929894,20.9841,31,0.00380559,10,0.0019513,-1.67811,0.51432,0.114715,93.8986,0.0929894,
2,1,0,1,0,60298.7,0.103749,0.103394,21.9312,31,0.00436358,10,0.00226756,-1.65894,0.552813,0.106727,91.3492,0.1033941,
2,1,0,1,0,60298.7,0.114148,0.113727,22.9037,31,0.00494623,10,0.00260476,-1.64009,0.534321,0.110421,98.7075,0.1137267,
2,1,0,1,0,60298.7,0.124543,0.12418,23.9706,31,0.00555556,10,0.00297667,-1.62032,0.509436,0.115814,108.32,0.12418,
2,1,0,1,0,60298.8,0.134942,0.134572,25.1216,31,0.00619379,10,0.00338067,-1.59995,0.493386,0.119582,117.324,0.134572,
2,1,0,1,0,60298.8,0.145349,0.144997,26.3518,31,0.00686317,10,0.00382093,-1.57919,0.52064,0.113322,116.484,0.144997,
2,1,0,1,0,60298.8,0.155747,0.155368,27.5099,31,0.00756356,10,0.00427415,-1.56051,0.601794,0.0980402,105.171,0.155368,
2,1,0,1,0,60298.8,0.166143,0.165759,28.4675,31,0.00829194,10,0.00471874,-1.54565,0.838141,0.0703939,78.1834,0.165759,
2,1,0,1,0,60298.9,0.176542,0.176202,29.0556,31,0.00904105,10,0.00511965,-1.53677,2.44439,0.0241369,27.3432,0.176202,
2,1,0,1,0,60298.9,0.186949,0.186594,29.0056,31,0.00979729,10,0.00541226,-1.53752,-1.73938,-0.0339201,-38.3482,0.186594,
2,1,0,1,0,60298.9,0.197347,0.197048,28.2468,31,0.0105429,10,0.00556598,-1.54903,-0.604176,-0.0976537,-107.504,0.197048,
2,1,0,1,0,60299,0.207743,0.207383,26.8519,31,0.0112601,10,0.00556862,-1.57103,-0.394031,-0.149734,-156.771,0.207383,
2,1,0,1,0,60299,0.218141,0.21779,25.0811,31,0.0119355,10,0.00546241,-1.60065,-0.325798,-0.181094,-177.234,0.21779,
2,1,0,1,0,60299,0.228548,0.228247,23.2485,31,0.0125635,10,0.00530642,-1.6336,-0.310927,-0.189755,-172.101,0.228247,
2,1,0,1,0,60299,0.238947,0.238605,21.5464,31,0.013145,10,0.00514109,-1.66663,-0.329639,-0.178984,-150.52,0.238605,
2,1,0,1,0,60299.1,0.249343,0.248979,20.0795,31,0.0136855,10,0.00499937,-1.69725,-0.358564,-0.164545,-129.041,0.2489794,
2,1,0,1,0,60299.1,0.259741,0.259386,18.8689,31,0.0141913,10,0.00489433,-1.72425,-0.404959,-0.145694,-107.29,0.259386,
2,1,0,1,0,60299.1,0.270148,0.269784,17.8615,31,0.0146682,10,0.00481875,-1.74808,-0.462271,-0.127631,-88.9777,0.269784,
2,1,0,1,0,60299.1,0.280547,0.280182,17.0147,31,0.0151212,10,0.00476722,-1.76917,-0.525194,-0.112339,-74.6563,0.280182,
2,1,0,1,0,60299.2,0.290942,0.290615,16.3158,31,0.0155541,10,0.00474163,-1.78739,-0.596077,-0.0989805,-63.0257,0.290615,
2,1,0,0,0,60299.2,0.300012,0.299594,15.7849,31,0.0159183,10,0.00472905,-1.80176,0.00188608,31.2819,17530.9,0.299594,
2,1,0,1,0,60299.2,0.290704,0.290356,7.44486,31,0.0161715,10,0.00216166,-2.12814,0.0288414,2.04567,594.161,0.290356,
2,1,0,1,0,60299.2,0.280305,0.28002,2.6106,31,0.0162967,10,0.000731018,-2.58326,0.0157249,3.75201,366.689,0.28002,
2,0,0,1,0,60299.3,0.269909,0.269553,-0.537832,31,0.0163207,10,-0.000144974,-3.26935,-0.0102854,-5.73628,248.376,0.269553,
2,0,0,1,0,60299.3,0.2595,0.259202,-2.76041,31,0.016276,10,-0.000715503,-2.55903,-0.0339549,-1.7376,182.985,0.259202,
2,0,0,1,0,60299.3,0.249104,0.248716,-4.41996,31,0.0161815,10,-0.00109932,-2.35458,-0.0724521,-0.814331,139.319,0.248716,
2,0,0,1,0,60299.3,0.238706,0.238373,-5.7098,31,0.0160492,10,-0.00136106,-2.24338,-0.119968,-0.491797,109.09,0.238373,
2,0,0,1,0,60299.4,0.22831,0.227965,-6.73239,31,0.0158869,10,-0.00153475,-2.17183,-0.169949,-0.347164,91.2155,0.227965,
2,0,0,1,0,60299.4,0.2179,0.217527,-7.61114,31,0.0157,10,-0.00165563,-2.11855,-0.225067,-0.262144,77.7225,0.217527,
2,0,0,1,0,60299.4,0.207504,0.207146,-8.35131,31,0.0154922,10,-0.00172994,-2.07825,-0.287127,-0.205484,66.9477,0.207146,
2,0,0,1,0,60299.4,0.197106,0.196757,-9.01395,31,0.0152661,10,-0.00177355,-2.04509,-0.342087,-0.172471,60.7269,0.196757,
2,0,0,1,0,60299.5,0.18671,0.18635,-9.6263,31,0.0150235,10,-0.00179386,-2.01654,-0.385186,-0.153173,57.5792,0.18635,
2,0,0,1,0,60299.5,0.1763,0.175962,-10.2331,31,0.0147652,10,-0.00180064,-1.98999,-0.41065,-0.143675,57.3516,0.175962,
2,0,0,1,0,60299.5,0.165905,0.165566,-10.8431,31,0.0144912,10,-0.00179525,-1.96485,-0.421401,-0.140009,59.2427,0.165566,
2,0,0,1,0,60299.5,0.155506,0.155159,-11.5213,31,0.0142007,10,-0.00178763,-1.9385,-0.366439,-0.161009,72.4516,0.155159,
2,0,0,1,0,60299.6,0.145105,0.144746,-12.3753,31,0.0138905,10,-0.00179127,-1.90744,-0.299265,-0.197149,95.2816,0.144746,
2,0,0,1,0,60299.6,0.134701,0.134355,-13.5574,31,0.0135543,10,-0.0018215,-1.86782,-0.227848,-0.258944,137.084,0.134355,
2,0,0,1,0,60299.6,0.124305,0.124004,-15.239,31,0.013181,10,-0.0018897,-1.81704,-0.189968,-0.310579,184.976,0.124004,
2,0,0,1,0,60299.6,0.113906,0.11355,-17.3579,31,0.0127576,10,-0.00197099,-1.7605,-0.183459,-0.321598,217.906,0.11355,
2,0,0,1,0,60299.7,0.103505,0.103165,-19.6135,31,0.0122767,10,-0.00202343,-1.70745,-0.213901,-0.275829,210.741,0.103165,
2,0,0,1,0,60299.7,0.0931008,0.09279,-21.7276,31,0.011739,10,-0.0020161,-1.66299,-0.257428,-0.22919,194.216,0.09279,
2,0,0,1,0,60299.7,0.0827051,0.0823715,-23.5812,31,0.011149,10,-0.00194242,-1.62743,-0.339537,-0.173766,159.74,0.08237154,
2,0,0,1,0,60299.8,0.0723065,0.0720485,-25.0335,31,0.010516,10,-0.00180363,-1.60148,-0.475804,-0.124001,121.022,0.0720485,
2,0,0,1,0,60299.8,0.0618996,0.0615876,-26.08,31,0.00985053,10,-0.0016062,-1.58369,-0.764505,-0.0771741,78.4836,0.0615876,
2,0,0,1,0,60299.8,0.0515011,0.0511617,-26.7176,31,0.00916343,10,-0.00136692,-1.5732,-1.33525,-0.0441866,46.0379,0.0511617,
2,0,0,1,0,60299.8,0.0411053,0.040793,-27.0499,31,0.008464,10,-0.00110345,-1.56783,-3.09011,-0.0190932,20.1464,0.040793,
2,0,0,1,0,60299.9,0.0307068,0.0303385,-27.168,31,0.00775872,10,-0.000824234,-1.56594,-15.314,-0.00385269,4.08469,0.0303385,
2,0,0,1,0,60299.9,0.0202999,0.0199465,-27.1506,31,0.00705234,10,-0.000541559,-1.56622,7.99447,0.0073801,-7.81699,0.0199465,
2,0,0,1,0,60299.9,0.00990136,0.00951949,-26.9833,31,0.00634839,10,-0.000256867,-1.56891,2.86739,0.0205762,-21.6609,0.00951949,
2,0,0,1,0,60299.9,-0.000494411,-0.000945662,-26.6872,31,0.00565052,10,2.52371e-05,-1.5737,1.63568,0.0360705,-37.52,-0.000945662,
2,0,0,1,0,60300,-0.010893,-0.0113334,-26.1884,31,0.00496298,10,0.000296803,-1.58189,1.13286,0.0520808,-53.2205,-0.0113334,
2,0,0,1,0,60300,-0.0212998,-0.0216756,-25.5944,31,0.00428965,10,0.000554772,-1.59186,1.0155,0.0580992,-58.044,-0.0216756,
2,0,0,1,0,60300,-0.0316984,-0.032093,-25.0028,31,0.00363205,10,0.000802414,-1.60201,1.05164,0.0561026,-54.7158,-0.032093,
2,0,0,1,0,60300,-0.0420942,-0.0425306,-24.4731,31,0.00298918,10,0.00104085,-1.61131,1.18759,0.0496807,-47.4723,-0.0425306,
2,0,0,1,0,60300.1,-0.0524927,-0.0528695,-24.0798,31,0.00235821,10,0.00127309,-1.61835,1.86481,0.0316386,-29.7638,-0.0528695,
2,0,0,1,0,60300.1,-0.0628996,-0.0632965,-23.8607,31,0.00173532,10,0.0015103,-1.62232,3.67417,0.0160581,-14.9484,-0.0632965,
2,0,0,1,0,60300.1,-0.0732982,-0.0736779,-23.7595,31,0.00111669,10,0.00175055,-1.62416,31.1231,0.0018957,-1.75797,-0.07367792,
2,0,0,1,0,60300.1,-0.0836939,-0.084089,-23.7937,31,0.000498774,10,0.00200079,-1.62354,-5.59426,-0.0105465,9.79897,-0.084089,
2,0,0,1,0,60300.2,-0.0940925,-0.0944789,-23.9571,31,-0.000121748,10,0.00226344,-1.62057,-2.51088,-0.0234977,21.9738,-0.0944789,
2,0,0,1,1,60300.2,-0.0978574,-0.098308,-20.5923,31,-0.000601279,10,0.00202438,-1.6863,-0.0366686,-1.60901,1280.1,-0.09830799,
2,0,0,1,1,60300.2,-0.0874588,-0.0879139,-11.408,31,-0.00100445,10,0.00100293,-1.94279,-0.038192,-1.54483,686.355,-0.0879139,
2,0,0,1,1,60300.2,-0.0770519,-0.0774826,-5.37072,31,-0.00121791,10,0.000416138,-2.26997,-0.024669,-2.39166,493.09,-0.0774826,
2,0,0,1,1,60300.3,-0.0666562,-0.0670684,-0.780301,31,-0.00129504,10,5.23336e-05,-3.10774,-0.00909871,-6.48444,388.391,-0.0670684,
2,1,0,1,1,60300.3,-0.0562576,-0.056687,2.8642,31,-0.00126589,10,-0.000162363,-2.543,0.019751,2.98718,316.954,-0.056687,
2,1,0,1,1,60300.3,-0.0458563,-0.046329,5.85227,31,-0.00115111,10,-0.00027113,-2.23268,0.0512911,1.1503,259.468,-0.046329,
2,1,0,1,1,60300.3,-0.0354522,-0.0358945,8.30573,31,-0.000965968,10,-0.00029813,-2.08062,0.0886687,0.665398,214.046,-0.03589455,
2,1,0,1,1,60300.4,-0.0250564,-0.0254665,10.2899,31,-0.000723188,10,-0.000262047,-1.98759,0.138029,0.427446,171.349,-0.0254665,
2,1,0,1,1,60300.4,-0.0146579,-0.0150448,11.9216,31,-0.000433461,10,-0.000179359,-1.92366,0.191469,0.308143,143.143,-0.0150448,
2,1,0,1,1,60300.4,-0.00425653,-0.00467617,13.2429,31,-0.000105554,10,-6.19262e-05,-1.87802,0.266711,0.221213,114.164,-0.00467617,
2,1,0,0,1,60300.4,-7.54729e-05,-0.000497109,13.6879,31,3.59955e-05,10,-6.80437e-06,-1.86366, , , ,-0.000497109,