File: Figure_codes/Fig_3-5/rawdata_trumpetplot_data/after 10th/20221101_1-115_003_TrumpetPlot_ParaChange_from10_every3_09_CV_C01_14.csv
mode,ox/red,error,control changes,counter inc.,time/s,control/V,Ewe/V,<I>/mA,cycle number,(Q-Qo)/C,I Range,P/W,log(|I|),Tafel slope mV/dec,alpha_eff,dI/d(E-IR),E-IR/V,
2,0,0,0,0,28764.3,2.44065e-05,-0.000306236,-5.32058,15,0.0000000E+000,10,1.62935e-06,-2.27404, , , ,-0.000306236,
2,1,0,1,0,28764.4,0.00978761,0.00947601,1.19734,15,-0.000106632,10,1.13461e-05,-2.92178,0.00844974,6.98247,279.19,0.00947601,
2,1,0,1,0,28764.5,0.0197755,0.0194454,2.94174,15,0.00011448,10,5.72032e-05,-2.5314,0.0613565,0.961593,109.623,0.0194454,
2,1,0,1,0,28764.6,0.0297635,0.0294591,3.80023,15,0.00045555,10,0.000111951,-2.42019,0.127367,0.46323,68.6096,0.0294591,
2,1,0,1,0,28764.7,0.0397514,0.0394605,4.4287,15,0.000868561,10,0.000174759,-2.35372,0.166107,0.355192,61.4362,0.0394605,
2,1,0,1,0,28764.8,0.0497484,0.0494431,4.9955,15,0.00134041,10,0.000246993,-2.30142,0.211376,0.279123,54.3262,0.0494431,
2,1,0,1,0,28764.9,0.0597273,0.0594457,5.50561,15,0.00186527,10,0.000327285,-2.25919,0.256367,0.230139,49.4218,0.0594457,
2,1,0,1,0,28765,0.0697152,0.0693828,5.97011,15,0.0024399,10,0.000414223,-2.22402,0.324832,0.181632,42.3663,0.0693828,
2,1,0,1,0,28765.1,0.0797031,0.0794072,6.39576,15,0.00305898,10,0.00050787,-2.19411,0.382337,0.154314,38.4882,0.0794072,
2,1,0,1,0,28765.2,0.0896911,0.089368,6.74599,15,0.00371663,10,0.000602876,-2.17095,0.448218,0.131632,34.6885,0.089368,
2,1,0,1,0,28765.3,0.099679,0.0994009,7.13822,15,0.00440929,10,0.000709546,-2.14641,0.358442,0.164601,45.8198,0.09940093,
2,1,0,1,0,28765.4,0.109667,0.109362,7.70749,15,0.00514918,10,0.000842908,-2.11309,0.268276,0.219923,66.1415,0.109362,
2,1,0,1,0,28765.5,0.119655,0.119309,8.44168,15,0.00595562,10,0.00100717,-2.07357,0.272035,0.216883,71.4076,0.119309,
2,1,0,1,0,28765.6,0.129643,0.129316,9.08628,15,0.00683338,10,0.001175,-2.04161,0.374104,0.15771,55.897,0.129316,
2,1,0,1,0,28765.7,0.139631,0.139323,9.52728,15,0.00776586,10,0.00132737,-2.02103,0.598871,0.0985187,36.647,0.139323,
2,1,0,1,0,28765.8,0.149619,0.149284,9.67127,15,0.00872913,10,0.00144376,-2.01452,-1.07049,-0.0551152,-20.7387,0.149284,
2,1,0,1,0,28765.9,0.159607,0.15933,8.83345,15,0.00966437,10,0.00140743,-2.05387,-0.135543,-0.435285,-149.662,0.15933,
2,1,0,1,0,28766,0.169595,0.169274,7.07879,15,0.0104617,10,0.00119825,-2.15004,-0.0945596,-0.623945,-172.455,0.169274,
2,1,0,1,0,28766.1,0.179582,0.179305,5.68565,15,0.0110937,10,0.00101946,-2.24522,-0.124723,-0.473047,-105.235,0.179305,
2,1,0,1,0,28766.2,0.18957,0.18926,4.92113,15,0.0116203,10,0.000931374,-2.30794,-0.204342,-0.288731,-55.5183,0.18926,
2,1,0,1,0,28766.3,0.199558,0.199278,4.49809,15,0.0120889,10,0.000896371,-2.34697,-0.349836,-0.16865,-29.5917,0.199278,
2,1,0,1,0,28766.4,0.209546,0.209214,4.24931,15,0.0125253,10,0.000889016,-2.37168,-0.443936,-0.132902,-22.0584,0.209214,
2,1,0,1,0,28766.5,0.219534,0.219263,4.08434,15,0.0129413,10,0.000895547,-2.38888,-0.713562,-0.0826838,-13.1881,0.219263,
2,1,0,1,0,28766.6,0.229522,0.229199,3.97207,15,0.0133443,10,0.000910395,-2.40098,-0.894586,-0.0659523,-10.2315,0.229199,
2,1,0,1,0,28766.7,0.23951,0.239168,3.89502,15,0.0137379,10,0.000931566,-2.40949,-1.89848,-0.0310774,-4.7277,0.2391682,
2,1,0,1,0,28766.8,0.249498,0.249207,3.83697,15,0.0141243,10,0.000956202,-2.41601,-1.62698,-0.0362635,-5.43375,0.2492073,
2,1,0,1,0,28766.9,0.259486,0.259209,3.78599,15,0.0145057,10,0.000981361,-2.42182,-1.25511,-0.0470078,-6.94268,0.259209,
2,1,0,1,0,28767,0.269474,0.26918,3.7405,15,0.0148823,10,0.00100687,-2.42707,-2.10098,-0.0280822,-4.10076,0.26918,
2,1,0,1,0,28767.1,0.279462,0.279169,3.70078,15,0.0152548,10,0.00103314,-2.43171,-2.1129,-0.0279237,-4.03314,0.279169,
2,1,0,1,0,28767.2,0.28945,0.289152,3.65417,15,0.0156228,10,0.00105661,-2.43721,-4.46774,-0.0132058,-1.88331,0.2891525,
2,1,0,1,0,28767.3,0.299438,0.299155,3.6116,15,0.0159861,10,0.00108043,-2.4423,-0.0337651,-1.74737,-228.917,0.299155,
2,0,0,1,0,28767.4,0.291747,0.291445,-0.664246,15,0.0160598,10,-0.000193591,-3.17767,-0.00808971,-7.29321,157.819,0.291445,
2,0,0,1,0,28767.5,0.281759,0.281418,-1.49875,15,0.0159437,10,-0.000421775,-2.82427,-0.0695187,-0.848692,49.3115,0.281418,
2,0,0,1,0,28767.6,0.271771,0.271433,-1.8607,15,0.0157746,10,-0.000505054,-2.73032,-0.135623,-0.435029,31.5231,0.271433,
2,0,0,1,0,28767.7,0.261783,0.261473,-2.10836,15,0.015576,10,-0.000551279,-2.67605,-0.263351,-0.224035,18.3961,0.261473,
2,0,0,1,0,28767.8,0.251795,0.251468,-2.29626,15,0.015356,10,-0.000577436,-2.63898,-0.282801,-0.208627,18.691,0.251468,
2,0,0,1,0,28767.9,0.241807,0.241481,-2.45432,15,0.0151186,10,-0.000592673,-2.61007,-0.371415,-0.158852,15.2447,0.2414811,
2,0,0,1,0,28768,0.231815,0.231534,-2.60442,15,0.0148661,10,-0.000603011,-2.58429,-0.397433,-0.148453,15.0622,0.231534,
2,0,0,1,0,28768.1,0.221831,0.221506,-2.73558,15,0.0146,10,-0.000605947,-2.56295,-0.494205,-0.119384,12.7393,0.221506,
2,0,0,1,0,28768.2,0.211843,0.211529,-2.86219,15,0.0143205,10,-0.000605436,-2.5433,-0.622629,-0.0947595,10.5833,0.211529,
2,0,0,1,0,28768.3,0.201856,0.201507,-2.99273,15,0.0140281,10,-0.000603058,-2.52393,-0.593688,-0.0993788,11.6183,0.201507,
2,0,0,1,0,28768.4,0.191868,0.191545,-3.13152,15,0.0137223,10,-0.000599828,-2.50424,-0.507528,-0.11625,14.2257,0.191545,
2,0,0,1,0,28768.5,0.18188,0.181568,-3.29879,15,0.0134024,10,-0.000598956,-2.48164,-0.388401,-0.151905,19.4916,0.181568,
2,0,0,1,0,28768.6,0.171892,0.17152,-3.4838,15,0.0130647,10,-0.000597541,-2.45795,-0.380103,-0.155221,21.1061,0.17152,
2,0,0,1,0,28768.7,0.161904,0.161583,-3.75134,15,0.0127046,10,-0.000606154,-2.42581,-0.266067,-0.221749,32.479,0.161583,
2,0,0,1,0,28768.8,0.151916,0.151592,-4.17285,15,0.0123108,10,-0.000632568,-2.37957,-0.177855,-0.331731,54.1632,0.151592,
2,0,0,1,0,28768.9,0.141928,0.14161,-4.94022,15,0.0118597,10,-0.000699582,-2.30625,-0.111874,-0.527381,101.776,0.14161,
2,0,0,1,0,28769,0.13194,0.131624,-6.16544,15,0.0113092,10,-0.000811521,-2.21004,-0.0986575,-0.598029,144.142,0.131624,
2,0,0,1,0,28769.1,0.121952,0.121661,-7.5949,15,0.0106212,10,-0.000924005,-2.11948,-0.131023,-0.450302,133.21,0.121661,
2,0,0,1,0,28769.2,0.111964,0.111671,-8.75167,15,0.00980188,10,-0.000977306,-2.05791,-0.206165,-0.286178,97.6224,0.111671,
2,0,0,1,0,28769.3,0.101976,0.101666,-9.49998,15,0.00888672,10,-0.000965829,-2.02228,-0.448789,-0.131465,48.6779,0.101666,
2,0,0,1,0,28769.4,0.0919883,0.0916735,-9.72412,15,0.00792215,10,-0.000891444,-2.01215,22.1155,0.00266781,-1.01194,0.0916735,
2,0,0,1,0,28769.5,0.0820004,0.0816696,-9.46666,15,0.00696133,10,-0.000773138,-2.0238,0.531617,0.110982,-41.0004,0.0816696,
2,0,0,1,0,28769.6,0.0720124,0.0717059,-9.05183,15,0.00603702,10,-0.000649069,-2.04326,0.522507,0.112917,-39.9126,0.0717059,
2,0,0,1,0,28769.7,0.0620245,0.0616989,-8.73584,15,0.00514981,10,-0.000538992,-2.0587,0.707731,0.083365,-28.4385,0.06169891,
2,0,0,1,0,28769.8,0.0520366,0.0517171,-8.48251,15,0.00429037,10,-0.000438691,-2.07148,0.721778,0.0817426,-27.0307,0.0517171,
2,0,0,1,0,28769.9,0.0420486,0.0417112,-8.2076,15,0.00345698,10,-0.000342349,-2.08578,0.722425,0.0816694,-26.1732,0.0417112,
2,0,0,1,0,28770,0.0320607,0.0317293,-7.9098,15,0.00265258,10,-0.000250973,-2.10183,0.529126,0.111505,-34.3868,0.0317293,
2,0,0,1,0,28770.1,0.0220728,0.0217748,-7.52787,15,0.00188163,10,-0.000163918,-2.12333,0.428009,0.137848,-40.4909,0.0217748,
2,0,0,1,0,28770.2,0.0120848,0.0117262,-7.12919,15,0.00114998,10,-8.35986e-05,-2.14696,0.413957,0.142527,-39.675,0.0117262,
2,0,0,1,0,28770.3,0.0020969,0.00171832,-6.84557,15,0.000455447,10,-1.17629e-05,-2.16459,0.710473,0.0830432,-22.078,0.001718321,
2,0,0,1,0,28770.4,-0.00789103,-0.00826358,-6.59756,15,-0.000213753,10,5.45194e-05,-2.18062,1.14547,0.0515071,-13.2825,-0.00826358,
2,0,0,1,0,28770.5,-0.017879,-0.0182583,-6.54296,15,-0.000868138,10,0.000119463,-2.18423,-10.9368,-0.00539463,1.37678,-0.0182583,
2,0,0,1,0,28770.6,-0.0278669,-0.0282258,-6.58508,15,-0.0015227,10,0.000185869,-2.18144,-1.78692,-0.0330177,8.49773,-0.0282258,
2,0,0,1,0,28770.7,-0.0378548,-0.038246,-6.73185,15,-0.0021872,10,0.000257467,-2.17187,-0.960376,-0.0614342,16.1368,-0.038246,
2,0,0,1,0,28770.8,-0.0478428,-0.048228,-6.94037,15,-0.00286941,10,0.00033472,-2.15862,-0.560506,-0.105262,28.5355,-0.048228,
2,0,0,1,0,28770.9,-0.0578217,-0.058186,-7.21702,15,-0.00357519,10,0.000419929,-2.14164,-0.564557,-0.104507,29.437,-0.05818595,
2,0,0,1,0,28771,-0.0678187,-0.068209,-7.555,15,-0.00431208,10,0.000515319,-2.12177,-0.440442,-0.133956,39.5005,-0.068209,
2,0,0,1,0,28771.1,-0.0778066,-0.0781999,-7.96717,15,-0.00508658,10,0.000623032,-2.0987,-0.416427,-0.141682,44.0702,-0.0781999,
2,0,0,1,0,28771.2,-0.0877945,-0.0881548,-8.45585,15,-0.00590628,10,0.000745424,-2.07284,-0.369932,-0.159489,52.6499,-0.0881548,
2,0,0,1,0,28771.3,-0.0977825,-0.0981995,-8.96753,15,-0.00677673,10,0.000880607,-2.04733,-0.392194,-0.150436,52.6747,-0.0981995,
2,0,0,1,1,28771.4,-0.0927386,-0.093085,-2.61654,15,-0.00735061,10,0.000243561,-2.58227,-0.0113829,-5.18322,520.381,-0.093085,
2,1,0,1,1,28771.5,-0.0827529,-0.0830914,0.935415,15,-0.00741162,10,-7.7725e-05,-3.029,0.00760935,7.75362,244.762,-0.0830914,
2,1,0,1,1,28771.6,-0.0727627,-0.0731397,2.76112,15,-0.0072181,10,-0.000201948,-2.55891,0.0465305,1.26799,135.063,-0.0731397,
2,1,0,1,1,28771.7,-0.0627748,-0.0631369,3.80782,15,-0.00688535,10,-0.000240414,-2.41932,0.109268,0.539957,79.9971,-0.06313695,
2,1,0,1,1,28771.8,-0.0527868,-0.0531084,4.42691,15,-0.00647091,10,-0.000235106,-2.3539,0.224817,0.262435,45.2751,-0.0531084,
2,1,0,1,1,28771.9,-0.0427989,-0.0431594,4.7885,15,-0.0060085,10,-0.000206669,-2.3198,0.372282,0.158482,29.619,-0.0431594,
2,1,0,1,1,28772,-0.0328109,-0.0331659,4.99268,15,-0.00551919,10,-0.000165587,-2.30167,0.978813,0.0602771,11.717,-0.0331659,
2,1,0,1,1,28772.1,-0.022823,-0.0232077,5.07696,15,-0.00501577,10,-0.000117825,-2.2944,2.85399,0.0206728,4.09412,-0.0232077,
2,1,0,1,1,28772.2,-0.0128351,-0.013178,5.09919,15,-0.00450694,10,-6.71973e-05,-2.2925,14.7451,0.00400134,0.796876,-0.013178,
2,1,0,1,1,28772.3,-0.00284713,-0.00322286,5.11031,15,-0.00399666,10,-1.64698e-05,-2.29155,-9.10547,-0.00647962,-1.29154,-0.00322286,
2,1,0,1,1,28772.3,-2.55332e-05,-0.000439847,5.11861,15,-0.00385307,10,-2.25141e-06,-2.29085, , , ,-0.000439847,