File: Figure_codes/Fig_3-5/rawdata_trumpetplot_data/after 10th/20221101_1-115_003_TrumpetPlot_ParaChange_from10_every3_11_CV_C01_14.csv
mode,ox/red,error,control changes,counter inc.,time/s,control/V,Ewe/V,<I>/mA,cycle number,(Q-Qo)/C,I Range,P/W,log(|I|),Tafel slope mV/dec,alpha_eff,dI/d(E-IR),E-IR/V,
2,1,0,1,0,28776.3,2.44065e-05,-0.000363498,9.48433,15,0.0000000E+000,10,-3.44754e-06,-2.02299, , , ,-0.000363498,
2,1,0,1,0,28776.4,0.0101427,0.0098005,12.9157,15,0.000289063,10,0.000126581,-1.88888,0.128023,0.460855,231.002,0.0098005,
2,1,0,1,0,28776.4,0.0205441,0.0202614,14.8759,15,0.000652101,10,0.000301407,-1.82752,0.218785,0.269671,156.214,0.0202614,
2,1,0,1,0,28776.4,0.0309482,0.0306099,16.3149,15,0.00105838,10,0.000499399,-1.78741,0.301499,0.195689,124.458,0.0306099,
2,1,0,1,0,28776.4,0.0413439,0.041039,17.5152,15,0.00149847,10,0.000718808,-1.75658,0.372618,0.158339,108.115,0.041039,
2,1,0,1,0,28776.5,0.0517425,0.0513769,18.6181,15,0.00196829,10,0.000956541,-1.73006,0.404262,0.145945,106.028,0.0513769,
2,1,0,1,0,28776.5,0.0621438,0.061806,19.7143,15,0.00246671,10,0.00121846,-1.70522,0.425507,0.138658,106.709,0.061806,
2,1,0,1,0,28776.5,0.0725479,0.0721991,20.8485,15,0.00299405,10,0.00150524,-1.68092,0.431102,0.136858,111.321,0.0721991,
2,1,0,1,0,28776.6,0.0829437,0.08259,22.0103,15,0.00355121,10,0.00181783,-1.65737,0.459197,0.128485,110.325,0.08259,
2,1,0,1,0,28776.6,0.0933422,0.0929735,23.1455,15,0.00413854,10,0.00215192,-1.63553,0.488263,0.120836,109.201,0.0929735,
2,1,0,1,0,28776.6,0.103749,0.103389,24.3094,15,0.00475556,10,0.00251332,-1.61423,0.50543,0.116732,110.744,0.103389,
2,1,0,1,0,28776.6,0.114148,0.113812,25.4619,15,0.00540259,10,0.00289786,-1.59411,0.511519,0.115343,114.586,0.113812,
2,1,0,1,0,28776.7,0.124543,0.124202,26.7151,15,0.00608062,10,0.00331808,-1.57324,0.483232,0.122094,127.31,0.124202,
2,1,0,1,0,28776.7,0.134942,0.134588,28.1522,15,0.00679377,10,0.00378894,-1.55049,0.444919,0.132609,145.781,0.134588,
2,1,0,1,0,28776.7,0.145349,0.145015,29.7144,15,0.00754602,10,0.00430903,-1.52703,0.462696,0.127514,147.762,0.145015,
2,1,0,1,0,28776.7,0.155747,0.155448,31.1739,15,0.00833778,10,0.00484593,-1.50621,0.541015,0.109054,132.547,0.155448,
2,1,0,1,0,28776.8,0.166143,0.16577,32.3545,15,0.00916459,10,0.00536342,-1.49007,0.806353,0.073169,92.3566,0.16577,
2,1,0,1,0,28776.8,0.176542,0.176219,32.9663,15,0.0100158,10,0.00580927,-1.48193,6.23626,0.0094608,12.153,0.176219,
2,1,0,1,0,28776.8,0.186949,0.186596,32.4813,15,0.0108692,10,0.00606088,-1.48837,-0.66545,-0.0886618,-112.114,0.186596,
2,1,0,1,0,28776.8,0.197347,0.197023,30.6197,15,0.0116921,10,0.00603277,-1.514,-0.30135,-0.195785,-233.539,0.197023,
2,1,0,1,0,28776.9,0.207743,0.207418,27.7661,15,0.0124522,10,0.00575918,-1.55649,-0.215578,-0.273683,-296.363,0.207418,
2,1,0,1,0,28776.9,0.218141,0.217823,24.7137,15,0.0131338,10,0.00538319,-1.60706,-0.205658,-0.286884,-276.885,0.217823,
2,1,0,1,0,28776.9,0.228548,0.228246,22.1048,15,0.0137409,10,0.00504533,-1.65551,-0.226428,-0.260568,-224.891,0.228246,
2,1,0,1,0,28776.9,0.238947,0.238617,20.0764,15,0.0142877,10,0.00479058,-1.69731,-0.276177,-0.213631,-167.534,0.238617,
2,1,0,1,0,28777,0.249343,0.249032,18.5656,15,0.0147889,10,0.00462344,-1.73129,-0.344368,-0.171328,-124.286,0.249032,
2,1,0,1,0,28777,0.259741,0.259452,17.4477,15,0.0152563,10,0.00452684,-1.75826,-0.424796,-0.13889,-94.5846,0.259452,
2,1,0,1,0,28777,0.270148,0.269797,16.5819,15,0.0156981,10,0.00447376,-1.78037,-0.531819,-0.11094,-71.8534,0.269797,
2,1,0,1,0,28777,0.280547,0.280205,15.9067,15,0.0161202,10,0.00445713,-1.79842,-0.652793,-0.0903808,-56.148,0.280205,
2,1,0,1,0,28777.1,0.290942,0.290619,15.3677,15,0.0165265,10,0.00446614,-1.81339,-0.739561,-0.0797771,-47.839,0.290619,
2,1,0,0,0,28777.1,0.300012,0.299785,14.9727,15,0.0168707,10,0.00448857,-1.8247,0.00149429,39.4837,20280,0.299785,
2,1,0,1,0,28777.1,0.290704,0.290399,4.81413,15,0.0170784,10,0.00139802,-2.31748,0.0161125,3.66174,678.26,0.2903989,
2,0,0,1,0,28777.1,0.280305,0.280021,-0.244021,15,0.0171305,10,-6.83308e-05,-3.61257,-0.0553051,-1.06681,354.441,0.280021,
2,0,0,1,0,28777.2,0.269909,0.269577,-3.11574,15,0.0170835,10,-0.000839931,-2.50644,-0.0318625,-1.85171,218.078,0.269577,
2,0,0,1,0,28777.2,0.2595,0.259181,-4.95681,15,0.0169768,10,-0.00128471,-2.3048,-0.0765148,-0.771093,147.95,0.259181,
2,0,0,1,0,28777.2,0.249104,0.248763,-6.25251,15,0.0168301,10,-0.00155539,-2.20395,-0.13584,-0.434334,105.463,0.2487631,
2,0,0,1,0,28777.2,0.238705,0.238364,-7.22048,15,0.0166544,10,-0.0017211,-2.14143,-0.200772,-0.293866,82.7299,0.238364,
2,0,0,1,0,28777.3,0.22831,0.228018,-7.99439,15,0.016456,10,-0.00182287,-2.09721,-0.267497,-0.220563,68.8884,0.228018,
2,0,0,1,0,28777.3,0.2179,0.217593,-8.68674,15,0.0162388,10,-0.00189018,-2.06114,-0.329257,-0.179191,60.5877,0.217593,
2,0,0,1,0,28777.3,0.207504,0.207218,-9.27157,15,0.0160053,10,-0.00192124,-2.03285,-0.400748,-0.147225,53.2802,0.2072185,
2,0,0,1,0,28777.4,0.197106,0.196777,-9.82121,15,0.0157569,10,-0.00193259,-2.00783,-0.436856,-0.135056,51.8402,0.196777,
2,0,0,1,0,28777.4,0.18671,0.18638,-10.3802,15,0.0154942,10,-0.00193467,-1.98379,-0.438873,-0.134435,54.4195,0.18638,
2,0,0,1,0,28777.4,0.1763,0.17595,-10.9592,15,0.015217,10,-0.00192828,-1.96022,-0.437318,-0.134913,57.6702,0.17595,
2,0,0,1,0,28777.4,0.165905,0.165578,-11.6002,15,0.014924,10,-0.00192074,-1.93554,-0.386318,-0.152724,69.201,0.165578,
2,0,0,1,0,28777.5,0.155506,0.1552,-12.427,15,0.014612,10,-0.00192867,-1.90563,-0.306634,-0.192412,93.3973,0.1552,
2,0,0,1,0,28777.5,0.145105,0.144793,-13.5718,15,0.0142749,10,-0.00196511,-1.86736,-0.231143,-0.255253,135.358,0.144793,
2,0,0,1,0,28777.5,0.134701,0.13441,-15.2697,15,0.0139013,10,-0.0020524,-1.81617,-0.177869,-0.331706,198.013,0.13441,
2,0,0,1,0,28777.5,0.124305,0.123963,-17.6757,15,0.0134741,10,-0.00219113,-1.75262,-0.155712,-0.378905,261.657,0.1239628,
2,0,0,1,0,28777.6,0.113906,0.113627,-20.5143,15,0.0129776,10,-0.00233097,-1.68794,-0.169966,-0.347129,277.824,0.113627,
2,0,0,1,0,28777.6,0.103505,0.103229,-23.2987,15,0.0124072,10,-0.0024051,-1.63267,-0.206209,-0.286118,260.041,0.103229,
2,0,0,1,0,28777.6,0.0931008,0.0928367,-25.8188,15,0.0117674,10,-0.00239693,-1.58806,-0.267782,-0.220329,221.808,0.0928367,
2,0,0,1,0,28777.6,0.0827051,0.0824267,-27.8541,15,0.0110683,10,-0.00229592,-1.55511,-0.381632,-0.154599,167.81,0.0824267,
2,0,0,1,0,28777.7,0.0723065,0.0720124,-29.302,15,0.010324,10,-0.0021101,-1.5331,-0.623781,-0.0945845,107.992,0.0720124,
2,0,0,1,0,28777.7,0.0618996,0.0615791,-30.0715,15,0.00955062,10,-0.00185178,-1.52184,-1.57349,-0.0374962,43.9728,0.0615791,
2,0,0,1,0,28777.7,0.0515011,0.0511988,-30.2818,15,0.00876505,10,-0.00155039,-1.51882,-27.9827,-0.00210845,2.4901,0.0511988,
2,0,0,1,0,28777.7,0.0411053,0.0407665,-30.1491,15,0.00797901,10,-0.00122907,-1.52073,3.07767,0.0191703,-22.5495,0.0407665,
2,0,0,1,0,28777.8,0.0307068,0.0303713,-29.848,15,0.00719864,10,-0.000906524,-1.52508,2.06189,0.0286146,-33.3501,0.0303713,
2,0,0,1,0,28777.8,0.0202999,0.0199963,-29.4794,15,0.00642712,10,-0.00058948,-1.53048,1.59977,0.0368803,-42.4105,0.0199963,
2,0,0,1,0,28777.8,0.00990136,0.00957251,-28.965,15,0.00566716,10,-0.000277268,-1.53813,1.17151,0.0503624,-56.9047,0.00957251,
2,0,0,1,0,28777.8,-0.000494411,-0.000873554,-28.2859,15,0.00492269,10,2.47093e-05,-1.54843,0.837336,0.0704616,-77.6742,-0.000873554,
2,0,0,1,0,28777.9,-0.010893,-0.0112698,-27.3389,15,0.00419935,10,0.000308103,-1.56322,0.660984,0.0892608,-95.242,-0.0112698,
2,0,0,1,0,28777.9,-0.0212998,-0.0216745,-26.3187,15,0.00350191,10,0.000570444,-1.57974,0.638184,0.0924499,-94.9559,-0.0216745,
2,0,0,1,0,28777.9,-0.0316984,-0.0320909,-25.4057,15,0.00283017,10,0.00081529,-1.59507,0.741523,0.079566,-78.8654,-0.0320909,
2,0,0,1,0,28778,-0.0420942,-0.04245,-24.6947,15,0.00217954,10,0.00104829,-1.6074,1.02291,0.0576787,-55.6438,-0.04245,
2,0,0,1,0,28778,-0.0524927,-0.0528706,-24.2771,15,0.0015434,10,0.00128354,-1.6148,2.10832,0.0279844,-26.5349,-0.0528706,
2,0,0,1,0,28778,-0.0628996,-0.0632159,-24.1126,15,0.00091498,10,0.0015243,-1.61776,9.15205,0.00644665,-6.06332,-0.0632159,
2,0,0,1,0,28778,-0.0732982,-0.0736684,-24.1162,15,0.000288519,10,0.0017766,-1.61769,-4.60039,-0.012825,12.0782,-0.0736684,
2,0,0,1,0,28778.1,-0.0836939,-0.0840604,-24.3196,15,-0.000340902,10,0.00204432,-1.61404,-2.10033,-0.0280909,26.6746,-0.0840604,
2,0,0,1,0,28778.1,-0.0940925,-0.0944767,-24.6835,15,-0.000977622,10,0.00233202,-1.60759,-1.34775,-0.0437767,42.165,-0.0944767,
2,0,0,1,1,28778.1,-0.0978574,-0.0982719,-20.8544,15,-0.00147186,10,0.0020494,-1.6808,-0.0301366,-1.95775,1565.84,-0.0982719,
2,0,0,1,1,28778.1,-0.0874588,-0.0878375,-9.75185,15,-0.00185391,10,0.000856578,-2.01091,-0.0273279,-2.15896,815.664,-0.08783754,
2,0,0,1,1,28778.2,-0.077052,-0.077418,-2.70691,15,-0.00200979,10,0.000209564,-2.56753,-0.00948935,-6.2175,569.358,-0.077418,
2,1,0,1,1,28778.2,-0.0666562,-0.0670801,2.41618,15,-0.00200991,10,-0.000162078,-2.61687,0.0112284,5.25451,423.725,-0.0670801,
2,1,0,1,1,28778.2,-0.0562576,-0.0567103,6.30022,15,-0.00189406,10,-0.000357287,-2.20064,0.0430269,1.37123,332.513,-0.0567103,
2,1,0,1,1,28778.2,-0.0458563,-0.0462749,9.34264,15,-0.0016887,10,-0.000432329,-2.02953,0.0828267,0.712331,257.945,-0.0462749,
2,1,0,1,1,28778.3,-0.0354522,-0.035814,11.6866,15,-0.00141384,10,-0.000418545,-1.93231,0.135606,0.435083,197.601,-0.035814,
2,1,0,1,1,28778.3,-0.0250564,-0.0254591,13.4637,15,-0.00108558,10,-0.000342773,-1.87084,0.208666,0.282748,148.485,-0.0254591,
2,1,0,1,1,28778.3,-0.0146579,-0.0150523,14.8386,15,-0.000716613,10,-0.000223355,-1.82861,0.297629,0.198234,114.62,-0.0150523,
2,1,0,1,1,28778.3,-0.00425653,-0.00462103,15.8608,15,-0.000316873,10,-7.32933e-05,-1.79967,0.4395,0.134243,82.9923,-0.00462103,
2,1,0,0,1,28778.3,-7.54729e-05,-0.000458935,16.1652,15,-0.000148556,10,-7.41878e-06,-1.79142, , , ,-0.000458935,