File: Figure_codes/Fig_3-5/rawdata_trumpetplot_data/after 10th/20221101_1-115_003_TrumpetPlot_ParaChange_from10_every3_06_CV_C01_5.csv
mode,ox/red,error,control changes,counter inc.,time/s,control/V,Ewe/V,<I>/mA,cycle number,(Q-Qo)/C,I Range,P/W,log(|I|),Tafel slope mV/dec,alpha_eff,dI/d(E-IR),E-IR/V,
2,0,0,0,0,11000.7,2.44065e-05,-0.000382585,-1.41598,6,0.0000000E+000,10,5.41733e-07,-2.84894, , , ,-0.000382585,
2,1,0,1,0,11000.9,0.00729063,0.006957,1.40731,6,0.00013054,10,9.79066e-06,-2.85161,0.0424032,1.3914,74.5251,0.006957,
2,1,0,1,0,11001,0.014778,0.0144868,1.72768,6,0.000431195,10,2.50285e-05,-2.76254,0.127413,0.463062,31.0699,0.0144868,
2,1,0,1,0,11001.2,0.0222743,0.0219901,1.92385,6,0.000776789,10,4.23057e-05,-2.71583,0.174311,0.338475,25.4429,0.0219901,
2,1,0,1,0,11001.4,0.0297626,0.0294604,2.11132,6,0.00115707,10,6.22003e-05,-2.67545,0.21312,0.276839,22.7279,0.0294604,
2,1,0,1,0,11001.6,0.0372544,0.0369316,2.29332,6,0.00157211,10,8.46961e-05,-2.63953,0.215555,0.273712,24.4767,0.0369316,
2,1,0,1,0,11001.8,0.0447472,0.0444412,2.47235,6,0.00202185,10,0.000109874,-2.60689,0.230789,0.255645,24.7149,0.0444412,
2,1,0,1,0,11002,0.0522345,0.0519081,2.65508,6,0.00250507,10,0.00013782,-2.57592,0.253083,0.233126,24.0976,0.0519081,
2,1,0,1,0,11002.2,0.0597309,0.0594308,2.81661,6,0.00302126,10,0.000167393,-2.55027,0.281012,0.209956,23.1067,0.0594308,
2,1,0,1,0,11002.4,0.0672182,0.0669186,2.9748,6,0.00356689,10,0.000199069,-2.52654,0.322337,0.183039,21.2308,0.0669186,
2,1,0,1,0,11002.5,0.0747074,0.0743872,3.11836,6,0.00413999,10,0.000231966,-2.50607,0.428226,0.137778,16.7324,0.0743872,
2,1,0,1,0,11002.7,0.0822019,0.0818776,3.23281,6,0.00473851,10,0.000264695,-2.49042,0.441395,0.133667,16.9182,0.0818776,
2,1,0,1,0,11002.9,0.0896911,0.0893586,3.37274,6,0.00536,10,0.000301384,-2.47202,0.404306,0.145929,19.219,0.08935865,
2,1,0,1,0,11003.1,0.097182,0.0968301,3.55819,6,0.00601135,10,0.000344539,-2.44877,0.248895,0.237048,32.9445,0.0968301,
2,1,0,1,0,11003.3,0.104675,0.10436,3.84454,6,0.00670648,10,0.000401215,-2.41516,0.198386,0.297399,44.6359,0.10436,
2,1,0,1,0,11003.5,0.112162,0.111838,4.18029,6,0.00746026,10,0.000467514,-2.37879,0.228905,0.257749,41.9018,0.111838,
2,1,0,1,0,11003.7,0.119655,0.119344,4.4463,6,0.0082725,10,0.000530642,-2.352,0.388426,0.151895,26.3656,0.119344,
2,1,0,1,0,11003.8,0.127146,0.126804,4.64013,6,0.00912783,10,0.000588385,-2.33347,0.444457,0.132746,24.0637,0.126804,
2,1,0,1,0,11004,0.134635,0.134303,4.82213,6,0.0100172,10,0.000647625,-2.31676,0.614006,0.0960903,18.0583,0.134303,
2,1,0,1,0,11004.2,0.14213,0.141825,4.84296,6,0.0109306,10,0.000686853,-2.31489,-0.586341,-0.100624,-18.9717,0.141825,
2,1,0,1,0,11004.4,0.149619,0.14929,4.39822,6,0.0118082,10,0.00065661,-2.35672,-0.106885,-0.551996,-94.2863,0.14929,
2,1,0,1,0,11004.6,0.157106,0.156783,3.55131,6,0.012557,10,0.000556786,-2.44961,-0.0715065,-0.8251,-114.16,0.156783,
2,1,0,1,0,11004.8,0.164602,0.164314,2.8487,6,0.0131541,10,0.00046808,-2.54535,-0.0940425,-0.627376,-70.0551,0.164314,
2,1,0,1,0,11005,0.172091,0.171792,2.4429,6,0.0136492,10,0.000419671,-2.61209,-0.132773,-0.444367,-42.4321,0.171792,
2,1,0,1,0,11005.2,0.179582,0.179295,2.20319,6,0.0140862,10,0.000395021,-2.65695,-0.214858,-0.2746,-23.7157,0.179295,
2,1,0,1,0,11005.3,0.187074,0.186761,2.06044,6,0.0144882,10,0.00038481,-2.68604,-0.362119,-0.16293,-13.1313,0.186761,
2,1,0,1,0,11005.5,0.194563,0.194242,1.97864,6,0.0148686,10,0.000384334,-2.70363,-0.494402,-0.119336,-9.19194,0.194242,
2,1,0,1,0,11005.7,0.202059,0.201769,1.91521,6,0.0152355,10,0.000386429,-2.71778,-0.750159,-0.07865,-5.86629,0.2017688,
2,1,0,1,0,11005.9,0.209546,0.209242,1.87156,6,0.0155926,10,0.000391608,-2.7278,-0.661123,-0.089242,-6.52141,0.209242,
2,1,0,1,0,11006.1,0.217035,0.216721,1.83007,6,0.0159421,10,0.000396615,-2.73753,-0.910473,-0.0648015,-4.63278,0.216721,
2,1,0,1,0,11006.3,0.22453,0.224279,1.80176,6,0.0162861,10,0.000404097,-2.7443,-1.49498,-0.0394655,-2.78504,0.224279,
2,1,0,1,0,11006.5,0.232019,0.231708,1.78314,6,0.0166249,10,0.000413168,-2.74881,-2.46326,-0.023952,-1.66395,0.231708,
2,1,0,1,0,11006.7,0.23951,0.23923,1.76251,6,0.0169598,10,0.000421645,-2.75387,-1.17724,-0.050117,-3.44969,0.23923,
2,1,0,1,0,11006.8,0.247003,0.246682,1.73973,6,0.0172909,10,0.00042916,-2.75952,-1.2788,-0.0461371,-3.13493,0.246682,
2,1,0,1,0,11007,0.25449,0.254189,1.72588,6,0.0176182,10,0.000438699,-2.76299,-1.86535,-0.0316294,-2.11853,0.254189,
2,1,0,1,0,11007.2,0.261983,0.261666,1.69888,6,0.0179423,10,0.000444539,-2.76984,-1.49136,-0.0395611,-2.63569,0.261666,
2,1,0,1,0,11007.4,0.269474,0.269184,1.6858,6,0.0182629,10,0.000453792,-2.77319,-3.50622,-0.0168272,-1.10895,0.269184,
2,1,0,1,0,11007.6,0.276963,0.276633,1.66873,6,0.0185802,10,0.000461625,-2.77761,-12.1834,-0.00484266,-0.315044,0.276633,
2,1,0,1,0,11007.8,0.284458,0.284124,1.65166,6,0.0188945,10,0.000469277,-2.78208,-2.21526,-0.0266335,-1.72029,0.284124,
2,1,0,1,0,11008,0.291947,0.291647,1.63544,6,0.0192051,10,0.000476971,-2.78637,-1.13749,-0.0518687,-3.30418,0.291647,
2,1,0,1,0,11008.2,0.299434,0.299113,1.61331,6,0.0195124,10,0.000482561,-2.79228,-0.0115738,-5.09772,-260.421,0.299113,
2,0,0,1,0,11008.3,0.294196,0.293879,-0.44518,6,0.0195265,10,-0.000130829,-3.35146,-0.0202066,-2.91984,47.9787,0.293879,
2,0,0,1,0,11008.5,0.286701,0.286373,-0.650799,6,0.0194171,10,-0.000186371,-3.18655,-0.0755437,-0.781005,19.7336,0.286373,
2,0,0,1,0,11008.7,0.279212,0.278913,-0.770032,6,0.0192794,10,-0.000214772,-3.11349,-0.128113,-0.460532,13.9202,0.278913,
2,0,0,1,0,11008.9,0.271725,0.271415,-0.85612,6,0.0191226,10,-0.000232364,-3.06747,-0.140561,-0.419748,14.092,0.271415,
2,0,0,1,0,11009.1,0.264228,0.263873,-0.938806,6,0.0189505,10,-0.000247726,-3.02742,-0.226248,-0.260776,9.49189,0.263873,
2,0,0,1,0,11009.3,0.256741,0.256408,-0.993368,6,0.0187661,10,-0.000254707,-3.00289,-0.328323,-0.179701,6.99055,0.256408,
2,0,0,1,0,11009.4,0.249248,0.248957,-1.05386,6,0.0185707,10,-0.000262365,-2.97722,-0.445914,-0.132312,5.40805,0.248957,
2,0,0,1,0,11009.6,0.241756,0.24145,-1.09915,6,0.0183653,10,-0.000265391,-2.95894,-0.37801,-0.15608,6.736,0.24145,
2,0,0,1,0,11009.8,0.234268,0.233936,-1.14662,6,0.0181507,10,-0.000268237,-2.94058,-0.424722,-0.138914,6.26015,0.233936,
2,0,0,1,0,11010,0.226772,0.226449,-1.20126,6,0.0179269,10,-0.000272025,-2.92036,-0.34385,-0.171587,7.98667,0.226449,
2,0,0,1,0,11010.2,0.219284,0.21895,-1.24493,6,0.0176946,10,-0.000272578,-2.90485,-0.460835,-0.128028,6.22376,0.21895,
2,0,0,1,0,11010.4,0.211796,0.211473,-1.296,6,0.0174536,10,-0.000274069,-2.8874,-0.606236,-0.0973218,4.89886,0.211473,
2,0,0,1,0,11010.6,0.204301,0.203949,-1.34438,6,0.0172031,10,-0.000274185,-2.87148,-0.624536,-0.0944702,4.95438,0.203949,
2,0,0,1,0,11010.7,0.196812,0.196502,-1.38889,6,0.0169435,10,-0.00027292,-2.85733,-0.473719,-0.124547,6.81127,0.196502,
2,0,0,1,0,11010.9,0.189321,0.18901,-1.45385,6,0.0166732,10,-0.000274791,-2.83748,-0.394727,-0.14947,8.49551,0.1890098,
2,0,0,1,0,11011.1,0.181828,0.181538,-1.53353,6,0.0163904,10,-0.000278393,-2.81431,-0.331678,-0.177883,10.617,0.181538,
2,0,0,1,0,11011.3,0.174341,0.174039,-1.61736,6,0.0160923,10,-0.000281484,-2.79119,-0.235807,-0.250204,15.8727,0.1740392,
2,0,0,1,0,11011.5,0.166848,0.16651,-1.75412,6,0.0157736,10,-0.000292078,-2.75594,-0.194714,-0.303009,20.6747,0.16651,
2,0,0,1,0,11011.7,0.159357,0.159067,-1.93732,6,0.0154258,10,-0.000308163,-2.7128,-0.144394,-0.408605,30.932,0.159067,
2,0,0,1,0,11011.9,0.151868,0.151533,-2.23397,6,0.0150338,10,-0.000338521,-2.65092,-0.0998251,-0.591034,51.7509,0.151533,
2,0,0,1,0,11012.1,0.144373,0.144026,-2.71859,6,0.0145696,10,-0.000391547,-2.56566,-0.0779785,-0.756619,80.3003,0.144026,
2,0,0,1,0,11012.2,0.136884,0.13657,-3.39959,6,0.0139954,10,-0.000464282,-2.46857,-0.0787682,-0.749033,99.4313,0.13657,
2,0,0,1,0,11012.4,0.129393,0.129056,-4.11737,6,0.0132859,10,-0.000531369,-2.38538,-0.106925,-0.551786,88.5232,0.129056,
2,0,0,1,0,11012.6,0.1219,0.121602,-4.65927,6,0.0124564,10,-0.000566575,-2.33168,-0.206878,-0.285193,51.6352,0.121602,
2,0,0,1,0,11012.8,0.114413,0.1141,-4.91939,6,0.0115521,10,-0.000561304,-2.30809,-0.637483,-0.0925515,17.764,0.1141,
2,0,0,1,0,11013,0.10692,0.106645,-4.94615,6,0.0106209,10,-0.000527481,-2.30573,0.982128,0.0600737,-11.5781,0.106645,
2,0,0,1,0,11013.2,0.0994284,0.0991164,-4.78344,6,0.00970346,10,-0.000474117,-2.32026,0.362767,0.162639,-30.3028,0.09911637,
2,0,0,1,0,11013.4,0.0919401,0.0916268,-4.50439,6,0.00882968,10,-0.000412723,-2.34636,0.277037,0.212968,-37.4826,0.0916268,
2,0,0,1,0,11013.6,0.0844447,0.0841335,-4.24461,6,0.00800775,10,-0.000357114,-2.37216,0.330704,0.178407,-29.5178,0.0841335,
2,0,0,1,0,11013.7,0.0769565,0.0766221,-4.05356,6,0.0072291,10,-0.000310592,-2.39216,0.43828,0.134617,-21.313,0.0766221,
2,0,0,1,0,11013.9,0.0694682,0.069173,-3.91904,6,0.00647948,10,-0.000271091,-2.40682,0.61372,0.0961351,-14.7239,0.069173,
2,0,0,1,0,11014.1,0.0619728,0.0616681,-3.80646,6,0.00575155,10,-0.000234737,-2.41948,0.531352,0.111038,-16.5001,0.0616681,
2,0,0,1,0,11014.3,0.0544836,0.0541083,-3.68828,6,0.00504628,10,-0.000199566,-2.43318,0.660167,0.0893713,-12.8701,0.0541083,
2,0,0,1,0,11014.5,0.0469927,0.0466985,-3.56608,6,0.00436301,10,-0.000166531,-2.44781,0.477883,0.123461,-17.1607,0.0466985,
2,0,0,1,0,11014.7,0.0394999,0.0391856,-3.43477,6,0.00370457,10,-0.000134594,-2.4641,0.405307,0.145569,-19.4277,0.0391856,
2,0,0,1,0,11014.9,0.0320125,0.0317335,-3.27265,6,0.00307378,10,-0.000103853,-2.4851,0.333627,0.176844,-22.6099,0.0317335,
2,0,0,1,0,11015.1,0.0245198,0.0242439,-3.11321,6,0.0024719,10,-7.54763e-05,-2.50679,0.362094,0.162941,-19.8168,0.0242439,
2,0,0,1,0,11015.2,0.0170289,0.016722,-2.98007,6,0.00189769,10,-4.98328e-05,-2.52577,0.459579,0.128378,-14.9707,0.016722,
2,0,0,1,0,11015.4,0.0095397,0.00922635,-2.87822,6,0.00134606,10,-2.65555e-05,-2.54088,0.741205,0.0796001,-8.95308,0.00922635,
2,0,0,1,0,11015.6,0.00204518,0.00168737,-2.86854,6,0.00080866,10,-4.84028e-06,-2.54234,4.61174,0.0127934,-1.41136,0.001687366,
2,0,0,1,0,11015.7,0.000177222,-0.000205455,-2.82396,6,0.000674971,10,5.80196e-07,-2.54914, , , ,-0.000205455,