File: Figure_codes/Fig_3-5/rawdata_trumpetplot_data/after 10th/20221101_1-115_003_TrumpetPlot_ParaChange_from10_every3_05_CV_C01_10.csv
mode,ox/red,error,control changes,counter inc.,time/s,control/V,Ewe/V,<I>/mA,cycle number,(Q-Qo)/C,I Range,P/W,log(|I|),Tafel slope mV/dec,alpha_eff,dI/d(E-IR),E-IR/V,
2,0,0,1,0,20821.3,2.44065e-05,-0.000325324,-0.742422,11,0.0000000E+000,10,2.41527e-07,-3.12935, , , ,-0.000325324,
2,1,0,1,0,20821.7,0.00729063,0.00696738,0.697161,11,0.000154393,10,4.85739e-06,-3.15667,0.0527051,1.11944,29.9124,0.00696738,
2,1,0,1,0,20822.1,0.0147802,0.0144636,0.846911,11,0.000452818,10,1.22494e-05,-3.07216,0.117698,0.501282,16.5787,0.0144636,
2,1,0,1,0,20822.4,0.0222725,0.02194,0.956144,11,0.000797783,10,2.09778e-05,-3.01948,0.171549,0.343926,12.8279,0.02194,
2,1,0,1,0,20822.8,0.0297644,0.0293901,1.06002,11,0.00118156,10,3.11543e-05,-2.97468,0.201622,0.292627,12.0672,0.0293901,
2,1,0,1,0,20823.2,0.0372544,0.0369205,1.15838,11,0.00160277,10,4.27679e-05,-2.93615,0.209025,0.282262,12.7514,0.0369205,
2,1,0,1,0,20823.6,0.0447449,0.0444066,1.25411,11,0.00206093,10,5.56908e-05,-2.90166,0.227979,0.258796,12.6657,0.0444066,
2,1,0,1,0,20823.9,0.0522363,0.0518964,1.34199,11,0.00255433,10,6.96442e-05,-2.87225,0.255594,0.230835,12.1022,0.0518964,
2,1,0,1,0,20824.3,0.0597291,0.0594057,1.42821,11,0.0030804,10,8.48437e-05,-2.84521,0.296235,0.199166,11.084,0.0594057,
2,1,0,1,0,20824.7,0.0672182,0.0668915,1.50506,11,0.00363564,10,0.000100676,-2.82245,0.366524,0.160972,9.42757,0.0668915,
2,1,0,1,0,20825.1,0.0747092,0.0744477,1.56614,11,0.00421668,10,0.000116596,-2.80517,0.469713,0.125609,7.67362,0.0744477,
2,1,0,1,0,20825.4,0.0822001,0.0818615,1.6184,11,0.00481993,10,0.000132485,-2.79091,0.549804,0.107311,6.78545,0.0818615,
2,1,0,1,0,20825.8,0.0896911,0.0893629,1.68479,11,0.00544449,10,0.000150558,-2.77345,0.381153,0.154793,10.195,0.0893629,
2,1,0,1,0,20826.2,0.097182,0.0968527,1.78833,11,0.00610037,10,0.000173205,-2.74755,0.218162,0.270441,18.8942,0.0968527,
2,1,0,1,0,20826.6,0.104673,0.104386,1.948,11,0.00680461,10,0.000203343,-2.71041,0.190589,0.309566,23.4757,0.104386,
2,1,0,1,0,20826.9,0.112164,0.111825,2.1015,11,0.00757023,10,0.000235,-2.67747,0.261455,0.22566,18.5047,0.1118251,
2,1,0,1,0,20827.3,0.119655,0.119347,2.22043,11,0.00838805,10,0.000265001,-2.65356,0.476549,0.123807,10.7171,0.119347,
2,1,0,1,0,20827.7,0.127146,0.126793,2.29636,11,0.00924119,10,0.000291163,-2.63896,0.524294,0.112532,10.0917,0.126793,
2,1,0,1,0,20828.1,0.134637,0.134347,2.35875,11,0.0101215,10,0.000316891,-2.62732,3.36828,0.0175163,1.60985,0.134347,
2,1,0,1,0,20828.4,0.142128,0.141832,2.26847,11,0.0110019,10,0.000321741,-2.64427,-0.18174,-0.32464,-28.5823,0.141832,
2,1,0,1,0,20828.8,0.149619,0.149292,1.91952,11,0.0117988,10,0.000286568,-2.71681,-0.0764062,-0.772189,-57.6716,0.149292,
2,1,0,1,0,20829.2,0.157108,0.156781,1.522,11,0.0124454,10,0.000238621,-2.81759,-0.0815956,-0.723078,-43.0282,0.156781,
2,1,0,1,0,20829.5,0.164601,0.164284,1.28061,11,0.0129713,10,0.000210383,-2.89258,-0.127211,-0.463798,-23.2531,0.164284,
2,1,0,1,0,20829.9,0.172092,0.171771,1.15297,11,0.013431,10,0.000198048,-2.93818,-0.228683,-0.258,-11.6447,0.171771,
2,1,0,1,0,20830.3,0.179582,0.179243,1.08423,11,0.0138556,10,0.000194341,-2.96488,-0.393389,-0.149979,-6.36843,0.179243,
2,1,0,1,0,20830.7,0.187073,0.186788,1.04656,11,0.0142602,10,0.000195485,-2.98024,-0.6745,-0.0874722,-3.56377,0.186788,
2,1,0,1,0,20831,0.194564,0.194285,1.01638,11,0.0146524,10,0.000197468,-2.99294,-0.829801,-0.0711013,-2.82682,0.194285,
2,1,0,1,0,20831.4,0.202057,0.201778,0.999493,11,0.0150359,10,0.000201675,-3.00022,-0.964525,-0.06117,-2.3777,0.201778,
2,1,0,1,0,20831.8,0.209546,0.209272,0.982885,11,0.015413,10,0.00020569,-3.0075,-0.701931,-0.0840538,-3.22236,0.209272,
2,1,0,1,0,20832.2,0.217037,0.216706,0.966627,11,0.0157842,10,0.000209473,-3.01474,-2.94974,-0.0200017,-0.75654,0.216706,
2,1,0,1,0,20832.5,0.224528,0.224207,0.95782,11,0.0161511,10,0.00021475,-3.01872,-1.00641,-0.058624,-2.19206,0.224207,
2,1,0,1,0,20832.9,0.232019,0.231699,0.94478,11,0.0165138,10,0.000218904,-3.02467,-3.38581,-0.0174257,-0.644467,0.231699,
2,1,0,1,0,20833.3,0.23951,0.239188,0.937669,11,0.0168733,10,0.000224279,-3.02795,-1.69476,-0.0348132,-1.2756,0.239188,
2,1,0,1,0,20833.7,0.247001,0.246666,0.932422,11,0.0172295,10,0.000229997,-3.03039,-1.08045,-0.0546071,-1.98136,0.246666,
2,1,0,1,0,20834,0.254492,0.254196,0.923658,11,0.0175826,10,0.00023479,-3.03449,-1.71574,-0.0343875,-1.2379,0.254196,
2,1,0,1,0,20834.4,0.261983,0.261668,0.913452,11,0.0179328,10,0.000239021,-3.03931,-3.83721,-0.0153758,-0.549094,0.261668,
2,1,0,1,0,20834.8,0.269474,0.269142,0.907065,11,0.0182801,10,0.000244129,-3.04236,-9.16267,-0.00643917,-0.227846,0.269142,
2,1,0,1,0,20835.2,0.276965,0.276691,0.898024,11,0.0186243,10,0.000248476,-3.04671,-1.88935,-0.0312277,-1.09564,0.276691,
2,1,0,1,0,20835.5,0.284456,0.284187,0.889312,11,0.0189653,10,0.000252731,-3.05095,-2.57822,-0.022884,-0.794073,0.284187,
2,1,0,1,0,20835.9,0.291947,0.291631,0.878789,11,0.0193027,10,0.000256283,-3.05612,-1.89888,-0.0310709,-1.06576,0.291631,
2,1,0,1,0,20836.3,0.299436,0.299103,0.870604,11,0.0196367,10,0.0002604,-3.06018,-0.00303315,-19.4517,-360.647,0.299103,
2,0,0,1,0,20836.6,0.293745,0.293451,-0.183244,11,0.019653,10,-5.3773e-05,-3.73697,-0.0184761,-3.19332,21.1939,0.2934505,
2,0,0,1,0,20837,0.286254,0.285929,-0.286625,11,0.0195565,10,-8.19546e-05,-3.54269,-0.0616124,-0.957599,10.7143,0.285929,
2,0,0,1,0,20837.4,0.278763,0.278447,-0.353555,11,0.0194293,10,-9.84464e-05,-3.45154,-0.117646,-0.501504,6.92294,0.278447,
2,0,0,1,0,20837.8,0.271272,0.270933,-0.405023,11,0.0192808,10,-0.000109734,-3.39252,-0.140373,-0.420308,6.60878,0.270933,
2,0,0,1,0,20838.1,0.263781,0.263512,-0.445254,11,0.0191153,10,-0.00011733,-3.35139,-0.195994,-0.30103,5.23107,0.263512,
2,0,0,1,0,20838.5,0.25629,0.255956,-0.483831,11,0.0189354,10,-0.000123839,-3.31531,-0.279183,-0.211331,3.95536,0.255956,
2,0,0,1,0,20838.9,0.248799,0.248473,-0.512585,11,0.018743,10,-0.000127364,-3.29023,-0.335718,-0.175743,3.51726,0.248473,
2,0,0,1,0,20839.3,0.241308,0.241,-0.540323,11,0.0185392,10,-0.000130218,-3.26735,-0.396898,-0.148653,3.14579,0.2410001,
2,0,0,1,0,20839.6,0.233817,0.23346,-0.571374,11,0.0183247,10,-0.000133393,-3.24308,-0.314391,-0.187665,4.16897,0.23346,
2,0,0,1,0,20840,0.226326,0.226036,-0.597291,11,0.0180999,10,-0.000135009,-3.22381,-0.40031,-0.147386,3.42209,0.226036,
2,0,0,1,0,20840.4,0.218835,0.218504,-0.623351,11,0.0178651,10,-0.000136205,-3.20527,-0.38587,-0.152901,3.71134,0.2185041,
2,0,0,1,0,20840.8,0.211344,0.211028,-0.648325,11,0.0176208,10,-0.000136814,-3.18821,-0.485216,-0.121595,3.06961,0.211028,
2,0,0,1,0,20841.1,0.203855,0.203504,-0.674804,11,0.0173666,10,-0.000137325,-3.17082,-0.475044,-0.124199,3.28007,0.203504,
2,0,0,1,0,20841.5,0.196362,0.196045,-0.704977,11,0.0171022,10,-0.000138207,-3.15182,-0.422493,-0.139647,3.8352,0.196045,
2,0,0,1,0,20841.9,0.188871,0.188524,-0.735465,11,0.0168262,10,-0.000138653,-3.13344,-0.30151,-0.195682,5.59432,0.188524,
2,0,0,1,0,20842.3,0.18138,0.181045,-0.772743,11,0.0165377,10,-0.000139902,-3.11196,-0.364736,-0.161761,4.8705,0.181045,
2,0,0,1,0,20842.6,0.173891,0.173555,-0.819151,11,0.0162342,10,-0.000142168,-3.08664,-0.254659,-0.231683,7.38055,0.173555,
2,0,0,1,0,20843,0.166398,0.166072,-0.878287,11,0.015911,10,-0.000145859,-3.05636,-0.256883,-0.229676,7.87076,0.1660717,
2,0,0,1,0,20843.4,0.158906,0.158601,-0.957334,11,0.0155617,10,-0.000151835,-3.01894,-0.154209,-0.382598,14.3547,0.158601,
2,0,0,1,0,20843.8,0.151417,0.15106,-1.09874,11,0.0151716,10,-0.000165976,-2.95911,-0.107967,-0.546464,23.4864,0.15106,
2,0,0,1,0,20844.1,0.143926,0.143561,-1.33212,11,0.0147138,10,-0.000191239,-2.87546,-0.0758236,-0.778122,40.476,0.143561,
2,0,0,1,0,20844.5,0.136435,0.136146,-1.67061,11,0.0141476,10,-0.000227447,-2.77712,-0.0780096,-0.756317,49.2845,0.136146,
2,0,0,1,0,20844.9,0.128942,0.128603,-2.02614,11,0.0134473,10,-0.000260567,-2.69333,-0.1135,-0.519824,40.899,0.128603,
2,0,0,1,0,20845.2,0.121453,0.121164,-2.27316,11,0.0126322,10,-0.000275425,-2.64337,-0.21842,-0.270121,23.9059,0.121164,
2,0,0,1,0,20845.6,0.113962,0.113607,-2.38243,11,0.0117489,10,-0.00027066,-2.62298,-0.997132,-0.0591697,5.50117,0.113607,
2,0,0,1,0,20846,0.106471,0.106152,-2.37396,11,0.0108478,10,-0.000252,-2.62453,0.810796,0.072768,-6.74773,0.106152,
2,0,0,1,0,20846.4,0.0989798,0.0986523,-2.29286,11,0.00996542,10,-0.000226195,-2.63962,0.443741,0.13296,-11.881,0.0986523,
2,0,0,1,0,20846.7,0.0914889,0.0911803,-2.19217,11,0.00911944,10,-0.000199883,-2.65913,0.435019,0.135626,-11.5892,0.0911803,
2,0,0,1,0,20847.1,0.083998,0.0837057,-2.10506,11,0.0083096,10,-0.000176206,-2.67674,0.45371,0.130039,-10.675,0.0837057,
2,0,0,1,0,20847.5,0.076507,0.0761524,-2.04055,11,0.00752748,10,-0.000155393,-2.69025,0.491947,0.119932,-9.54199,0.0761524,
2,0,0,1,0,20847.9,0.0690161,0.0687128,-1.97669,11,0.00676849,10,-0.000135824,-2.70406,0.544766,0.108303,-8.37682,0.0687128,
2,0,0,1,0,20848.2,0.0615251,0.0612113,-1.92428,11,0.00603034,10,-0.000117788,-2.71573,0.607398,0.0971357,-7.30537,0.06121134,
2,0,0,1,0,20848.6,0.0540342,0.0537449,-1.87014,11,0.00531376,10,-0.000100511,-2.72813,0.58409,0.101012,-7.36119,0.0537449,
2,0,0,1,0,20849,0.0465432,0.0462432,-1.80454,11,0.00461885,10,-8.34479e-05,-2.74363,0.518159,0.113865,-8.02855,0.0462432,
2,0,0,1,0,20849.4,0.0390523,0.0387328,-1.74012,11,0.00394821,10,-6.73997e-05,-2.75942,0.401769,0.14685,-9.95274,0.0387328,
2,0,0,1,0,20849.7,0.0315626,0.0312408,-1.66903,11,0.00330365,10,-5.21416e-05,-2.77754,0.373661,0.157897,-10.285,0.0312408,
2,0,0,1,0,20850.1,0.0240704,0.0237205,-1.59614,11,0.00268538,10,-3.78612e-05,-2.79693,0.419579,0.140617,-8.78721,0.02372052,
2,0,0,1,0,20850.5,0.0165785,0.0162715,-1.54164,11,0.00209099,10,-2.50849e-05,-2.81202,0.562683,0.104855,-6.31465,0.0162715,
2,0,0,1,0,20850.9,0.00908846,0.00877198,-1.49881,11,0.00151547,10,-1.31475e-05,-2.82425,0.922792,0.0639364,-3.74073,0.00877198,
2,0,0,1,0,20851.2,0.0015984,0.00125858,-1.49258,11,0.000951325,10,-1.87853e-06,-2.82606, , , ,0.001258583,
2,0,0,1,0,20851.3,0.000199195,-0.000180321,-1.47847,11,0.000846026,10,2.666e-07,-2.83019, , , ,-0.000180321,