File: Figure_codes/Fig_3-5/rawdata_trumpetplot_data/after 10th/20221101_1-115_003_TrumpetPlot_ParaChange_from10_every3_02_CV_C01_4.csv
mode,ox/red,error,control changes,counter inc.,time/s,control/V,Ewe/V,<I>/mA,cycle number,(Q-Qo)/C,I Range,P/W,log(|I|),Tafel slope mV/dec,alpha_eff,dI/d(E-IR),E-IR/V,
2,0,0,1,0,8220.55,2.44065e-05,-0.00042076,-0.347446,5,0.0000000E+000,10,1.46192e-07,-3.45911, , , ,-0.00042076,
2,0,0,1,0,8227.82,0.00729061,0.00701799,-0.0934875,5,-0.000879256,10,-6.56094e-07,-4.02925,-0.0323902,-1.82154,6.75372,0.00701799,
2,0,0,1,0,8235.31,0.0147815,0.014462,-0.0588347,5,-0.00132112,10,-8.50869e-07,-4.23037,-0.0398158,-1.48182,3.39995,0.014462,
2,0,0,1,0,8242.8,0.0222725,0.0219633,-0.0385487,5,-0.00156886,10,-8.46657e-07,-4.41399,-0.0401739,-1.46861,2.23537,0.0219633,
2,0,0,1,0,8250.29,0.0297635,0.0294637,-0.0240542,5,-0.00168896,10,-7.08723e-07,-4.61881,-0.0282543,-2.08818,1.94538,0.0294637,
2,0,0,1,0,8257.78,0.0372544,0.0369394,-0.0107237,5,-0.00170069,10,-3.96127e-07,-4.96966,-0.0141433,-4.17159,1.68402,0.0369394,
2,0,0,1,0,8265.27,0.0447454,0.0444281,0.000519121,5,-0.00161753,10,2.30636e-08,-6.28473,0.0161747,3.64768,1.48112,0.0444281,
2,1,0,1,0,8272.76,0.0522363,0.0519326,0.0117394,5,-0.00144971,10,6.09657e-07,-4.93035,0.0192246,3.06899,1.33809,0.0519326,
2,1,0,1,0,8280.25,0.0597273,0.0594011,0.0212503,5,-0.00120576,10,1.26229e-06,-4.67264,0.043617,1.35268,1.11075,0.0594011,
2,1,0,1,0,8287.75,0.0672183,0.0669278,0.0305132,5,-0.000890666,10,2.04218e-06,-4.51551,0.0784409,0.752159,0.87586,0.06692782,
2,1,0,1,0,8295.24,0.0747092,0.0743676,0.0376026,5,-0.000514436,10,2.79641e-06,-4.42478,0.0886095,0.665843,0.994272,0.0743676,
2,1,0,1,0,8302.73,0.0822001,0.0819102,0.0451426,5,-7.96839e-05,10,3.69764e-06,-4.34541,0.11569,0.509984,0.901289,0.0819102,
2,1,0,1,0,8310.22,0.0896911,0.0894042,0.0544296,5,0.000414688,10,4.86623e-06,-4.26417,0.0927005,0.636458,1.35881,0.0894042,
2,1,0,1,0,8317.71,0.0971821,0.0968313,0.0657941,5,0.000987442,10,6.37093e-06,-4.18181,0.0735808,0.801839,2.05349,0.0968313,
2,1,0,1,0,8325.2,0.104673,0.104323,0.0789289,5,0.00165173,10,8.2341e-06,-4.10276,0.114148,0.516874,1.57233,0.104323,
2,1,0,1,0,8332.69,0.112164,0.111839,0.0893851,5,0.00240833,10,9.99675e-06,-4.04873,0.206458,0.285773,0.994969,0.111839,
2,1,0,1,0,8340.18,0.119655,0.119362,0.100003,5,0.00324475,10,1.19366e-05,-3.99999,0.167109,0.353063,1.3715,0.119362,
2,1,0,1,0,8347.67,0.127146,0.126879,0.109114,5,0.00416245,10,1.38443e-05,-3.96212,0.240496,0.245326,1.05345,0.126879,
2,1,0,1,0,8355.16,0.134637,0.134342,0.113858,5,0.00514268,10,1.52959e-05,-3.94364,-0.543906,-0.108475,-0.48027,0.134342,
2,1,0,1,0,8362.65,0.142128,0.141838,0.101023,5,0.00608671,10,1.43289e-05,-3.99558,-0.08645,-0.682476,-2.65598,0.141838,
2,1,0,1,0,8370.15,0.149619,0.149361,0.0766601,5,0.00687285,10,1.145e-05,-4.11543,-0.0651791,-0.905198,-2.72989,0.149361,
2,1,0,1,0,8377.64,0.15711,0.156769,0.0614526,5,0.0075059,10,9.63385e-06,-4.21146,-0.0889787,-0.66308,-1.60148,0.156769,
2,1,0,1,0,8385.13,0.164601,0.164287,0.0540193,5,0.00805359,10,8.87466e-06,-4.26745,-0.158361,-0.372566,-0.786271,0.164287,
2,1,0,1,0,8392.62,0.172091,0.17177,0.0502841,5,0.00855852,10,8.6373e-06,-4.29857,-0.416294,-0.141727,-0.281355,0.17177,
2,1,0,1,0,8400.11,0.179582,0.179283,0.0488216,5,0.00904157,10,8.75288e-06,-4.31139,-2.64473,-0.0223085,-0.0421426,0.179283,
2,1,0,1,0,8407.6,0.187073,0.186792,0.0479137,5,0.00951381,10,8.9499e-06,-4.31954,0.565431,0.104345,0.198111,0.186792,
2,1,0,1,0,8415.09,0.194564,0.194243,0.0482705,5,0.00998565,10,9.37623e-06,-4.31632,2.65359,0.022234,0.0419371,0.194243,
2,1,0,1,0,8422.58,0.202055,0.20174,0.0483953,5,0.0104582,10,9.76329e-06,-4.3152,-0.626433,-0.0941841,-0.178029,0.20174,
2,1,0,1,0,8430.07,0.209546,0.209235,0.0486282,5,0.0109298,10,1.01747e-05,-4.31311,-1.51097,-0.0390477,-0.0741834,0.209235,
2,1,0,1,0,8437.56,0.217037,0.216768,0.0491264,5,0.0114037,10,1.06491e-05,-4.30868,2.57427,0.0229191,0.0440815,0.216768,
2,1,0,1,0,8445.06,0.224528,0.224247,0.0499885,5,0.0118836,10,1.12098e-05,-4.30113,0.750594,0.0786044,0.153351,0.224247,
2,1,0,1,0,8452.55,0.232019,0.231701,0.0514414,5,0.012372,10,1.1919e-05,-4.28869,-4.71243,-0.0125201,-0.0252114,0.231701,
2,1,0,1,0,8460.04,0.23951,0.239213,0.0524644,5,0.0128659,10,1.25502e-05,-4.28014,1.51186,0.0390247,0.0790169,0.239213,
2,1,0,1,0,8467.53,0.247001,0.24673,0.0531257,5,0.0133667,10,1.31077e-05,-4.27469,4.41996,0.0133485,0.0278283,0.24673,
2,1,0,1,0,8475.02,0.254492,0.254154,0.0540255,5,0.0138724,10,1.37308e-05,-4.2674,-1.72669,-0.0341693,-0.0722371,0.254154,
2,1,0,1,0,8482.51,0.261983,0.261698,0.0546637,5,0.0143852,10,1.43054e-05,-4.2623,-2.19395,-0.0268921,-0.0578442,0.261698,
2,1,0,1,0,8490,0.269474,0.269153,0.055861,5,0.0149051,10,1.50351e-05,-4.25289,0.667057,0.0884482,0.191873,0.269153,
2,1,0,1,0,8497.49,0.276965,0.276656,0.0569106,5,0.0154307,10,1.57447e-05,-4.24481,4.72045,0.0124988,0.028019,0.276656,
2,1,0,1,0,8504.98,0.284456,0.284136,0.058239,5,0.015963,10,1.65478e-05,-4.23479,1.56882,0.0376079,0.0842125,0.284136,
2,1,0,1,0,8512.47,0.291947,0.291645,0.0582225,5,0.0164996,10,1.69803e-05,-4.23491,0.61168,0.0964557,0.220913,0.291645,
2,1,0,1,0,8519.96,0.299438,0.299137,0.0597198,5,0.0170424,10,1.78644e-05,-4.22388,-0.00586428,-10.0609,-16.5438,0.299137,
2,1,0,1,0,8526.81,0.293745,0.293432,0.0127434,5,0.0171297,10,3.7393e-06,-4.89472,0.0209837,2.8117,1.50499,0.293432,
2,1,0,1,0,8534.3,0.286254,0.285961,0.00572532,5,0.0170979,10,1.63722e-06,-5.2422,0.0136928,4.30883,0.902101,0.285961,
2,1,0,1,0,8541.79,0.278763,0.278456,-0.000390888,5,0.0170152,10,-1.08845e-07,-6.40795,-0.0215163,-2.7421,0.801032,0.278456,
2,0,0,1,0,8549.28,0.271272,0.270961,-0.00547713,5,0.0168914,10,-1.48409e-06,-5.26145,-0.0254374,-2.31942,0.493887,0.2709606,
2,1,0,1,0,8556.77,0.263781,0.263495,-0.00892929,5,0.0167363,10,-2.35283e-06,-5.04918,-0.036087,-1.63494,0.573666,0.263495,
2,1,0,1,0,8564.26,0.25629,0.255939,-0.0119894,5,0.0165539,10,-3.06855e-06,-4.9212,-0.0595667,-0.990486,0.47708,0.2559388,
2,0,0,1,0,8571.75,0.248799,0.248458,-0.015582,5,0.0163449,10,-3.87147e-06,-4.80738,-0.141798,-0.416084,0.252007,0.2484577,
2,0,0,1,0,8579.24,0.241308,0.241016,-0.0184627,5,0.016114,10,-4.4498e-06,-4.7337,-0.0940278,-0.627474,0.455799,0.241016,
2,0,0,1,0,8586.73,0.233817,0.233473,-0.0214589,5,0.0158598,10,-5.01007e-06,-4.66839,-0.161663,-0.364956,0.308519,0.233473,
2,0,0,1,0,8594.23,0.226326,0.226039,-0.0241218,5,0.0155832,10,-5.45246e-06,-4.61759,-0.131704,-0.447973,0.424492,0.226039,
2,0,0,1,0,8601.72,0.218835,0.218513,-0.0279534,5,0.0152836,10,-6.10819e-06,-4.55356,-0.223852,-0.263567,0.280931,0.218513,
2,0,0,1,0,8609.21,0.211344,0.211037,-0.0297134,5,0.014962,10,-6.27064e-06,-4.52705,-0.138481,-0.42605,0.499095,0.211037,
2,0,0,1,0,8616.7,0.203853,0.203493,-0.033011,5,0.0146191,10,-6.71751e-06,-4.48134,-0.167011,-0.35327,0.459976,0.203493,
2,0,0,1,0,8624.19,0.196362,0.196065,-0.036082,5,0.0142528,10,-7.07443e-06,-4.44271,-0.172613,-0.341806,0.480598,0.196065,
2,0,0,1,0,8631.68,0.188871,0.188546,-0.0398347,5,0.0138601,10,-7.51066e-06,-4.39974,-0.184235,-0.320243,0.492288,0.1885457,
2,0,0,1,0,8639.17,0.18138,0.181108,-0.0433629,5,0.013439,10,-7.85337e-06,-4.36288,-0.176852,-0.333613,0.561524,0.181108,
2,0,0,1,0,8646.66,0.173889,0.173551,-0.0481608,5,0.012983,10,-8.35834e-06,-4.31731,-0.132157,-0.446438,0.84377,0.173551,
2,0,0,1,0,8654.15,0.166398,0.166108,-0.0548246,5,0.0124785,10,-9.10678e-06,-4.26102,-0.138171,-0.427007,0.927146,0.166108,
2,0,0,1,0,8661.64,0.158907,0.158561,-0.0649834,5,0.0119123,10,-1.03038e-05,-4.1872,-0.0888415,-0.664104,1.69897,0.158561,
2,0,0,1,0,8669.14,0.151417,0.151138,-0.0804697,5,0.0112467,10,-1.2162e-05,-4.09437,-0.0698587,-0.844562,2.66326,0.151138,
2,0,0,1,0,8676.63,0.143926,0.143639,-0.104592,5,0.0104311,10,-1.50234e-05,-3.9805,-0.0612967,-0.962531,3.93327,0.143639,
2,0,0,1,0,8684.12,0.136435,0.136124,-0.134148,5,0.00940555,10,-1.82607e-05,-3.87242,-0.0928069,-0.635729,3.30349,0.136124,
2,0,0,1,0,8691.61,0.128944,0.128623,-0.152562,5,0.00819289,10,-1.9623e-05,-3.81655,-0.274395,-0.215019,1.27154,0.128623,
2,0,0,1,0,8699.1,0.121453,0.121166,-0.156868,5,0.00689702,10,-1.90071e-05,-3.80447,1.0674,0.0552743,-0.336532,0.1211665,
2,0,0,1,0,8706.59,0.113962,0.113671,-0.151469,5,0.0056087,10,-1.72175e-05,-3.81968,0.590733,0.099876,-0.595288,0.113671,
2,0,0,1,0,8714.08,0.106471,0.106165,-0.148055,5,0.00435655,10,-1.57183e-05,-3.82958,0.629275,0.0937588,-0.539734,0.106165,
2,0,0,1,0,8721.57,0.0989798,0.0986753,-0.141737,5,0.00314478,10,-1.3986e-05,-3.84852,0.352929,0.167172,-0.918727,0.0986753,
2,0,0,1,0,8729.06,0.0914889,0.0911814,-0.134299,5,0.00198753,10,-1.22456e-05,-3.87193,0.258694,0.228068,-1.19397,0.0911814,
2,0,0,1,0,8736.55,0.083998,0.0836982,-0.128032,5,0.000884449,10,-1.0716e-05,-3.89268,0.316792,0.186242,-0.929718,0.0836982,
2,0,0,1,0,8744.04,0.076507,0.0761671,-0.123622,5,-0.000178415,10,-9.41594e-06,-3.9079,0.467389,0.126233,-0.606942,0.0761671,
2,0,0,1,0,8751.54,0.069016,0.0687124,-0.118902,5,-0.00120929,10,-8.17006e-06,-3.92481,1.63357,0.0361172,-0.168135,0.0687124,
2,0,0,1,0,8759.03,0.0615251,0.0612186,-0.116146,5,-0.00221483,10,-7.11029e-06,-3.935,0.715602,0.0824481,-0.374099,0.0612186,
2,0,0,1,0,8766.52,0.0540342,0.0537353,-0.113694,5,-0.0031952,10,-6.1094e-06,-3.94426,0.915781,0.0644259,-0.28346,0.0537353,
2,0,0,1,0,8774.01,0.0465432,0.0462552,-0.110147,5,-0.00415197,10,-5.09485e-06,-3.95803,0.607236,0.0971615,-0.41745,0.0462552,
2,0,0,1,0,8781.5,0.0390522,0.0386923,-0.107032,5,-0.00508321,10,-4.14131e-06,-3.97049,0.816073,0.0722975,-0.299462,0.0386923,
2,0,0,1,0,8788.99,0.0315613,0.031208,-0.103501,5,-0.005992,10,-3.23006e-06,-3.98506,0.505027,0.116825,-0.474499,0.031208,
2,0,0,1,0,8796.48,0.0240703,0.0237894,-0.101298,5,-0.00688,10,-2.40982e-06,-3.9944,2.50016,0.0235985,-0.0942087,0.0237894,
2,0,0,1,0,8803.97,0.0165794,0.0162637,-0.100921,5,-0.00775797,10,-1.64134e-06,-3.99602,1.48166,0.0398201,-0.157215,0.0162637,
2,0,0,1,0,8811.46,0.00908843,0.00880267,-0.102563,5,-0.00863534,10,-9.02832e-07,-3.98901,-0.709577,-0.0831482,0.333358,0.00880267,
2,0,0,1,0,8818.95,0.00159744,0.00121859,-0.106207,5,-0.00953265,10,-1.29423e-07,-3.97385, , , ,0.00121859,
2,0,0,1,0,8820.35,0.000199235,-0.000168782,-0.1066,5,-0.0097026,10,1.79921e-08,-3.97224, , , ,-0.000168782,