File: Figure_codes/Fig_3-5/rawdata_trumpetplot_data/after 10th/20221101_1-115_003_TrumpetPlot_ParaChange_from10_every3_13_CV_C01_20.csv
mode,ox/red,error,control changes,counter inc.,time/s,control/V,Ewe/V,<I>/mA,cycle number,(Q-Qo)/C,I Range,P/W,log(|I|),Tafel slope mV/dec,alpha_eff,dI/d(E-IR),E-IR/V,
2,1,0,1,0,40600.5,2.44065e-05,-0.000325324,16.8133,21,0.0000000E+000,10,-5.46977e-06,-1.77435, , , ,-0.000325324,
2,1,0,1,0,40600.5,0.0122624,0.0119266,20.7797,21,0.000288517,10,0.000247831,-1.68236,0.188841,0.312433,251.437,0.0119266,
2,1,0,1,0,40600.5,0.0250636,0.0247045,23.6142,21,0.000644787,10,0.000583377,-1.62683,0.269286,0.219098,201.262,0.0247045,
2,1,0,1,0,40600.5,0.0378704,0.0374856,25.9922,21,0.00104236,10,0.000974331,-1.58516,0.342892,0.172066,174.252,0.0374856,
2,1,0,1,0,40600.5,0.0506632,0.0502974,28.1055,21,0.00147567,10,0.00141364,-1.55121,0.406067,0.145296,159.258,0.0502974,
2,1,0,1,0,40600.5,0.0634672,0.0630891,30.1128,21,0.00194171,10,0.00189979,-1.52125,0.451033,0.130811,153.613,0.06308911,
2,1,0,1,0,40600.6,0.0762629,0.0758988,32.0736,21,0.00243937,10,0.00243435,-1.49385,0.48035,0.122827,153.678,0.0758988,
2,1,0,1,0,40600.6,0.0890668,0.0887096,34.0594,21,0.00296855,10,0.00302139,-1.46776,0.497877,0.118503,157.471,0.0887096,
2,1,0,1,0,40600.6,0.10186,0.10153,36.0646,21,0.0035298,10,0.00366164,-1.44292,0.522691,0.112877,158.904,0.1015299,
2,1,0,1,0,40600.6,0.114666,0.114313,38.1276,21,0.00412365,10,0.00435848,-1.41876,0.54319,0.108618,161.617,0.1143131,
2,1,0,1,0,40600.6,0.127462,0.12707,40.2497,21,0.00475068,10,0.00511452,-1.39524,0.546941,0.107873,169.44,0.1270698,
2,1,0,1,0,40600.6,0.140263,0.139879,42.4725,21,0.00541255,10,0.00594103,-1.37189,0.546069,0.108045,179.09,0.139879,
2,1,0,1,0,40600.7,0.153064,0.152641,44.879,21,0.00611104,10,0.0068504,-1.34796,0.536143,0.110045,192.61,0.152641,
2,1,0,1,0,40600.7,0.165866,0.165505,47.2629,21,0.00684875,10,0.00782226,-1.32548,0.605833,0.0973866,179.523,0.165505,
2,1,0,1,0,40600.7,0.178667,0.17829,49.4247,21,0.00762298,10,0.00881191,-1.30606,0.738833,0.0798556,153.862,0.17829,
2,1,0,1,0,40600.7,0.191463,0.191095,51.1648,21,0.00842867,10,0.00977734,-1.29103,1.06931,0.0551755,109.952,0.191095,
2,1,0,1,0,40600.7,0.204269,0.203884,52.1412,21,0.0092564,10,0.0106307,-1.28282,3.21434,0.0183553,37.2541,0.203884,
2,1,0,1,0,40600.7,0.217062,0.216694,52.0824,21,0.0100917,10,0.011286,-1.28331,-2.59329,-0.022751,-46.1257,0.216694,
2,1,0,1,0,40600.8,0.229866,0.229544,50.9534,21,0.0109173,10,0.0116961,-1.29283,-0.905619,-0.0651488,-129.221,0.229544,
2,1,0,1,0,40600.8,0.242662,0.242337,48.8199,21,0.0117165,10,0.0118309,-1.3114,-0.566669,-0.104117,-197.983,0.242337,
2,1,0,1,0,40600.8,0.255466,0.255165,45.9971,21,0.0124755,10,0.0117368,-1.33727,-0.450947,-0.130836,-234.594,0.255165,
2,1,0,1,0,40600.8,0.268259,0.267902,42.8997,21,0.0131864,10,0.0114929,-1.36755,-0.410981,-0.143559,-240.343,0.267902,
2,1,0,1,0,40600.8,0.281065,0.280753,39.9243,21,0.0138485,10,0.0112089,-1.39876,-0.416179,-0.141766,-221.034,0.280753,
2,1,0,1,0,40600.8,0.293861,0.293514,37.2457,21,0.0144652,10,0.0109322,-1.42892,-0.440821,-0.133841,-195.122,0.2935144,
2,1,0,1,0,40600.8,0.298983,0.298806,34.0279,21,0.0147923,10,0.0101677,-1.46816,0.0440109,1.34058,1587.5,0.2988058,
2,1,0,1,0,40600.9,0.286187,0.285955,18.8616,21,0.0152,10,0.00539357,-1.72442,0.0490882,1.20192,886.885,0.285955,
2,1,0,1,0,40600.9,0.273386,0.273128,9.55267,21,0.0154218,10,0.0026091,-2.01988,0.0352611,1.67323,609.981,0.273128,
2,1,0,1,0,40600.9,0.260585,0.260324,2.90511,21,0.0155181,10,0.00075627,-2.53684,0.00934245,6.31526,446.044,0.260324,
2,0,0,1,0,40600.9,0.247783,0.247477,-2.06809,21,0.0155225,10,-0.000511804,-2.68443,-0.0105918,-5.57034,340.683,0.247477,
2,0,0,1,0,40600.9,0.234982,0.234698,-5.91954,21,0.0154569,10,-0.0013893,-2.22771,-0.0486519,-1.2127,267.718,0.234698,
2,0,0,1,0,40600.9,0.222187,0.221929,-8.986,21,0.0153364,10,-0.00199426,-2.04643,-0.0943884,-0.625077,215.779,0.221929,
2,0,0,1,0,40601,0.20938,0.209104,-11.509,21,0.0151716,10,-0.00240658,-1.93896,-0.146162,-0.403662,179.766,0.209104,
2,0,0,1,0,40601,0.196587,0.196273,-13.6243,21,0.0149699,10,-0.00267407,-1.86569,-0.203408,-0.290057,153.533,0.196273,
2,0,0,1,0,40601,0.183783,0.183492,-15.4761,21,0.0147366,10,-0.00283975,-1.81034,-0.254665,-0.231677,139.653,0.1834919,
2,0,0,1,0,40601,0.170987,0.170679,-17.1781,21,0.0144749,10,-0.00293194,-1.76503,-0.302104,-0.195297,130.94,0.170679,
2,0,0,1,0,40601,0.158183,0.157863,-18.884,21,0.0141862,10,-0.00298108,-1.72391,-0.316871,-0.186196,137.321,0.157863,
2,0,0,1,0,40601,0.145385,0.145102,-20.7704,21,0.0138692,10,-0.00301382,-1.68256,-0.296011,-0.199317,161.851,0.145102,
2,0,0,1,0,40601,0.132584,0.132316,-23.1181,21,0.0135187,10,-0.00305888,-1.63605,-0.254127,-0.232167,210.045,0.132316,
2,0,0,1,0,40601.1,0.119782,0.119527,-26.202,21,0.0131249,10,-0.00313185,-1.58166,-0.221709,-0.266115,272.706,0.119527,
2,0,0,1,0,40601.1,0.106987,0.106681,-29.9974,21,0.0126755,10,-0.00320017,-1.52292,-0.221517,-0.266345,311.709,0.106681,
2,0,0,1,0,40601.1,0.0941801,0.0938939,-34.0252,21,0.0121627,10,-0.00319476,-1.4682,-0.252993,-0.233208,309.157,0.0938939,
2,0,0,1,0,40601.1,0.0813844,0.0811743,-37.804,21,0.011587,10,-0.00306872,-1.42246,-0.305943,-0.192846,284.233,0.0811743,
2,0,0,1,0,40601.1,0.0685832,0.0683296,-41.2395,21,0.0109534,10,-0.00281788,-1.38469,-0.392633,-0.150268,241.215,0.06832964,
2,0,0,1,0,40601.1,0.0557876,0.0555231,-43.9743,21,0.0102704,10,-0.00244159,-1.3568,-0.530709,-0.111172,190.478,0.0555231,
2,0,0,1,0,40601.2,0.0429808,0.0427198,-46.1209,21,0.00954859,10,-0.00197027,-1.3361,-0.737777,-0.0799699,143.707,0.0427198,
2,0,0,1,0,40601.2,0.030188,0.029909,-47.6712,21,0.00879726,10,-0.0014258,-1.32174,-1.10082,-0.0535966,99.583,0.029909,
2,0,0,1,0,40601.2,0.017384,0.0170452,-48.7227,21,0.00802537,10,-0.000830487,-1.31227,-1.72137,-0.034275,65.0954,0.0170452,
2,0,0,1,0,40601.2,0.00458834,0.00428957,-49.348,21,0.00724026,10,-0.000211682,-1.30673,-3.1533,-0.0187105,36.0094,0.00428957,
2,0,0,1,0,40601.2,-0.00821564,-0.00858589,-49.6196,21,0.00644774,10,0.000426029,-1.30435,-21.2657,-0.00277442,5.3684,-0.00858589,
2,0,0,1,0,40601.2,-0.0210196,-0.0213988,-49.5028,21,0.0056542,10,0.0010593,-1.30537,4.71275,0.0125192,-24.1657,-0.02139879,
2,0,0,1,0,40601.3,-0.0338153,-0.0342011,-49.0268,21,0.00486547,10,0.00167677,-1.30957,2.39804,0.0246034,-47.0535,-0.0342011,
2,0,0,1,0,40601.3,-0.0466193,-0.0470055,-48.3283,21,0.00408644,10,0.00227169,-1.3158,1.78977,0.032965,-62.146,-0.0470055,
2,0,0,1,0,40601.3,-0.0594121,-0.0597845,-47.5075,21,0.00331985,10,0.00284021,-1.32324,1.76574,0.0334138,-61.9552,-0.0597845,
2,0,0,1,0,40601.3,-0.0722189,-0.0725645,-46.7555,21,0.00256592,10,0.00339279,-1.33017,2.06912,0.0285145,-52.0593,-0.0725645,
2,0,0,1,0,40601.3,-0.0850146,-0.0853774,-46.1688,21,0.00182273,10,0.00394177,-1.33565,2.87045,0.0205543,-37.0699,-0.0853774,
2,0,0,1,0,40601.3,-0.0978158,-0.0981839,-45.8296,21,0.00108698,10,0.00449973,-1.33885,6.1459,0.0095999,-17.1833,-0.0981839,
2,0,0,1,0,40601.4,-0.110611,-0.110972,-45.7377,21,0.000354744,10,0.00507563,-1.33973,-51.3802,-0.0011483,2.05107,-0.110972,
2,0,0,1,0,40601.4,-0.123418,-0.123792,-45.9055,21,-0.000378097,10,0.00568272,-1.33814,-4.69202,-0.0125746,22.5373,-0.123792,
2,0,0,1,0,40601.4,-0.136214,-0.13658,-46.2848,21,-0.0011154,10,0.00632159,-1.33456,-2.78372,-0.0211946,38.3083,-0.13658,
2,0,0,1,0,40601.4,-0.149015,-0.149395,-46.8494,21,-0.00186053,10,0.00699908,-1.3293,-2.20003,-0.0268178,49.058,-0.1493952,
2,0,0,1,0,40601.4,-0.161816,-0.162173,-47.5236,21,-0.00261562,10,0.00770705,-1.32309,-2.08869,-0.0282474,52.39,-0.162173,
2,0,0,1,0,40601.4,-0.174615,-0.174936,-48.2029,21,-0.00338152,10,0.00843243,-1.31693,-2.17388,-0.0271404,51.036,-0.174936,
2,0,0,1,0,40601.4,-0.187419,-0.187759,-48.8177,21,-0.00415778,10,0.00916594,-1.31142,-2.4829,-0.0237626,45.2556,-0.187759,
2,0,0,1,0,40601.5,-0.199647,-0.19996,-49.3105,21,-0.00490876,10,0.0098601,-1.30706,0.269972,0.218541,-409.449,-0.19996,
2,0,0,1,1,40601.5,-0.192535,-0.192972,-37.9467,21,-0.00534565,10,0.00732263,-1.42083,-0.0741952,-0.7952,1201.38,-0.192972,
2,0,0,1,1,40601.5,-0.179739,-0.180134,-26.2517,21,-0.00585177,10,0.00472883,-1.58084,-0.0788856,-0.747918,767.659,-0.180134,
2,0,0,1,1,40601.5,-0.166932,-0.16728,-17.668,21,-0.00619952,10,0.0029555,-1.75281,-0.0679021,-0.868898,596.458,-0.16728,
2,0,0,1,1,40601.5,-0.154139,-0.154545,-10.6959,21,-0.00642416,10,0.00165299,-1.97078,-0.0480004,-1.22916,503.418,-0.154545,
2,0,0,1,1,40601.5,-0.141335,-0.141751,-4.72571,21,-0.00654577,10,0.000669873,-2.32553,-0.0222428,-2.65254,436.285,-0.141751,
2,1,0,1,1,40601.6,-0.12854,-0.128968,0.512822,21,-0.00657803,10,-6.61374e-05,-3.29003,0.0789308,0.74749,387.129,-0.128968,
2,1,0,1,1,40601.6,-0.115736,-0.116149,5.22433,21,-0.0065309,10,-0.000606803,-2.28197,0.0317071,1.86078,351.336,-0.116149,
2,1,0,1,1,40601.6,-0.102932,-0.103399,9.53776,21,-0.00641195,10,-0.000986195,-2.02055,0.0666764,0.884871,322.253,-0.103399,
2,1,0,1,1,40601.6,-0.0901362,-0.0905554,13.487,21,-0.00622698,10,-0.00122132,-1.87009,0.10402,0.5672,295.571,-0.0905554,
2,1,0,1,1,40601.6,-0.0773322,-0.0777488,17.1299,21,-0.00598133,10,-0.00133183,-1.76625,0.14476,0.407571,270.75,-0.07774882,
2,1,0,1,1,40601.6,-0.0645393,-0.0648956,20.4417,21,-0.00568004,10,-0.00132658,-1.68948,0.187784,0.314191,249.828,-0.0648956,
2,1,0,1,1,40601.6,-0.0517325,-0.0521548,23.5038,21,-0.00532767,10,-0.00122584,-1.62886,0.236168,0.249822,228.57,-0.0521548,
2,1,0,1,1,40601.7,-0.0389369,-0.0393388,26.2775,21,-0.0049287,10,-0.00103372,-1.58042,0.294508,0.200334,205.06,-0.0393388,
2,1,0,1,1,40601.7,-0.0261357,-0.0265439,28.7875,21,-0.0044875,10,-0.000764133,-1.5408,0.356078,0.165694,185.824,-0.0265439,
2,1,0,1,1,40601.7,-0.01334,-0.0136992,31.0128,21,-0.0040085,10,-0.00042485,-1.50846,0.436263,0.135239,163.46,-0.0136992,
2,1,0,1,1,40601.7,-0.000774629,-0.00116676,32.9338,21,-0.00350591,10,-3.84257e-05,-1.48236, , , ,-0.00116676,
2,1,0,0,1,40601.7,-0.000125413,-0.000516197,33.0442,21,-0.00347953,10,-1.70573e-05,-1.4809, , , ,-0.000516197,