File: Figure_codes/Fig_3-5/rawdata_trumpetplot_data/after 10th/20221101_1-115_003_TrumpetPlot_ParaChange_from10_every3_13_CV_C01_12.csv
mode,ox/red,error,control changes,counter inc.,time/s,control/V,Ewe/V,<I>/mA,cycle number,(Q-Qo)/C,I Range,P/W,log(|I|),Tafel slope mV/dec,alpha_eff,dI/d(E-IR),E-IR/V,
2,1,0,1,0,24839.4,2.44065e-05,-0.000325324,21.3451,13,0.0000000E+000,10,-6.94405e-06,-1.6707, , , ,-0.000325324,
2,1,0,1,0,24839.4,0.0122624,0.0118577,25.6476,13,0.000360575,10,0.000304121,-1.59095,0.226046,0.261009,259.546,0.0118577,
2,1,0,1,0,24839.5,0.0250636,0.0247077,28.4935,13,0.000795189,10,0.000704008,-1.54525,0.330089,0.178739,198.275,0.0247077,
2,1,0,1,0,24839.5,0.0378704,0.0374962,30.8347,13,0.00127052,10,0.00115618,-1.51096,0.421599,0.139944,168.091,0.0374962,
2,1,0,1,0,24839.5,0.0506632,0.0503303,32.9068,13,0.00178069,10,0.00165621,-1.48271,0.471848,0.12504,160.445,0.0503303,
2,1,0,1,0,24839.5,0.0634672,0.0630976,34.9341,13,0.00232361,10,0.00220426,-1.45675,0.499328,0.118159,161.075,0.0630976,
2,1,0,1,0,24839.5,0.0762629,0.0758744,37.0244,13,0.00289957,10,0.0028092,-1.43151,0.508928,0.11593,167.573,0.0758744,
2,1,0,1,0,24839.5,0.0890668,0.0886714,39.2283,13,0.0035098,10,0.00347843,-1.4064,0.516316,0.114271,174.952,0.0886714,
2,1,0,1,0,24839.5,0.10186,0.101428,41.5079,13,0.00415581,10,0.00421007,-1.38187,0.523013,0.112808,182.773,0.1014281,
2,1,0,1,0,24839.6,0.114666,0.114306,43.8943,13,0.00483922,10,0.00501737,-1.35759,0.543113,0.108633,186.023,0.114306,
2,1,0,1,0,24839.6,0.127462,0.127045,46.3041,13,0.00556068,10,0.00588272,-1.33438,0.522951,0.112821,204.184,0.127045,
2,1,0,1,0,24839.6,0.140263,0.139885,49.0692,13,0.006324,10,0.00686403,-1.30919,0.514312,0.114716,219.76,0.1398848,
2,1,0,1,0,24839.6,0.153064,0.152757,51.9551,13,0.00713248,10,0.00793651,-1.28437,0.532445,0.11081,224.586,0.152757,
2,1,0,1,0,24839.6,0.165866,0.165517,54.7581,13,0.00798683,10,0.00906339,-1.26155,0.613428,0.0961807,205.271,0.165517,
2,1,0,1,0,24839.6,0.178667,0.178286,57.1516,13,0.00888294,10,0.0101894,-1.24297,0.818147,0.0721142,160.516,0.178286,
2,1,0,1,0,24839.7,0.191463,0.191125,58.7407,13,0.00981172,10,0.0112268,-1.23106,1.76207,0.0334833,76.5226,0.191125,
2,1,0,1,0,24839.7,0.204269,0.203879,58.905,13,0.0107553,10,0.0120095,-1.22985,-2.29577,-0.0256995,-58.8473,0.203879,
2,1,0,1,0,24839.7,0.217062,0.216747,57.2046,13,0.0116866,10,0.0123989,-1.24257,-0.640827,-0.0920686,-204.731,0.2167473,
2,1,0,1,0,24839.7,0.229866,0.229557,53.7846,13,0.0125762,10,0.0123466,-1.26934,-0.388538,-0.151851,-317.739,0.229557,
2,1,0,1,0,24839.7,0.242662,0.242328,49.281,13,0.013401,10,0.0119421,-1.30732,-0.308842,-0.191036,-366.962,0.2423275,
2,1,0,1,0,24839.7,0.255466,0.255139,44.6163,13,0.0141514,10,0.0113834,-1.35051,-0.296136,-0.199233,-347.195,0.255139,
2,1,0,1,0,24839.8,0.268259,0.267934,40.4594,13,0.0148309,10,0.0108404,-1.39298,-0.315301,-0.187123,-296.087,0.2679342,
2,1,0,1,0,24839.8,0.281065,0.28074,37.0654,13,0.01545,10,0.0104057,-1.43103,-0.361152,-0.163366,-236.818,0.28074,
2,1,0,1,0,24839.8,0.293861,0.29349,34.3878,13,0.0160205,10,0.0100925,-1.4636,-0.424992,-0.138826,-186.922,0.29349,
2,1,0,1,0,24839.8,0.298983,0.298861,30.7502,13,0.0163217,10,0.00919004,-1.51215,0.0310875,1.89787,1933.32,0.298861,
2,1,0,1,0,24839.8,0.286187,0.285925,12.7628,13,0.0166485,10,0.00364921,-1.89405,0.0293806,2.00813,986.209,0.285925,
2,1,0,1,0,24839.8,0.273386,0.273106,2.98589,13,0.0167672,10,0.000815464,-2.52493,0.011095,5.3177,610.561,0.2731058,
2,0,0,1,0,24839.8,0.260585,0.260327,-3.36284,13,0.0167601,10,-0.000875437,-2.47329,-0.0122681,-4.80922,407.193,0.260327,
2,0,0,1,0,24839.9,0.247783,0.247472,-7.77093,13,0.0166685,10,-0.00192308,-2.10953,-0.0586219,-1.00645,293.512,0.247472,
2,0,0,1,0,24839.9,0.234982,0.234663,-11,13,0.0165168,10,-0.00258129,-1.95861,-0.113741,-0.518724,219.451,0.234663,
2,0,0,1,0,24839.9,0.222187,0.221867,-13.4721,13,0.01632,10,-0.00298902,-1.87056,-0.177975,-0.331507,173.141,0.221867,
2,0,0,1,0,24839.9,0.20938,0.209093,-15.4734,13,0.0160876,10,-0.00323538,-1.81041,-0.247241,-0.238634,143.676,0.209093,
2,0,0,1,0,24839.9,0.196587,0.196281,-17.1715,13,0.0158258,10,-0.00337046,-1.76519,-0.316741,-0.186272,124.698,0.196281,
2,0,0,1,0,24839.9,0.183783,0.183455,-18.7235,13,0.0155383,10,-0.00343491,-1.72761,-0.364008,-0.162084,118.371,0.183455,
2,0,0,1,0,24840,0.170987,0.170654,-20.2472,13,0.0152264,10,-0.00345525,-1.69364,-0.379407,-0.155506,122.918,0.170654,
2,0,0,1,0,24840,0.158183,0.157839,-21.9346,13,0.0148892,10,-0.00346212,-1.65887,-0.346081,-0.170481,146.175,0.157839,
2,0,0,1,0,24840,0.145385,0.145097,-24.054,13,0.0145218,10,-0.00349015,-1.61881,-0.285226,-0.206854,194.926,0.145097,
2,0,0,1,0,24840,0.132584,0.132288,-27.0177,13,0.0141141,10,-0.00357413,-1.56835,-0.228983,-0.257661,272.774,0.132288,
2,0,0,1,0,24840,0.119782,0.119527,-31.0935,13,0.0136504,10,-0.00371651,-1.50733,-0.19925,-0.29611,359.969,0.119527,
2,0,0,1,0,24840,0.106987,0.106696,-36.0259,13,0.0131134,10,-0.00384382,-1.44339,-0.210418,-0.280394,393.579,0.1066962,
2,0,0,1,0,24840.1,0.0941801,0.0939353,-40.9601,13,0.0124963,10,-0.00384759,-1.38764,-0.251453,-0.234636,374.428,0.0939353,
2,0,0,1,0,24840.1,0.0813844,0.08115,-45.5122,13,0.0118033,10,-0.00369332,-1.34187,-0.319822,-0.184477,326.711,0.08115,
2,0,0,1,0,24840.1,0.0685832,0.0683604,-49.2441,13,0.0110435,10,-0.00336634,-1.30765,-0.442536,-0.133322,255.583,0.0683604,
2,0,0,1,0,24840.1,0.0557876,0.0554796,-52.0527,13,0.0102315,10,-0.00288786,-1.28356,-0.670777,-0.0879577,178.196,0.0554796,
2,0,0,1,0,24840.1,0.0429808,0.0427463,-53.8311,13,0.00938288,10,-0.00230108,-1.26897,-1.20865,-0.0488148,102.333,0.0427463,
2,0,0,1,0,24840.1,0.030188,0.0298994,-54.7574,13,0.00851319,10,-0.00163721,-1.26156,-2.61702,-0.0225447,48.1107,0.0298994,
2,0,0,1,0,24840.1,0.017384,0.01706,-55.1118,13,0.00763346,10,-0.000940209,-1.25876,-11.4559,-0.00515018,11.067,0.01706,
2,0,0,1,0,24840.2,0.00458834,0.00425669,-55.0349,13,0.00675168,10,-0.000234267,-1.25936,7.18438,0.00821226,-17.6331,0.00425669,
2,0,0,1,0,24840.2,-0.00821564,-0.00857847,-54.6141,13,0.00587357,10,0.000468505,-1.2627,2.37475,0.0248447,-52.9067,-0.00857847,
2,0,0,1,0,24840.2,-0.0210196,-0.0213617,-53.7248,13,0.00500631,10,0.00114765,-1.26983,1.39733,0.0422233,-88.4245,-0.0213617,
2,0,0,1,0,24840.2,-0.0338153,-0.0341905,-52.4212,13,0.00415689,10,0.00179231,-1.28049,1.09323,0.0539684,-110.336,-0.0341905,
2,0,0,1,0,24840.2,-0.0466193,-0.0469493,-50.932,13,0.00333015,10,0.00239122,-1.29301,1.01144,0.0583325,-115.963,-0.0469493,
2,0,0,1,0,24840.2,-0.0594121,-0.0597972,-49.5259,13,0.00252679,10,0.00296151,-1.30517,1.18264,0.0498884,-96.5315,-0.0597972,
2,0,0,1,0,24840.3,-0.0722189,-0.0725783,-48.4673,13,0.00174326,10,0.00351767,-1.31455,1.62613,0.0362824,-68.7044,-0.0725783,
2,0,0,1,0,24840.3,-0.0850146,-0.0854071,-47.8095,13,0.000973681,10,0.00408327,-1.32049,3.06125,0.0192731,-35.993,-0.0854071,
2,0,0,1,0,24840.3,-0.0978158,-0.0981638,-47.5585,13,0.000211318,10,0.00466852,-1.32277,28.6321,0.00206063,-3.82781,-0.0981638,
2,0,0,1,0,24840.3,-0.110611,-0.110975,-47.6716,13,-0.000550137,10,0.00529034,-1.32174,-4.60433,-0.012814,23.8675,-0.110975,
2,0,0,1,0,24840.3,-0.123418,-0.123758,-48.1454,13,-0.00131651,10,0.00595836,-1.31745,-2.29433,-0.0257156,48.3604,-0.123758,
2,0,0,1,0,24840.3,-0.136214,-0.136582,-48.8817,13,-0.0020926,10,0.00667637,-1.31085,-1.76165,-0.0334912,63.9226,-0.136582,
2,0,0,1,0,24840.4,-0.149015,-0.149386,-49.8013,13,-0.00288206,10,0.00743959,-1.30276,-1.51711,-0.0388898,75.582,-0.149386,
2,0,0,1,0,24840.4,-0.161816,-0.162183,-50.777,13,-0.00368669,10,0.00823515,-1.29433,-1.54262,-0.0382465,75.7725,-0.162183,
2,0,0,1,0,24840.4,-0.174615,-0.174931,-51.7119,13,-0.00450687,10,0.00904601,-1.28641,-1.63931,-0.0359907,72.6363,-0.174931,
2,0,0,1,0,24840.4,-0.187419,-0.187728,-52.6048,13,-0.00534168,10,0.0098754,-1.27897,-1.85433,-0.0318174,65.3136,-0.187728,
2,0,0,1,0,24840.4,-0.199647,-0.199941,-53.3763,13,-0.00615275,10,0.0106721,-1.27265,0.241635,0.24417,-492.798,-0.199941,
2,0,0,1,1,24840.4,-0.192535,-0.192963,-39.2114,13,-0.00661553,10,0.00756636,-1.40659,-0.0623318,-0.946548,1482.69,-0.192963,
2,0,0,1,1,24840.4,-0.179739,-0.180141,-24.9694,13,-0.0071196,10,0.00449801,-1.60259,-0.0624884,-0.944175,920.601,-0.180141,
2,0,0,1,1,24840.5,-0.166932,-0.167319,-14.7579,13,-0.00743304,10,0.00246928,-1.83098,-0.0471298,-1.25186,710.435,-0.167319,
2,0,0,1,1,24840.5,-0.154139,-0.154557,-6.60257,13,-0.007601,10,0.00102048,-2.18029,-0.0237442,-2.48482,581.236,-0.154557,
2,0,0,1,1,24840.5,-0.141335,-0.141778,0.270246,13,-0.00764933,10,-3.83151e-05,-3.56824,0.281001,0.209964,498.556,-0.141778,
2,1,0,1,1,24840.5,-0.12854,-0.128993,6.20188,13,-0.00759577,10,-0.000799999,-2.20748,0.0301941,1.95403,433.456,-0.128993,
2,1,0,1,1,24840.5,-0.115736,-0.116223,11.4832,13,-0.00745302,10,-0.00133461,-1.93994,0.0660681,0.893018,391.028,-0.1162225,
2,1,0,1,1,24840.5,-0.102932,-0.103388,16.2179,13,-0.00723035,10,-0.00167674,-1.79001,0.105753,0.557904,349.346,-0.1033884,
2,1,0,1,1,24840.6,-0.0901361,-0.0905363,20.4503,13,-0.00693586,10,-0.00185149,-1.6893,0.148398,0.397579,315.668,-0.0905363,
2,1,0,1,1,24840.6,-0.0773322,-0.0777425,24.2823,13,-0.00657703,10,-0.00188776,-1.61471,0.197753,0.298353,281.683,-0.07774245,
2,1,0,1,1,24840.6,-0.0645393,-0.0649539,27.7042,13,-0.00616025,10,-0.0017995,-1.55745,0.250666,0.235373,253.871,-0.0649539,
2,1,0,1,1,24840.6,-0.0517325,-0.052157,30.7905,13,-0.00569144,10,-0.00160594,-1.51158,0.31294,0.188535,226.002,-0.052157,
2,1,0,1,1,24840.6,-0.0389369,-0.0393175,33.4928,13,-0.00517646,10,-0.00131686,-1.47505,0.38931,0.15155,197.743,-0.0393175,
2,1,0,1,1,24840.6,-0.0261357,-0.0265396,35.8378,13,-0.00462095,10,-0.000951122,-1.44566,0.482789,0.122206,170.73,-0.0265396,
2,1,0,1,1,24840.7,-0.01334,-0.0137321,37.8404,13,-0.00403068,10,-0.000519626,-1.42204,0.612077,0.0963931,142.214,-0.01373205,
2,1,0,1,1,24840.7,-0.000774628,-0.00115244,39.4686,13,-0.00342307,10,-4.54853e-05,-1.40375, , , ,-0.00115244,
2,1,0,0,1,24840.7,-0.000125413,-0.000401673,39.5566,13,-0.00339148,10,-1.58888e-05,-1.40278, , , ,-0.000401673,