File: Figure_codes/Fig_3-5/rawdata_trumpetplot_data/after 10th/20221101_1-115_003_TrumpetPlot_ParaChange_from10_every3_11_CV_C01_6.csv
mode,ox/red,error,control changes,counter inc.,time/s,control/V,Ewe/V,<I>/mA,cycle number,(Q-Qo)/C,I Range,P/W,log(|I|),Tafel slope mV/dec,alpha_eff,dI/d(E-IR),E-IR/V,
2,1,0,1,0,13015.3,2.44065e-05,-0.000344411,9.93337,7,0.0000000E+000,10,-3.42116e-06,-2.0029, , , ,-0.000344411,
2,1,0,1,0,13015.3,0.0101427,0.00978777,14.0251,7,0.000309911,10,0.000137275,-1.85309,0.118134,0.499433,271.846,0.00978777,
2,1,0,1,0,13015.4,0.0205441,0.0201766,16.2756,7,0.000706237,10,0.000328387,-1.78846,0.214544,0.275002,174.285,0.0201766,
2,1,0,1,0,13015.4,0.0309482,0.0306014,17.8529,7,0.00115092,10,0.000546323,-1.74829,0.304382,0.193835,134.854,0.0306014,
2,1,0,1,0,13015.4,0.0413439,0.0409871,19.1468,7,0.00163224,10,0.000784769,-1.7179,0.370889,0.159077,118.842,0.0409871,
2,1,0,1,0,13015.4,0.0517425,0.0513674,20.379,7,0.0021463,10,0.00104681,-1.69082,0.385693,0.152972,121.74,0.0513674,
2,1,0,1,0,13015.5,0.0621438,0.0618325,21.6516,7,0.00269276,10,0.00133877,-1.66451,0.400143,0.147447,124.519,0.0618325,
2,1,0,1,0,13015.5,0.0725479,0.0721789,22.9591,7,0.00327271,10,0.00165716,-1.63905,0.417589,0.141287,126.587,0.0721789,
2,1,0,1,0,13015.5,0.0829437,0.0825677,24.2375,7,0.00388674,10,0.00200124,-1.61551,0.437572,0.134835,127.732,0.0825677,
2,1,0,1,0,13015.5,0.0933422,0.0930456,25.6207,7,0.00453536,10,0.0023839,-1.59141,0.468231,0.126006,125.89,0.0930456,
2,1,0,1,0,13015.6,0.103749,0.103404,26.9037,7,0.00521818,10,0.00278194,-1.57019,0.50582,0.116642,122.434,0.103404,
2,1,0,1,0,13015.6,0.114148,0.113822,28.2078,7,0.00593449,10,0.00321067,-1.54963,0.489543,0.120521,132.74,0.113822,
2,1,0,1,0,13015.6,0.124543,0.124218,29.7235,7,0.00668719,10,0.0036922,-1.5269,0.43199,0.136577,158.463,0.124218,
2,1,0,1,0,13015.6,0.134942,0.134616,31.5149,7,0.00748297,10,0.0042424,-1.50148,0.400973,0.147142,180.997,0.134616,
2,1,0,1,0,13015.7,0.145349,0.145038,33.4408,7,0.00832746,10,0.00485019,-1.47572,0.420882,0.140182,182.85,0.145038,
2,1,0,1,0,13015.7,0.155747,0.155429,35.2165,7,0.00922046,10,0.00547368,-1.45325,0.514423,0.114692,157.491,0.1554293,
2,1,0,1,0,13015.7,0.166143,0.165792,36.5976,7,0.0101553,10,0.00606757,-1.43655,0.81202,0.0726583,103.669,0.165792,
2,1,0,1,0,13015.7,0.176542,0.176167,37.1357,7,0.0111168,10,0.00654207,-1.43021,-4.48365,-0.0131589,-19.031,0.176167,
2,1,0,1,0,13015.8,0.186949,0.186625,35.8898,7,0.012071,10,0.00669794,-1.44503,-0.356457,-0.165518,-231.108,0.186625,
2,1,0,1,0,13015.8,0.197347,0.197045,32.3958,7,0.0129626,10,0.00638342,-1.48951,-0.180422,-0.327011,-412.336,0.197045,
2,1,0,1,0,13015.8,0.207743,0.207421,27.8242,7,0.0137449,10,0.00577132,-1.55558,-0.148753,-0.396631,-430.705,0.207421,
2,1,0,1,0,13015.8,0.218141,0.217815,23.8566,7,0.014414,10,0.00519632,-1.62239,-0.171857,-0.343309,-320.545,0.217815,
2,1,0,1,0,13015.9,0.228548,0.228281,21.0957,7,0.0149957,10,0.00481576,-1.67581,-0.225107,-0.262098,-215.96,0.228281,
2,1,0,1,0,13015.9,0.238947,0.238668,19.2352,7,0.015518,10,0.00459082,-1.7159,-0.299661,-0.196889,-147.815,0.238668,
2,1,0,1,0,13015.9,0.249343,0.248974,17.9472,7,0.0160003,10,0.0044684,-1.746,-0.394728,-0.14947,-104.894,0.248974,
2,1,0,1,0,13016,0.259741,0.259451,17.0452,7,0.0164546,10,0.00442238,-1.7684,-0.541985,-0.108859,-72.4569,0.259451,
2,1,0,1,0,13016,0.270148,0.269868,16.3717,7,0.0168885,10,0.0044182,-1.78591,-0.648704,-0.0909505,-58.0958,0.269868,
2,1,0,1,0,13016,0.280547,0.280223,15.8127,7,0.0173066,10,0.0044311,-1.80099,-0.763821,-0.0772432,-47.7028,0.280223,
2,1,0,1,0,13016,0.290942,0.290655,15.3617,7,0.0177118,10,0.00446495,-1.81356,-0.89122,-0.0662014,-39.7079,0.290655,
2,1,0,0,0,13016.1,0.300012,0.299632,15.028,7,0.0180565,10,0.00450287,-1.8231,0.00152874,38.5939,19283.8,0.299632,
2,1,0,1,0,13016.1,0.290704,0.290393,2.88847,7,0.0182362,10,0.000838791,-2.53933,0.00757542,7.78834,758.83,0.290393,
2,0,0,1,0,13016.1,0.280305,0.28001,-2.30286,7,0.0182343,10,-0.000644823,-2.63773,-0.0138101,-4.27222,334.363,0.2800101,
2,0,0,1,0,13016.1,0.269909,0.269608,-4.86306,7,0.0181376,10,-0.00131112,-2.31309,-0.0601922,-0.980193,182.919,0.269608,
2,0,0,1,0,13016.2,0.2595,0.259189,-6.38039,7,0.0179899,10,-0.00165373,-2.19515,-0.123022,-0.479589,118.991,0.259189,
2,0,0,1,0,13016.2,0.249104,0.2488,-7.42846,7,0.0178096,10,-0.0018482,-2.1291,-0.195297,-0.302103,87.4159,0.2488002,
2,0,0,1,0,13016.2,0.238705,0.238402,-8.23877,7,0.0176056,10,-0.00196414,-2.08414,-0.267603,-0.220476,70.7545,0.238402,
2,0,0,1,0,13016.2,0.22831,0.228019,-8.89066,7,0.0173825,10,-0.00202724,-2.05107,-0.340925,-0.173058,60.1325,0.228019,
2,0,0,1,0,13016.3,0.2179,0.217575,-9.50337,7,0.0171431,10,-0.0020677,-2.02212,-0.385665,-0.152982,56.6773,0.217575,
2,0,0,1,0,13016.3,0.207504,0.207213,-10.0521,7,0.0168888,10,-0.00208293,-1.99774,-0.445479,-0.132442,51.9764,0.207213,
2,0,0,1,0,13016.3,0.197106,0.196761,-10.5948,7,0.0166202,10,-0.00208464,-1.97491,-0.456457,-0.129257,53.4946,0.196761,
2,0,0,1,0,13016.3,0.18671,0.186408,-11.1667,7,0.0163372,10,-0.00208157,-1.95207,-0.457214,-0.129042,56.2717,0.186408,
2,0,0,1,0,13016.4,0.1763,0.176002,-11.8128,7,0.0160387,10,-0.00207909,-1.92765,-0.394694,-0.149483,68.9348,0.176002,
2,0,0,1,0,13016.4,0.165905,0.165551,-12.6084,7,0.0157217,10,-0.00208733,-1.89934,-0.340441,-0.173305,85.2567,0.165551,
2,0,0,1,0,13016.4,0.155506,0.155233,-13.6633,7,0.0153809,10,-0.00212099,-1.86445,-0.25819,-0.228514,122.058,0.155233,
2,0,0,1,0,13016.4,0.145105,0.144782,-15.2097,7,0.0150067,10,-0.00220209,-1.81788,-0.19015,-0.310281,184.687,0.144782,
2,0,0,1,0,13016.5,0.134701,0.134409,-17.5121,7,0.0145829,10,-0.00235378,-1.75666,-0.152902,-0.385869,263.973,0.134409,
2,0,0,1,0,13016.5,0.124305,0.123971,-20.6433,7,0.0140881,10,-0.00255918,-1.68522,-0.143949,-0.409868,330.468,0.123971,
2,0,0,1,0,13016.5,0.113906,0.113643,-24.2002,7,0.0135048,10,-0.00275018,-1.61618,-0.1614,-0.365551,345.109,0.113643,
2,0,0,1,0,13016.5,0.103505,0.103225,-27.6098,7,0.0128305,10,-0.00285003,-1.55894,-0.206071,-0.286309,307.69,0.103225,
2,0,0,1,0,13016.6,0.0931008,0.0928833,-30.5001,7,0.0120736,10,-0.00283295,-1.5157,-0.287438,-0.205261,243.982,0.0928833,
2,0,0,1,0,13016.6,0.0827051,0.08245,-32.7031,7,0.0112501,10,-0.00269637,-1.48541,-0.430776,-0.136962,174.643,0.08245,
2,0,0,1,0,13016.6,0.0723065,0.0720273,-34.0971,7,0.0103795,10,-0.00245592,-1.46728,-0.90845,-0.0649458,86.2862,0.0720273,
2,0,0,1,0,13016.6,0.0618997,0.0615854,-34.501,7,0.00948574,10,-0.00212476,-1.46217,14.4766,0.00407554,-5.47941,0.0615854,
2,0,0,1,0,13016.7,0.0515011,0.0511617,-34.0981,7,0.00859294,10,-0.00174451,-1.46727,1.32124,0.0446551,-59.3946,0.0511617,
2,0,0,1,0,13016.7,0.0411053,0.0407622,-33.3799,7,0.00771557,10,-0.00136064,-1.47651,1.0908,0.0540888,-70.4832,0.0407622,
2,0,0,1,0,13016.7,0.0307068,0.0304137,-32.632,7,0.00685731,10,-0.000992461,-1.48636,1.07538,0.0548643,-69.8859,0.0304137,
2,0,0,1,0,13016.8,0.0202999,0.0200112,-31.8762,7,0.0060186,10,-0.000637879,-1.49653,0.943545,0.0625302,-77.7613,0.0200112,
2,0,0,1,0,13016.8,0.00990136,0.00960326,-30.9987,7,0.00520096,10,-0.000297688,-1.50866,0.760019,0.0776296,-93.8969,0.00960326,
2,0,0,1,0,13016.8,-0.000494411,-0.000865071,-29.9336,7,0.00440854,10,2.58947e-05,-1.52384,0.593743,0.0993696,-115.893,-0.000865071,
2,0,0,1,0,13016.8,-0.010893,-0.0112984,-28.5337,7,0.00364834,10,0.000322385,-1.54464,0.476206,0.123896,-137.945,-0.0112984,
2,0,0,1,0,13016.9,-0.0212998,-0.0216681,-27.1267,7,0.00292515,10,0.000587784,-1.5666,0.500385,0.117909,-124.906,-0.0216681,
2,0,0,1,0,13016.9,-0.0316984,-0.03204,-25.9997,7,0.00223552,10,0.000833029,-1.58503,0.671656,0.0878426,-89.1416,-0.03204,
2,0,0,1,0,13016.9,-0.0420942,-0.0424564,-25.2626,7,0.00157026,10,0.00107256,-1.59752,1.0595,0.0556867,-54.9304,-0.0424564,
2,0,0,1,0,13016.9,-0.0524927,-0.0528621,-24.8922,7,0.000919005,10,0.00131585,-1.60394,3.07943,0.0191594,-18.6337,-0.05286213,
2,0,0,1,0,13017,-0.0628996,-0.0632637,-24.8598,7,0.000272911,10,0.00157272,-1.6045,-6.17978,-0.00954727,9.26059,-0.0632637,
2,0,0,1,0,13017,-0.0732982,-0.0736461,-25.0402,7,-0.000375123,10,0.00184411,-1.60136,-2.05018,-0.028778,28.1196,-0.0736461,
2,0,0,1,0,13017,-0.0836939,-0.0840699,-25.4163,7,-0.0010307,10,0.00213674,-1.59489,-1.30352,-0.0452621,44.9231,-0.0840699,
2,0,0,1,0,13017,-0.0940925,-0.0944396,-25.9717,7,-0.00169863,10,0.00245276,-1.5855,-0.963339,-0.0612453,62.1238,-0.0944396,
2,0,0,1,1,13017.1,-0.0978574,-0.0982868,-21.5946,7,-0.00221918,10,0.00212246,-1.66566,-0.026203,-2.25165,1846.4,-0.09828677,
2,0,0,1,1,13017.1,-0.0874588,-0.0878534,-8.07608,7,-0.00258536,10,0.000709512,-2.0928,-0.0187446,-3.14757,967.634,-0.0878534,
2,0,0,1,1,13017.1,-0.077052,-0.077471,0.161273,7,-0.00268001,10,-1.2494e-05,-3.79244,0.335449,0.175884,650.643,-0.077471,
2,1,0,1,1,13017.1,-0.0666562,-0.0670779,5.81902,7,-0.00259746,10,-0.000390328,-2.23515,0.0282602,2.08774,457.289,-0.0670779,
2,1,0,1,1,13017.2,-0.0562576,-0.0566563,9.87998,7,-0.00239017,10,-0.000559763,-2.00524,0.0681935,0.865185,331.022,-0.05665626,
2,1,0,1,1,13017.2,-0.0458563,-0.0462144,12.8309,7,-0.00209249,10,-0.000592971,-1.89174,0.122457,0.481801,240.219,-0.0462144,
2,1,0,1,1,13017.2,-0.0354522,-0.0358171,14.9296,7,-0.00172997,10,-0.000534735,-1.82595,0.202111,0.291918,169.451,-0.0358171,
2,1,0,1,1,13017.2,-0.0250564,-0.0254517,16.3896,7,-0.00132152,10,-0.000417143,-1.78543,0.328822,0.179428,114.657,-0.0254517,
2,1,0,1,1,13017.3,-0.0146579,-0.0150109,17.3989,7,-0.000881177,10,-0.000261173,-1.75948,0.502273,0.117466,79.7405,-0.0150109,
2,1,0,1,1,13017.3,-0.00425653,-0.00459558,18.0824,7,-0.00041924,10,-8.30991e-05,-1.74274,0.818911,0.0720469,50.79,-0.00459558,
2,1,0,0,1,13017.3,-7.54729e-05,-0.000382585,18.2527,7,-0.000228284,10,-6.98321e-06,-1.73867, , , ,-0.000382585,