File: Figure_codes/Fig_3-5/rawdata_trumpetplot_data/after 10th/20221101_1-115_003_TrumpetPlot_ParaChange_from10_every3_06_CV_C01_27.csv
mode,ox/red,error,control changes,counter inc.,time/s,control/V,Ewe/V,<I>/mA,cycle number,(Q-Qo)/C,I Range,P/W,log(|I|),Tafel slope mV/dec,alpha_eff,dI/d(E-IR),E-IR/V,
2,0,0,0,0,54343.5,2.44065e-05,-0.000382585,-1.39563,28,0.0000000E+000,10,5.33947e-07,-2.85523, , , ,-0.000382585,
2,1,0,1,0,54343.7,0.00729063,0.00696024,1.03548,28,5.79104e-05,10,7.20717e-06,-2.98486,0.0224887,2.62354,100.377,0.00696024,
2,1,0,1,0,54343.9,0.014778,0.0144036,1.46353,28,0.000301835,10,2.10801e-05,-2.8346,0.0922894,0.639294,36.3127,0.01440361,
2,1,0,1,0,54344.1,0.0222743,0.0219259,1.67367,28,0.000600506,10,3.66966e-05,-2.77633,0.1539,0.383366,25.0635,0.0219259,
2,1,0,1,0,54344.3,0.0297626,0.0294049,1.84858,28,0.00093365,10,5.43573e-05,-2.73316,0.191686,0.307794,22.1505,0.0294049,
2,1,0,1,0,54344.5,0.0372544,0.0369006,2.01228,28,0.00129825,10,7.42545e-05,-2.69631,0.227445,0.259404,20.3578,0.0369006,
2,1,0,1,0,54344.7,0.0447472,0.0443986,2.17009,28,0.00169337,10,9.6349e-05,-2.66352,0.237022,0.248922,21.1478,0.0443986,
2,1,0,1,0,54344.8,0.0522345,0.0518597,2.33365,28,0.0021183,10,0.000121022,-2.63197,0.245908,0.239927,21.8143,0.05185974,
2,1,0,1,0,54345,0.0597308,0.0593685,2.47735,28,0.00257251,10,0.000147077,-2.60601,0.297827,0.198101,19.186,0.0593685,
2,1,0,1,0,54345.2,0.0672182,0.0668567,2.61704,28,0.0030526,10,0.000174967,-2.58219,0.34124,0.172899,17.6426,0.0668567,
2,1,0,1,0,54345.4,0.0747074,0.0743531,2.73766,28,0.00355654,10,0.000203553,-2.56262,0.444857,0.132627,14.1324,0.0743531,
2,1,0,1,0,54345.6,0.0822019,0.0818846,2.82359,28,0.0040812,10,0.000231209,-2.5492,0.59205,0.0996538,11.0081,0.0818846,
2,1,0,1,0,54345.8,0.0896911,0.0893529,2.92711,28,0.00462287,10,0.000261545,-2.53356,0.485012,0.121647,13.9027,0.0893529,
2,1,0,1,0,54346,0.097182,0.0968233,3.05659,28,0.00518537,10,0.000295949,-2.51476,0.294596,0.200274,23.8962,0.0968233,
2,1,0,1,0,54346.2,0.104675,0.104329,3.27166,28,0.00577959,10,0.000341328,-2.48523,0.215948,0.273214,34.9006,0.104329,
2,1,0,1,0,54346.3,0.112162,0.11183,3.53863,28,0.00641941,10,0.000395727,-2.45116,0.227952,0.258827,35.6719,0.11183,
2,1,0,1,0,54346.5,0.119655,0.119317,3.77799,28,0.00710856,10,0.000450779,-2.42274,0.349389,0.168866,24.8643,0.119317,
2,1,0,1,0,54346.7,0.127146,0.126744,3.91475,28,0.00783408,10,0.000496172,-2.4073,0.639189,0.0923045,14.1379,0.1267444,
2,1,0,1,0,54346.9,0.134635,0.134287,4.00185,28,0.00857927,10,0.000537395,-2.39774,2.42059,0.0243743,3.79879,0.134287,
2,1,0,1,0,54347.1,0.14213,0.14181,3.95657,28,0.00933076,10,0.000561081,-2.40268,-0.467973,-0.126076,-19.4293,0.14181,
2,1,0,1,0,54347.3,0.149619,0.149257,3.62882,28,0.0100494,10,0.000541625,-2.44023,-0.12673,-0.465555,-65.7434,0.149257,
2,1,0,1,0,54347.5,0.157106,0.156783,3.04407,28,0.0106781,10,0.000477258,-2.51655,-0.0910907,-0.647706,-76.8533,0.1567829,
2,1,0,1,0,54347.7,0.164602,0.164296,2.52917,28,0.0112005,10,0.000415531,-2.59702,-0.106415,-0.554431,-54.9145,0.164296,
2,1,0,1,0,54347.8,0.172091,0.171757,2.20236,28,0.0116442,10,0.000378271,-2.65711,-0.150257,-0.39266,-33.8116,0.171757,
2,1,0,1,0,54348,0.179582,0.17923,2.01005,28,0.01204,10,0.00036026,-2.69679,-0.241532,-0.244274,-19.195,0.17923,
2,1,0,1,0,54348.2,0.187074,0.186692,1.89399,28,0.0124078,10,0.000353593,-2.72262,-0.382102,-0.154409,-11.4271,0.186692,
2,1,0,1,0,54348.4,0.194563,0.194141,1.82843,28,0.0127584,10,0.000354973,-2.73792,-0.53823,-0.109618,-7.79143,0.194141,
2,1,0,1,0,54348.6,0.202059,0.201735,1.77841,28,0.0130985,10,0.000358768,-2.74997,-0.719509,-0.0820004,-5.68476,0.201735,
2,1,0,1,0,54348.8,0.209546,0.209197,1.74495,28,0.0134313,10,0.000365039,-2.75822,-0.708469,-0.0832782,-5.68433,0.209197,
2,1,0,1,0,54349,0.217035,0.216675,1.72019,28,0.0137586,10,0.000372723,-2.76442,-2.04247,-0.0288866,-1.93828,0.216675,
2,1,0,1,0,54349.2,0.22453,0.224171,1.69834,28,0.0140823,10,0.000380719,-2.76998,-1.88004,-0.0313823,-2.08596,0.224171,
2,1,0,1,0,54349.3,0.232019,0.231688,1.6892,28,0.0144022,10,0.000391368,-2.77232,-3.47923,-0.0169578,-1.11638,0.231688,
2,1,0,1,0,54349.5,0.23951,0.239203,1.67689,28,0.0147197,10,0.000401118,-2.77549,-2.17938,-0.027072,-1.76502,0.239203,
2,1,0,1,0,54349.7,0.247003,0.246671,1.65855,28,0.0150348,10,0.000409115,-2.78027,-3.47199,-0.0169931,-1.10213,0.2466709,
2,1,0,1,0,54349.9,0.25449,0.254157,1.6515,28,0.0153476,10,0.000419741,-2.78212,-2.18363,-0.0270192,-1.73815,0.254157,
2,1,0,1,0,54350.1,0.261983,0.261648,1.63977,28,0.0156585,10,0.000429044,-2.78522,-1.78075,-0.033132,-2.12126,0.261648,
2,1,0,1,0,54350.3,0.269474,0.269173,1.62713,28,0.0159673,10,0.000437979,-2.78858,-7.01511,-0.00841041,-0.535061,0.269173,
2,1,0,1,0,54350.5,0.276963,0.276619,1.62072,28,0.016274,10,0.000448322,-2.79029,-2.93548,-0.0200989,-1.26611,0.276619,
2,1,0,1,0,54350.6,0.284458,0.284107,1.60543,28,0.0165787,10,0.000456115,-2.79441,-9.12523,-0.00646559,-0.404845,0.284107,
2,1,0,1,0,54350.8,0.291947,0.29161,1.58994,28,0.0168808,10,0.000463641,-2.79862,-1.43309,-0.0411698,-2.55374,0.29161,
2,1,0,1,0,54351,0.299434,0.299146,1.58055,28,0.0171804,10,0.000472815,-2.80119,-0.0180268,-3.2729,-175.541,0.299146,
2,0,0,1,0,54351.2,0.294196,0.29387,-0.260892,28,0.0172339,10,-7.66684e-05,-3.58354,-0.00519867,-11.3491,78.3313,0.29387,
2,0,0,1,0,54351.4,0.286701,0.286315,-0.554092,28,0.0171489,10,-0.000158645,-3.25642,-0.0539041,-1.09454,23.4222,0.286315,
2,0,0,1,0,54351.6,0.279212,0.27885,-0.690826,28,0.0170279,10,-0.000192637,-3.16063,-0.111613,-0.528614,14.2444,0.27885,
2,0,0,1,0,54351.7,0.271725,0.271335,-0.7833,28,0.016886,10,-0.000212537,-3.10607,-0.154369,-0.3822,11.7126,0.271335,
2,0,0,1,0,54351.9,0.264228,0.263868,-0.864953,28,0.0167281,10,-0.000228234,-3.06301,-0.190325,-0.309996,10.384,0.263868,
2,0,0,1,0,54352.1,0.256741,0.256372,-0.921917,28,0.0165578,10,-0.000236353,-3.03531,-0.282842,-0.208597,7.51396,0.256372,
2,0,0,1,0,54352.3,0.249248,0.248856,-0.979565,28,0.0163762,10,-0.000243771,-3.00897,-0.378982,-0.15568,5.95711,0.248856,
2,0,0,1,0,54352.5,0.241756,0.241434,-1.03007,28,0.0161847,10,-0.000248695,-2.98713,-0.363026,-0.162523,6.53139,0.241434,
2,0,0,1,0,54352.7,0.234268,0.2339,-1.07198,28,0.0159841,10,-0.000250737,-2.96981,-0.414789,-0.142241,5.99405,0.2339,
2,0,0,1,0,54352.9,0.226772,0.226421,-1.12612,28,0.0157746,10,-0.000254976,-2.94842,-0.377322,-0.156365,6.83499,0.226421,
2,0,0,1,0,54353.1,0.219284,0.218948,-1.16891,28,0.0155571,10,-0.00025593,-2.93222,-0.495594,-0.119049,5.41446,0.218948,
2,0,0,1,0,54353.2,0.211796,0.211415,-1.20698,28,0.0153313,10,-0.000255174,-2.9183,-0.619606,-0.0952219,4.49461,0.211415,
2,0,0,1,0,54353.4,0.204301,0.203922,-1.25737,28,0.015097,10,-0.000256406,-2.90054,-0.722637,-0.0816455,3.99696,0.203922,
2,0,0,1,0,54353.6,0.196812,0.196415,-1.29492,28,0.014855,10,-0.000254342,-2.88776,-0.540395,-0.109179,5.53153,0.196415,
2,0,0,1,0,54353.8,0.189321,0.188974,-1.34422,28,0.014604,10,-0.000254022,-2.87153,-0.53226,-0.110848,5.83098,0.188974,
2,0,0,1,0,54354,0.181828,0.18146,-1.39935,28,0.0143437,10,-0.000253926,-2.85407,-0.405856,-0.145372,7.93076,0.18146,
2,0,0,1,0,54354.2,0.174341,0.173972,-1.45748,28,0.0140728,10,-0.000253561,-2.8364,-0.328632,-0.179532,10.2569,0.173972,
2,0,0,1,0,54354.4,0.166848,0.16647,-1.53814,28,0.0137891,10,-0.000256055,-2.813,-0.326845,-0.180513,10.8123,0.1664702,
2,0,0,1,0,54354.6,0.159357,0.158984,-1.63974,28,0.0134889,10,-0.000260692,-2.78523,-0.24702,-0.238847,15.273,0.158984,
2,0,0,1,0,54354.7,0.151868,0.151501,-1.78786,28,0.0131655,10,-0.000270863,-2.74767,-0.165341,-0.356838,25.0481,0.151501,
2,0,0,1,0,54354.9,0.144373,0.144043,-2.03811,28,0.0128055,10,-0.000293575,-2.69077,-0.110174,-0.535516,42.6501,0.144043,
2,0,0,1,0,54355.1,0.136884,0.136507,-2.43289,28,0.0123859,10,-0.000332106,-2.61388,-0.0928037,-0.63575,60.3456,0.136507,
2,0,0,1,0,54355.3,0.129393,0.129009,-2.91935,28,0.0118818,10,-0.000376623,-2.53471,-0.101532,-0.5811,66.2015,0.129009,
2,0,0,1,0,54355.5,0.1219,0.12151,-3.3873,28,0.0112865,10,-0.000411591,-2.47015,-0.144258,-0.408988,53.871,0.12151,
2,0,0,1,0,54355.7,0.114413,0.114042,-3.74937,28,0.0106132,10,-0.000427584,-2.42604,-0.211741,-0.278642,40.7636,0.114042,
2,0,0,1,0,54355.9,0.10692,0.106575,-3.96676,28,0.00988429,10,-0.000422758,-2.40156,-0.516646,-0.114198,17.6581,0.1065752,
2,0,0,1,0,54356.1,0.0994284,0.0990588,-4.013,28,0.0091305,10,-0.000397523,-2.39653,1.94885,0.0302742,-4.73504,0.0990588,
2,0,0,1,0,54356.2,0.0919401,0.0915614,-3.92235,28,0.00838311,10,-0.000359136,-2.40645,0.568449,0.103791,-15.886,0.0915614,
2,0,0,1,0,54356.4,0.0844447,0.0840953,-3.79837,28,0.00765645,10,-0.000319425,-2.4204,0.585253,0.100811,-14.9338,0.0840953,
2,0,0,1,0,54356.6,0.0769565,0.0766047,-3.69619,28,0.00695226,10,-0.000283146,-2.43225,0.713039,0.0827444,-11.9337,0.0766047,
2,0,0,1,0,54356.8,0.0694682,0.0691329,-3.61122,28,0.00626453,10,-0.000249654,-2.44235,0.780284,0.0756135,-10.6821,0.0691329,
2,0,0,1,0,54357,0.0619728,0.061642,-3.53805,28,0.00559061,10,-0.000218093,-2.45124,0.682871,0.0863999,-11.9173,0.061642,
2,0,0,1,0,54357.2,0.0544836,0.0541114,-3.44216,28,0.00493341,10,-0.00018626,-2.46317,0.814005,0.0724812,-9.75054,0.0541114,
2,0,0,1,0,54357.4,0.0469927,0.0466305,-3.34576,28,0.00429341,10,-0.000156014,-2.47551,0.543445,0.108567,-14.1907,0.0466305,
2,0,0,1,0,54357.6,0.0394999,0.0391244,-3.24668,28,0.00367274,10,-0.000127025,-2.48856,0.483407,0.12205,-15.4146,0.0391244,
2,0,0,1,0,54357.7,0.0320125,0.0316098,-3.11576,28,0.00307377,10,-9.84885e-05,-2.50644,0.465899,0.126637,-15.4364,0.0316098,
2,0,0,1,0,54357.9,0.0245198,0.0241513,-2.9998,28,0.0024972,10,-7.24491e-05,-2.52291,0.447793,0.131757,-15.4217,0.0241513,
2,0,0,1,0,54358.1,0.0170289,0.016662,-2.89203,28,0.00194245,10,-4.81872e-05,-2.5388,0.478317,0.123349,-13.9225,0.016662,
2,0,0,1,0,54358.3,0.0095397,0.00919209,-2.80438,28,0.00140612,10,-2.57781e-05,-2.55216,0.775637,0.0760665,-8.33504,0.00919209,
2,0,0,1,0,54358.5,0.00204518,0.0016601,-2.78897,28,0.000882002,10,-4.62996e-06,-2.55456,4.08613,0.0144391,-1.55447,0.0016601,
2,0,0,1,0,54358.5,0.000177222,-0.000240194,-2.75546,28,0.000751848,10,6.61845e-07,-2.55981, , , ,-0.0002401941,