File: Figure_codes/Fig_3-5/rawdata_trumpetplot_data/after 10th/20221101_1-115_003_TrumpetPlot_ParaChange_from10_every3_05_CV_C01_7.csv
mode,ox/red,error,control changes,counter inc.,time/s,control/V,Ewe/V,<I>/mA,cycle number,(Q-Qo)/C,I Range,P/W,log(|I|),Tafel slope mV/dec,alpha_eff,dI/d(E-IR),E-IR/V,
2,0,0,1,0,14910.9,2.44065e-05,-0.000248974,-0.739242,8,0.0000000E+000,10,1.84052e-07,-3.13121, , , ,-0.000248974,
2,1,0,1,0,14911.3,0.00729063,0.00699905,0.738309,8,0.000180778,10,5.16746e-06,-3.13176,0.06405,0.921156,26.338,0.00699905,
2,1,0,1,0,14911.7,0.0147802,0.0144896,0.879771,8,0.000493327,10,1.27475e-05,-3.05563,0.12438,0.474353,16.2802,0.0144896,
2,1,0,1,0,14912,0.0222725,0.021959,0.987328,8,0.000850082,10,2.16808e-05,-3.00554,0.171092,0.344843,13.2473,0.021959,
2,1,0,1,0,14912.4,0.0297644,0.0294264,1.08628,8,0.00124483,10,3.19653e-05,-2.96406,0.201291,0.293107,12.4006,0.0294264,
2,1,0,1,0,14912.8,0.0372544,0.0369342,1.18496,8,0.00167727,10,4.37657e-05,-2.9263,0.225539,0.261595,12.1234,0.0369342,
2,1,0,1,0,14913.2,0.0447449,0.0444175,1.28479,8,0.00214704,10,5.70672e-05,-2.89117,0.237254,0.248679,12.4553,0.0444175,
2,1,0,1,0,14913.5,0.0522363,0.0519305,1.37439,8,0.0026522,10,7.13729e-05,-2.86189,0.255078,0.231302,12.4043,0.05193055,
2,1,0,1,0,14913.9,0.0597291,0.0593917,1.46041,8,0.00319035,10,8.67365e-05,-2.83552,0.307839,0.191658,10.9043,0.0593917,
2,1,0,1,0,14914.3,0.0672182,0.0669195,1.5373,8,0.00375842,10,0.000102875,-2.81324,0.370479,0.159253,9.5435,0.06691955,
2,1,0,1,0,14914.7,0.0747092,0.0743816,1.60409,8,0.00435336,10,0.000119314,-2.79477,0.467982,0.126073,7.87941,0.07438159,
2,1,0,1,0,14915,0.0822001,0.0819115,1.65728,8,0.00497201,10,0.00013575,-2.7806,0.498087,0.118453,7.68206,0.0819115,
2,1,0,1,0,14915.4,0.0896911,0.0893726,1.7315,8,0.00561371,10,0.000154749,-2.76158,0.328329,0.179698,12.1723,0.0893726,
2,1,0,1,0,14915.8,0.097182,0.0968415,1.84463,8,0.00628992,10,0.000178637,-2.73409,0.217324,0.271485,19.5604,0.0968415,
2,1,0,1,0,14916.2,0.104673,0.104403,2.01859,8,0.00701846,10,0.000210746,-2.69495,0.195086,0.302431,23.7445,0.104403,
2,1,0,1,0,14916.5,0.112164,0.111836,2.18061,8,0.00781167,10,0.000243871,-2.66142,0.264736,0.222864,18.9189,0.111836,
2,1,0,1,0,14916.9,0.119655,0.119346,2.29729,8,0.00865898,10,0.000274171,-2.63879,0.49884,0.118274,10.6034,0.119346,
2,1,0,1,0,14917.3,0.127146,0.126817,2.37931,8,0.00954283,10,0.000301738,-2.62355,0.471257,0.125197,11.6471,0.126817,
2,1,0,1,0,14917.7,0.134637,0.134339,2.45065,8,0.0104575,10,0.000329218,-2.61072,5.4221,0.0108814,1.03882,0.134339,
2,1,0,1,0,14918,0.142128,0.141827,2.34748,8,0.0113718,10,0.000332935,-2.6294,-0.166855,-0.353601,-32.2148,0.141827,
2,1,0,1,0,14918.4,0.149619,0.149298,1.97066,8,0.0121933,10,0.000294215,-2.70539,-0.0766967,-0.769264,-59.0363,0.149298,
2,1,0,1,0,14918.8,0.157108,0.156755,1.56099,8,0.0128579,10,0.000244693,-2.8066,-0.08058,-0.732191,-44.7594,0.156755,
2,1,0,1,0,14919.2,0.164601,0.1643,1.30914,8,0.0133973,10,0.000215091,-2.88301,-0.125998,-0.46826,-23.9518,0.1643,
2,1,0,1,0,14919.5,0.172092,0.17176,1.1653,8,0.0138659,10,0.000200152,-2.93356,-0.195098,-0.302412,-13.8407,0.17176,
2,1,0,1,0,14919.9,0.179582,0.179236,1.09162,8,0.0142953,10,0.000195657,-2.96193,-0.350164,-0.168492,-7.19068,0.1792365,
2,1,0,1,0,14920.3,0.187073,0.186741,1.04924,8,0.0147023,10,0.000195936,-2.97913,-0.541852,-0.108886,-4.4474,0.186741,
2,1,0,1,0,14920.7,0.194564,0.194259,1.01995,8,0.0150958,10,0.000198135,-2.99142,-0.822076,-0.0717695,-2.85597,0.194259,
2,1,0,1,0,14921,0.202057,0.201736,0.996483,8,0.0154801,10,0.000201027,-3.00153,-0.80906,-0.0729241,-2.83222,0.201736,
2,1,0,1,0,14921.4,0.209546,0.209251,0.981582,8,0.0158578,10,0.000205397,-3.00807,-0.705471,-0.083632,-3.20569,0.209251,
2,1,0,1,0,14921.8,0.217037,0.216722,0.968661,8,0.0162297,10,0.00020993,-3.01383,-1.87487,-0.0314688,-1.1911,0.216722,
2,1,0,1,0,14922.2,0.224528,0.224266,0.95746,8,0.0165974,10,0.000214725,-3.01888,-1.25435,-0.0470362,-1.75829,0.224266,
2,1,0,1,0,14922.5,0.232019,0.231711,0.950464,8,0.0169612,10,0.000220233,-3.02206,-3.39338,-0.0173868,-0.642391,0.231711,
2,1,0,1,0,14922.9,0.23951,0.239187,0.941031,8,0.0173215,10,0.000225082,-3.0264,-2.40166,-0.0245663,-0.899036,0.239187,
2,1,0,1,0,14923.3,0.247001,0.246675,0.93325,8,0.0176785,10,0.000230209,-3.03,-1.18309,-0.0498693,-1.80985,0.2466749,
2,1,0,1,0,14923.7,0.254492,0.254217,0.919851,8,0.0180325,10,0.000233842,-3.03628,-2.14639,-0.027488,-0.989747,0.254217,
2,1,0,1,0,14924,0.261983,0.261714,0.915054,8,0.0183833,10,0.000239483,-3.03855,-1.72004,-0.0343015,-1.22265,0.261714,
2,1,0,1,0,14924.4,0.269474,0.269188,0.906968,8,0.018731,10,0.000244145,-3.04241,-4.16985,-0.0141492,-0.500884,0.269188,
2,1,0,1,0,14924.8,0.276965,0.276707,0.896991,8,0.0190755,10,0.000248204,-3.04721,-4.02234,-0.0146681,-0.513796,0.2767069,
2,1,0,1,0,14925.2,0.284456,0.284173,0.888721,8,0.0194168,10,0.00025255,-3.05123,-2.03869,-0.0289401,-1.00159,0.284173,
2,1,0,1,0,14925.5,0.291947,0.29167,0.879917,8,0.0197543,10,0.000256646,-3.05556,-1.59339,-0.0370279,-1.26953,0.2916702,
2,1,0,1,0,14925.9,0.299436,0.299161,0.86721,8,0.0200884,10,0.000259435,-3.06188,-0.00227234,-25.9644,-409.937,0.299161,
2,0,0,1,0,14926.2,0.293745,0.293437,-0.202344,8,0.0200917,10,-5.93752e-05,-3.69391,-0.0235573,-2.50453,19.0734,0.293437,
2,0,0,1,0,14926.6,0.286254,0.285899,-0.298517,8,0.0199885,10,-8.53459e-05,-3.52503,-0.0692578,-0.851889,9.94642,0.285899,
2,0,0,1,0,14927,0.278763,0.278464,-0.365578,8,0.0198561,10,-0.0001018,-3.43702,-0.108908,-0.541742,7.69147,0.278464,
2,0,0,1,0,14927.4,0.271272,0.270963,-0.413791,8,0.019703,10,-0.000112122,-3.38322,-0.16014,-0.368427,5.95393,0.270963,
2,0,0,1,0,14927.7,0.263781,0.263406,-0.451676,8,0.0195335,10,-0.000118974,-3.34517,-0.209998,-0.280955,4.95907,0.263406,
2,0,0,1,0,14928.1,0.25629,0.255988,-0.489331,8,0.0193499,10,-0.000125263,-3.3104,-0.292891,-0.20144,3.82724,0.255988,
2,0,0,1,0,14928.5,0.248799,0.248486,-0.521806,8,0.0191541,10,-0.000129662,-3.28249,-0.326139,-0.180904,3.66682,0.2484863,
2,0,0,1,0,14928.9,0.241308,0.241014,-0.548978,8,0.018947,10,-0.000132311,-3.26045,-0.394808,-0.14944,3.19988,0.241014,
2,0,0,1,0,14929.2,0.233817,0.233511,-0.575073,8,0.0187292,10,-0.000134286,-3.24028,-0.299984,-0.196677,4.41436,0.233511,
2,0,0,1,0,14929.6,0.226326,0.226008,-0.60103,8,0.0185011,10,-0.000135838,-3.2211,-0.399087,-0.147838,3.47528,0.226008,
2,0,0,1,0,14930,0.218835,0.218534,-0.631908,8,0.0182632,10,-0.000138093,-3.19935,-0.324862,-0.181616,4.46539,0.218534,
2,0,0,1,0,14930.4,0.211344,0.211025,-0.65472,8,0.0180157,10,-0.000138162,-3.18394,-0.415657,-0.141944,3.63102,0.211025,
2,0,0,1,0,14930.7,0.203855,0.203539,-0.680591,8,0.0177577,10,-0.000138527,-3.16711,-0.495887,-0.118979,3.1793,0.203539,
2,0,0,1,0,14931.1,0.196362,0.196045,-0.714415,8,0.0174893,10,-0.000140057,-3.14605,-0.386868,-0.152507,4.2445,0.196045,
2,0,0,1,0,14931.5,0.188871,0.188542,-0.746892,8,0.0172089,10,-0.000140821,-3.12674,-0.279865,-0.210816,6.14197,0.188542,
2,0,0,1,0,14931.9,0.18138,0.181065,-0.784528,8,0.0169152,10,-0.000142051,-3.10539,-0.298618,-0.197577,6.05858,0.181065,
2,0,0,1,0,14932.2,0.173891,0.173561,-0.837642,8,0.0166049,10,-0.000145382,-3.07694,-0.23749,-0.248431,8.08743,0.173561,
2,0,0,1,0,14932.6,0.166398,0.166085,-0.899661,8,0.0162731,10,-0.00014942,-3.04592,-0.250116,-0.235891,8.31847,0.166085,
2,0,0,1,0,14933,0.158906,0.158603,-0.997845,8,0.0159111,10,-0.000158261,-3.00094,-0.141887,-0.415823,16.2579,0.1586031,
2,0,0,1,0,14933.4,0.151417,0.151079,-1.15977,8,0.0155017,10,-0.000175217,-2.93563,-0.102493,-0.575651,26.1228,0.151079,
2,0,0,1,0,14933.7,0.143926,0.143623,-1.42786,8,0.0150136,10,-0.000205074,-2.84531,-0.0714467,-0.82579,46.119,0.143623,
2,0,0,1,0,14934.1,0.136435,0.136099,-1.80958,8,0.0144024,10,-0.000246283,-2.74242,-0.0786147,-0.750496,52.8125,0.136099,
2,0,0,1,0,14934.5,0.128942,0.128624,-2.18107,8,0.0136453,10,-0.000280537,-2.66133,-0.120561,-0.48938,41.4607,0.128624,
2,0,0,1,0,14934.9,0.121453,0.121152,-2.41744,8,0.0127725,10,-0.000292877,-2.61664,-0.258173,-0.228529,21.5103,0.121152,
2,0,0,1,0,14935.2,0.113962,0.11363,-2.49436,8,0.0118403,10,-0.000283435,-2.60304,-34.8742,-0.0016918,0.164555,0.11363,
2,0,0,1,0,14935.6,0.106471,0.106187,-2.4536,8,0.0109025,10,-0.00026054,-2.6102,0.616134,0.0957584,-9.17478,0.1061866,
2,0,0,1,0,14936,0.0989799,0.098689,-2.34991,8,0.00999369,10,-0.000231911,-2.62895,0.381517,0.154646,-14.169,0.098689,
2,0,0,1,0,14936.4,0.0914889,0.0912028,-2.23141,8,0.00912954,10,-0.000203511,-2.65142,0.352112,0.16756,-14.5823,0.0912028,
2,0,0,1,0,14936.7,0.083998,0.083663,-2.13223,8,0.00830708,10,-0.000178389,-2.67117,0.369007,0.159889,-13.2919,0.083663,
2,0,0,1,0,14937.1,0.076507,0.0761406,-2.05821,8,0.00751635,10,-0.000156714,-2.68651,0.452547,0.130373,-10.4603,0.0761406,
2,0,0,1,0,14937.5,0.0690161,0.0686555,-1.99018,8,0.0067511,10,-0.000136637,-2.70111,0.566145,0.104214,-8.11493,0.0686555,
2,0,0,1,0,14937.9,0.0615251,0.0612056,-1.93449,8,0.00600804,10,-0.000118401,-2.71343,0.534593,0.110364,-8.3444,0.0612056,
2,0,0,1,0,14938.2,0.0540342,0.0537122,-1.87451,8,0.0052876,10,-0.000100684,-2.72711,0.578337,0.102017,-7.46145,0.0537122,
2,0,0,1,0,14938.6,0.0465432,0.0462137,-1.81108,8,0.00458995,10,-8.36967e-05,-2.74206,0.49813,0.118443,-8.36095,0.0462137,
2,0,0,1,0,14939,0.0390523,0.0387567,-1.74304,8,0.00391774,10,-6.75546e-05,-2.75869,0.349921,0.16861,-11.4332,0.0387567,
2,0,0,1,0,14939.4,0.0315626,0.0312376,-1.66539,8,0.0032728,10,-5.20227e-05,-2.77849,0.365361,0.161484,-10.4958,0.0312376,
2,0,0,1,0,14939.7,0.0240704,0.0237829,-1.59112,8,0.00265509,10,-3.78414e-05,-2.7983,0.405125,0.145634,-9.07759,0.0237829,
2,0,0,1,0,14940.1,0.0165785,0.0162988,-1.53795,8,0.00206152,10,-2.50668e-05,-2.81306,0.673506,0.0876013,-5.26678,0.0162988,
2,0,0,1,0,14940.5,0.00908846,0.00873195,-1.49393,8,0.00148666,10,-1.30449e-05,-2.82567,0.685726,0.0860402,-5.0291,0.00873195,
2,0,0,1,0,14940.9,0.0015984,0.00124691,-1.49732,8,0.000922433,10,-1.86702e-06,-2.82469, , , ,0.001246909,
2,0,0,1,0,14940.9,0.000199195,-0.00016108,-1.47884,8,0.000816958,10,2.38213e-07,-2.83008, , , ,-0.00016108,