File: Figure_codes/Fig_3-5/rawdata_trumpetplot_data/after 10th/20221101_1-115_003_TrumpetPlot_ParaChange_from10_every3_12_CV_C01_14.csv
mode,ox/red,error,control changes,counter inc.,time/s,control/V,Ewe/V,<I>/mA,cycle number,(Q-Qo)/C,I Range,P/W,log(|I|),Tafel slope mV/dec,alpha_eff,dI/d(E-IR),E-IR/V,
2,1,0,1,0,28778.3,2.44065e-05,-0.000344411,15.8765,15,0.0000000E+000,10,-5.46802e-06,-1.79925, , , ,-0.000344411,
2,1,0,1,0,28778.4,0.0104008,0.0100423,19.0701,15,0.000303602,10,0.000191507,-1.71965,0.194818,0.302846,224.252,0.01004227,
2,1,0,1,0,28778.4,0.0212099,0.020851,21.1402,15,0.000666544,10,0.000440794,-1.67489,0.290291,0.203245,167.269,0.020851,
2,1,0,1,0,28778.4,0.0320052,0.0316608,22.768,15,0.00106234,10,0.000720853,-1.64268,0.374294,0.15763,139.923,0.0316608,
2,1,0,1,0,28778.4,0.0428033,0.0424854,24.1937,15,0.00148538,10,0.00102788,-1.6163,0.446834,0.13204,124.614,0.0424854,
2,1,0,1,0,28778.4,0.0535986,0.0532952,25.5306,15,0.00193307,10,0.00136066,-1.59294,0.481256,0.122596,122.111,0.0532952,
2,1,0,1,0,28778.5,0.0644077,0.0640869,26.8786,15,0.00240482,10,0.00172257,-1.57059,0.490761,0.120222,126.049,0.0640869,
2,1,0,1,0,28778.5,0.075203,0.0748734,28.2578,15,0.00290102,10,0.00211576,-1.54886,0.494861,0.119225,131.465,0.0748734,
2,1,0,1,0,28778.5,0.0860011,0.0856174,29.6925,15,0.00342256,10,0.0025422,-1.52735,0.505461,0.116725,135.245,0.0856174,
2,1,0,1,0,28778.5,0.0968075,0.0964686,31.1851,15,0.00397044,10,0.00300838,-1.50605,0.507228,0.116319,141.547,0.0964686,
2,1,0,1,0,28778.5,0.107606,0.107255,32.7034,15,0.00454566,10,0.00350761,-1.48541,0.532286,0.110843,141.448,0.107255,
2,1,0,1,0,28778.5,0.118401,0.118027,34.2226,15,0.00514797,10,0.00403918,-1.46569,0.530885,0.111135,148.573,0.118027,
2,1,0,1,0,28778.6,0.129207,0.128842,35.903,15,0.00577926,10,0.00462581,-1.44487,0.52244,0.112932,158.306,0.128842,
2,1,0,1,0,28778.6,0.140005,0.139644,37.7008,15,0.00644173,10,0.0052647,-1.42365,0.496108,0.118926,175.066,0.139644,
2,1,0,1,0,28778.6,0.150803,0.150449,39.6302,15,0.00713793,10,0.00596231,-1.40197,0.511654,0.115312,178.354,0.150449,
2,1,0,1,0,28778.6,0.161604,0.161303,41.5313,15,0.00786872,10,0.00669912,-1.38162,0.573986,0.10279,166.456,0.161303,
2,1,0,1,0,28778.6,0.172405,0.172033,43.2058,15,0.00863187,10,0.00743282,-1.36446,0.709833,0.0831182,139.969,0.172033,
2,1,0,1,0,28778.7,0.183203,0.182909,44.4429,15,0.00942168,10,0.00812899,-1.3522,1.25021,0.047192,81.6834,0.182909,
2,1,0,1,0,28778.7,0.194001,0.19367,44.8313,15,0.0102267,10,0.00868247,-1.34842,-6.57535,-0.0089729,-15.6585,0.19367,
2,1,0,1,0,28778.7,0.204808,0.204476,44.0597,15,0.0110286,10,0.00900917,-1.35596,-0.793468,-0.0743571,-127.51,0.204476,
2,1,0,1,0,28778.7,0.215603,0.215306,42.0663,15,0.0118053,10,0.00905713,-1.37607,-0.416975,-0.141495,-231.754,0.215306,
2,1,0,1,0,28778.7,0.226401,0.22613,39.1279,15,0.0125368,10,0.00884798,-1.40751,-0.302611,-0.19497,-297.358,0.22613,
2,1,0,1,0,28778.7,0.237207,0.236912,35.815,15,0.0132111,10,0.00848499,-1.44594,-0.270686,-0.217965,-304.687,0.236912,
2,1,0,1,0,28778.8,0.248005,0.247691,32.6779,15,0.0138267,10,0.00809402,-1.48575,-0.277677,-0.212477,-271.244,0.247691,
2,1,0,1,0,28778.8,0.258801,0.258485,29.9934,15,0.0143898,10,0.00775285,-1.52297,-0.306005,-0.192807,-225.998,0.258485,
2,1,0,1,0,28778.8,0.26961,0.269275,27.8114,15,0.0149091,10,0.00748891,-1.55578,-0.353602,-0.166854,-181.303,0.269275,
2,1,0,1,0,28778.8,0.280405,0.280124,26.0709,15,0.0153933,10,0.00730307,-1.58384,-0.418781,-0.140885,-143.458,0.280124,
2,1,0,1,0,28778.8,0.291203,0.290889,24.6788,15,0.0158493,10,0.00717879,-1.60768,-0.493694,-0.119507,-115.182,0.290889,
2,1,0,0,0,28778.8,0.300012,0.299689,23.7499,15,0.0162049,10,0.00711759,-1.62434,0.00180126,32.7548,26864.1,0.2996892,
2,1,0,1,0,28778.9,0.290842,0.290576,11.6227,15,0.0164607,10,0.00337729,-1.93469,0.0290661,2.02986,924.343,0.290576,
2,1,0,1,0,28778.9,0.280047,0.279778,3.9804,15,0.0165948,10,0.00111363,-2.40007,0.0148905,3.96227,555.279,0.279778,
2,0,0,1,0,28778.9,0.269244,0.268933,-0.920935,15,0.0166189,10,-0.00024767,-3.03577,-0.024181,-2.43993,372.607,0.268933,
2,0,0,1,0,28778.9,0.258443,0.258158,-4.29413,15,0.0165699,10,-0.00110857,-2.36712,-0.0354399,-1.66479,264.836,0.258158,
2,0,0,1,0,28778.9,0.247645,0.247364,-6.75204,15,0.0164691,10,-0.00167021,-2.17056,-0.0773418,-0.762847,198.444,0.247364,
2,0,0,1,0,28779,0.236849,0.236505,-8.63254,15,0.0163296,10,-0.00204164,-2.06386,-0.127877,-0.461382,154.533,0.236505,
2,0,0,1,0,28779,0.22604,0.225735,-10.1328,15,0.0161601,10,-0.00228733,-1.99427,-0.18802,-0.313797,123.626,0.225735,
2,0,0,1,0,28779,0.215245,0.214937,-11.367,15,0.0159661,10,-0.00244319,-1.94435,-0.24547,-0.240355,106.432,0.214937,
2,0,0,1,0,28779,0.204447,0.204134,-12.451,15,0.0157515,10,-0.00254167,-1.9048,-0.307773,-0.1917,92.9482,0.204134,
2,0,0,1,0,28779,0.19364,0.193325,-13.4218,15,0.0155186,10,-0.00259477,-1.87219,-0.357888,-0.164856,86.1556,0.193325,
2,0,0,1,0,28779,0.182842,0.182532,-14.32,15,0.015269,10,-0.00261386,-1.84406,-0.390704,-0.15101,84.3182,0.182532,
2,0,0,1,0,28779.1,0.172047,0.171737,-15.2388,15,0.015003,10,-0.00261706,-1.81705,-0.394652,-0.149499,88.9367,0.171737,
2,0,0,1,0,28779.1,0.161241,0.160941,-16.2509,15,0.0147198,10,-0.00261543,-1.78912,-0.372427,-0.15842,100.522,0.160941,
2,0,0,1,0,28779.1,0.150443,0.150144,-17.4603,15,0.0144167,10,-0.00262156,-1.75795,-0.313175,-0.188393,128.589,0.150144,
2,0,0,1,0,28779.1,0.139645,0.139336,-19.093,15,0.0140883,10,-0.00266033,-1.71913,-0.246291,-0.239554,179.094,0.1393355,
2,0,0,1,0,28779.1,0.128849,0.128568,-21.3675,15,0.0137249,10,-0.00274718,-1.67025,-0.201038,-0.293477,245.435,0.128568,
2,0,0,1,0,28779.2,0.118043,0.117768,-24.3703,15,0.0133139,10,-0.00287004,-1.61314,-0.185644,-0.317812,302.349,0.117768,
2,0,0,1,0,28779.2,0.107245,0.106966,-27.7637,15,0.0128445,10,-0.00296976,-1.55652,-0.201478,-0.292836,317.014,0.106966,
2,0,0,1,0,28779.2,0.0964468,0.0961908,-31.1023,15,0.0123137,10,-0.00299176,-1.50721,-0.241242,-0.244568,296.532,0.0961908,
2,0,0,1,0,28779.2,0.0856404,0.0854043,-34.2069,15,0.0117252,10,-0.00292142,-1.46589,-0.295291,-0.199803,266.191,0.0854043,
2,0,0,1,0,28779.2,0.0748451,0.0745733,-36.821,15,0.0110848,10,-0.00274586,-1.4339,-0.393392,-0.149978,215.072,0.0745733,
2,0,0,1,0,28779.2,0.0640471,0.0637869,-38.8559,15,0.0104027,10,-0.0024785,-1.41054,-0.55472,-0.10636,161.008,0.0637869,
2,0,0,1,0,28779.3,0.0532407,0.052958,-40.2828,15,0.00968947,10,-0.00213329,-1.39488,-0.911644,-0.0647183,101.559,0.052958,
2,0,0,1,0,28779.3,0.0424426,0.0421482,-41.0848,15,0.00895637,10,-0.00173165,-1.38632,-1.76317,-0.0334624,53.5978,0.0421482,
2,0,0,1,0,28779.3,0.0316473,0.031314,-41.4516,15,0.00821289,10,-0.00129802,-1.38246,-4.8702,-0.0121145,19.5905,0.031314,
2,0,0,1,0,28779.3,0.0208437,0.0205021,-41.5338,15,0.00746565,10,-0.000851531,-1.3816,22.0094,0.00268068,-4.34284,0.0205021,
2,0,0,1,0,28779.3,0.0100429,0.00977187,-41.3792,15,0.00671913,10,-0.000404352,-1.38322,3.99234,0.0147783,-23.8543,0.00977187,
2,0,0,1,0,28779.3,-0.000755208,-0.00112699,-41.0661,15,0.00597689,10,4.62812e-05,-1.38652,2.30187,0.0256313,-41.0265,-0.00112699,
2,0,0,1,0,28779.4,-0.0115505,-0.0118827,-40.4434,15,0.00524306,10,0.000480577,-1.39315,1.29763,0.0454675,-71.708,-0.0118827,
2,0,0,1,0,28779.4,-0.0223597,-0.0226957,-39.5625,15,0.00452279,10,0.000897896,-1.40272,0.993359,0.0593944,-91.6305,-0.02269567,
2,0,0,1,0,28779.4,-0.033155,-0.0335298,-38.4942,15,0.00382029,10,0.0012907,-1.4146,0.900252,0.0655372,-98.4441,-0.0335298,
2,0,0,1,0,28779.4,-0.043953,-0.0443439,-37.4341,15,0.00313719,10,0.00165997,-1.42673,0.92288,0.0639303,-93.4269,-0.0443439,
2,0,0,1,0,28779.4,-0.0547594,-0.0551462,-36.5302,15,0.00247203,10,0.0020145,-1.43735,1.13741,0.0518723,-73.9829,-0.0551462,
2,0,0,1,0,28779.5,-0.0655575,-0.065921,-35.8533,15,0.001821,10,0.00236348,-1.44547,1.78339,0.033083,-46.3392,-0.065921,
2,0,0,1,0,28779.5,-0.0763528,-0.076717,-35.4566,15,0.00117952,10,0.00272012,-1.4503,3.39686,0.017369,-24.0583,-0.076717,
2,0,0,1,0,28779.5,-0.0871592,-0.0875194,-35.3177,15,0.000542909,10,0.00309098,-1.45201,22.2083,0.00265667,-3.66366,-0.0875194,
2,0,0,1,0,28779.5,-0.0979573,-0.0983143,-35.3901,15,-9.31582e-05,10,0.00347936,-1.45112,-11.8658,-0.00497228,6.86002,-0.0983143,
2,0,0,1,1,28779.5,-0.0955546,-0.0960271,-27.3743,15,-0.000448906,10,0.00262868,-1.56266,-0.0418087,-1.41119,1525.97,-0.0960271,
2,0,0,1,1,28779.5,-0.0847538,-0.0851897,-15.2993,15,-0.000823714,10,0.00130334,-1.81533,-0.0383075,-1.54017,914.401,-0.0851897,
2,0,0,1,1,28779.6,-0.0739557,-0.0743205,-6.83635,15,-0.00101858,10,0.000508081,-2.16518,-0.0217536,-2.7122,686.382,-0.0743205,
2,0,0,1,1,28779.6,-0.0631604,-0.0635797,-0.317482,15,-0.00108004,10,2.01854e-05,-3.49828,-0.0631353,-0.934501,536.883,-0.0635797,
2,1,0,1,1,28779.6,-0.0523512,-0.0527678,4.88999,15,-0.00103671,10,-0.000258034,-2.31069,0.0238185,2.47707,431.836,-0.05276775,
2,1,0,1,1,28779.6,-0.0415559,-0.0420364,9.13399,15,-0.000909015,10,-0.00038396,-2.03934,0.0578951,1.01908,355.608,-0.0420364,
2,1,0,1,1,28779.6,-0.0307579,-0.0312023,12.6083,15,-0.000712031,10,-0.000393407,-1.89934,0.0994258,0.593407,289.347,-0.0312023,
2,1,0,1,1,28779.6,-0.0199515,-0.0203978,15.4471,15,-0.000458359,10,-0.000315086,-1.81115,0.149147,0.395583,237.207,-0.0203978,
2,1,0,1,1,28779.7,-0.0091534,-0.00954132,17.7446,15,-0.00015866,10,-0.000169307,-1.75093,0.211953,0.278363,192.128,-0.00954132,
2,1,0,0,1,28779.7,-7.54729e-05,-0.000439847,19.2773,15,0.00012181,10,-8.47908e-06,-1.71495, , , ,-0.000439847,