File: Figure_codes/Fig_3-5/rawdata_trumpetplot_data/after 10th/20221101_1-115_003_TrumpetPlot_ParaChange_from10_every3_11_CV_C01_27.csv
mode,ox/red,error,control changes,counter inc.,time/s,control/V,Ewe/V,<I>/mA,cycle number,(Q-Qo)/C,I Range,P/W,log(|I|),Tafel slope mV/dec,alpha_eff,dI/d(E-IR),E-IR/V,
2,1,0,1,0,54388,2.44065e-05,-0.000344411,9.43918,28,0.0000000E+000,10,-3.25095e-06,-2.02507, , , ,-0.000344411,
2,1,0,1,0,54388.1,0.0101427,0.00977293,12.6972,28,0.000286252,10,0.000124089,-1.89629,0.136809,0.431259,212.546,0.00977293,
2,1,0,1,0,54388.1,0.0205441,0.020166,14.5052,28,0.000641389,10,0.000292511,-1.83848,0.227364,0.259496,146.684,0.020166,
2,1,0,1,0,54388.1,0.0309482,0.0305611,15.8605,28,0.00103697,10,0.000484715,-1.79968,0.312795,0.188622,116.661,0.0305611,
2,1,0,1,0,54388.1,0.0413439,0.0409828,16.9845,28,0.00146434,10,0.000696072,-1.76995,0.385675,0.152978,101.335,0.0409828,
2,1,0,1,0,54388.2,0.0517425,0.0513727,18.0048,28,0.00191943,10,0.000924954,-1.74461,0.426006,0.138496,97.3005,0.05137267,
2,1,0,1,0,54388.2,0.0621438,0.0617763,18.9916,28,0.00240052,10,0.00117323,-1.72144,0.462469,0.127576,94.5609,0.0617763,
2,1,0,1,0,54388.2,0.0725479,0.0721842,19.991,28,0.00290741,10,0.00144303,-1.69917,0.467183,0.126289,98.5357,0.0721842,
2,1,0,1,0,54388.2,0.0829437,0.0825454,21.0173,28,0.00344052,10,0.00173488,-1.67742,0.49234,0.119836,98.2645,0.0825454,
2,1,0,1,0,54388.3,0.0933422,0.0929745,22.0465,28,0.00400049,10,0.00204977,-1.65666,0.525227,0.112332,96.6236,0.0929745,
2,1,0,1,0,54388.3,0.103749,0.103376,23.0594,28,0.00458669,10,0.00238379,-1.63715,0.5126,0.115099,103.589,0.103376,
2,1,0,1,0,54388.3,0.114148,0.113763,24.1398,28,0.00520031,10,0.00274622,-1.61727,0.518553,0.113778,107.145,0.113763,
2,1,0,1,0,54388.4,0.124543,0.124166,25.3146,28,0.0058429,10,0.00314322,-1.59663,0.490991,0.120165,118.694,0.1241664,
2,1,0,1,0,54388.4,0.134942,0.134571,26.6201,28,0.00651803,10,0.00358229,-1.57479,0.470556,0.125383,130.336,0.134571,
2,1,0,1,0,54388.4,0.145349,0.144959,27.9751,28,0.00722805,10,0.00405524,-1.55323,0.512132,0.115205,125.697,0.144959,
2,1,0,1,0,54388.4,0.155747,0.155382,29.1844,28,0.00797148,10,0.00453472,-1.53485,0.633632,0.093114,105.951,0.155382,
2,1,0,1,0,54388.5,0.166143,0.165758,30.0831,28,0.008743,10,0.00498651,-1.52168,1.10137,0.0535696,62.856,0.165758,
2,1,0,1,0,54388.5,0.176542,0.176164,30.4065,28,0.00953118,10,0.00535655,-1.51703,-9.17548,-0.00643018,-7.62144,0.176164,
2,1,0,1,0,54388.5,0.186949,0.186604,29.8762,28,0.0103167,10,0.00557502,-1.52467,-0.733944,-0.0803876,-93.5634,0.186604,
2,1,0,1,0,54388.5,0.197347,0.196988,28.4796,28,0.0110768,10,0.00561014,-1.54547,-0.38982,-0.151352,-168.027,0.196988,
2,1,0,1,0,54388.6,0.207743,0.207378,26.4833,28,0.011792,10,0.00549204,-1.57703,-0.295768,-0.199481,-206.035,0.207378,
2,1,0,1,0,54388.6,0.218141,0.217794,24.2733,28,0.0124516,10,0.00528659,-1.61487,-0.270276,-0.218296,-206.862,0.217794,
2,1,0,1,0,54388.6,0.228548,0.228203,22.2284,28,0.0130554,10,0.00507259,-1.65309,-0.277416,-0.212677,-184.49,0.228203,
2,1,0,1,0,54388.6,0.238947,0.238618,20.4774,28,0.0136095,10,0.00488627,-1.68873,-0.310208,-0.190195,-152.077,0.238618,
2,1,0,1,0,54388.7,0.249343,0.249018,19.0624,28,0.0141226,10,0.00474687,-1.71982,-0.363687,-0.162228,-120.758,0.249018,
2,1,0,1,0,54388.7,0.259741,0.259434,17.9436,28,0.014603,10,0.00465517,-1.74609,-0.425949,-0.138514,-96.9799,0.259434,
2,1,0,1,0,54388.7,0.270148,0.269802,17.0305,28,0.015057,10,0.00459485,-1.76877,-0.502647,-0.117379,-78.041,0.269802,
2,1,0,1,0,54388.7,0.280547,0.280163,16.2792,28,0.0154897,10,0.00456084,-1.78837,-0.589331,-0.100113,-63.6671,0.280163,
2,1,0,1,0,54388.8,0.290942,0.290609,15.6724,28,0.0159048,10,0.00455453,-1.80487,-0.672328,-0.0877547,-53.6727,0.290609,
2,1,0,0,0,54388.8,0.300012,0.299689,15.2137,28,0.0162552,10,0.00455938,-1.81776,0.00197899,29.8131,15763.6,0.2996892,
2,1,0,1,0,54388.8,0.290704,0.290394,5.96955,28,0.0164807,10,0.00173352,-2.22406,0.0217931,2.70728,627.698,0.290394,
2,1,0,1,0,54388.8,0.280305,0.27998,1.05907,28,0.0165658,10,0.000296518,-2.97508,0.00277458,21.2645,361.03,0.27998,
2,0,0,1,0,54388.9,0.269909,0.269536,-1.96728,28,0.0165509,10,-0.000530253,-2.70613,-0.0175985,-3.35257,237.872,0.269536,
2,0,0,1,0,54388.9,0.2595,0.25917,-4.03325,28,0.0164712,10,-0.0010453,-2.39434,-0.0546891,-1.07883,167.58,0.25917,
2,0,0,1,0,54388.9,0.249104,0.248759,-5.52439,28,0.016346,10,-0.00137424,-2.25772,-0.102567,-0.575236,123.248,0.248759,
2,0,0,1,0,54388.9,0.238706,0.238344,-6.66292,28,0.0161869,10,-0.00158807,-2.17634,-0.156216,-0.377682,98.0422,0.238344,
2,0,0,1,0,54389,0.22831,0.227959,-7.57273,28,0.0160012,10,-0.00172627,-2.12075,-0.215575,-0.273686,80.9305,0.227959,
2,0,0,1,0,54389,0.2179,0.217533,-8.36572,28,0.0157937,10,-0.00181982,-2.0775,-0.281824,-0.20935,68.1594,0.217533,
2,0,0,1,0,54389,0.207504,0.207195,-9.01949,28,0.0155675,10,-0.0018688,-2.04482,-0.348211,-0.169437,59.6508,0.207195,
2,0,0,1,0,54389,0.197106,0.196735,-9.62835,28,0.0153248,10,-0.00189424,-2.01645,-0.390192,-0.151207,56.893,0.196735,
2,0,0,1,0,54389.1,0.18671,0.186369,-10.2056,28,0.0150668,10,-0.00190201,-1.99116,-0.419363,-0.14069,56.0309,0.186369,
2,0,0,1,0,54389.1,0.1763,0.175965,-10.7877,28,0.0147939,10,-0.00189826,-1.96707,-0.440959,-0.133799,56.3185,0.175965,
2,0,0,1,0,54389.1,0.165905,0.165523,-11.4058,28,0.0145055,10,-0.00188792,-1.94287,-0.415659,-0.141943,63.1939,0.165523,
2,0,0,1,0,54389.2,0.155506,0.155147,-12.1343,28,0.0141998,10,-0.00188261,-1.91598,-0.342143,-0.172443,81.7354,0.155147,
2,0,0,1,0,54389.2,0.145105,0.144736,-13.105,28,0.0138724,10,-0.00189677,-1.88256,-0.264652,-0.222934,114.143,0.144736,
2,0,0,1,0,54389.2,0.134701,0.13437,-14.5288,28,0.0135142,10,-0.00195222,-1.83777,-0.203445,-0.290004,164.668,0.13437,
2,0,0,1,0,54389.2,0.124305,0.123984,-16.5685,28,0.013111,10,-0.00205423,-1.78072,-0.17208,-0.342863,221.996,0.123984,
2,0,0,1,0,54389.3,0.113906,0.113591,-19.0338,28,0.0126483,10,-0.00216207,-1.72047,-0.180189,-0.327434,243.219,0.113591,
2,0,0,1,0,54389.3,0.103505,0.103185,-21.503,28,0.0121206,10,-0.00221879,-1.6675,-0.21234,-0.277856,233.105,0.103185,
2,0,0,1,0,54389.3,0.0931008,0.0928218,-23.7868,28,0.0115307,10,-0.00220793,-1.62366,-0.274008,-0.215322,199.723,0.0928218,
2,0,0,1,0,54389.3,0.0827051,0.0824256,-25.6321,28,0.0108869,10,-0.00211275,-1.59121,-0.387617,-0.152212,152.06,0.0824256,
2,0,0,1,0,54389.4,0.0723065,0.0720368,-26.9676,28,0.0102021,10,-0.00194266,-1.56916,-0.603874,-0.0977025,102.684,0.0720368,
2,0,0,1,0,54389.4,0.0618997,0.0615908,-27.7724,28,0.00948934,10,-0.00171053,-1.55639,-1.20694,-0.0488841,52.9433,0.0615908,
2,0,0,1,0,54389.4,0.0515011,0.0511829,-28.1425,28,0.0087618,10,-0.00144042,-1.55064,-2.94668,-0.0200225,21.9728,0.0511829,
2,0,0,1,0,54389.4,0.0411053,0.0407326,-28.2172,28,0.00802868,10,-0.00114936,-1.54949,34.8567,0.00169265,-1.8635,0.0407326,
2,0,0,1,0,54389.5,0.0307068,0.0303597,-28.1099,28,0.00729595,10,-0.000853408,-1.55114,4.12249,0.0143117,-15.7057,0.0303597,
2,0,0,1,0,54389.5,0.0202999,0.0199465,-27.8955,28,0.00656762,10,-0.000556416,-1.55447,2.26419,0.0260578,-28.3521,0.0199465,
2,0,0,1,0,54389.5,0.00990136,0.00952373,-27.5196,28,0.00584701,10,-0.00026209,-1.56036,1.44158,0.0409272,-43.9312,0.00952373,
2,0,0,1,0,54389.5,-0.000494411,-0.000882037,-27.003,28,0.00513801,10,2.38177e-05,-1.56859,1.06134,0.0555901,-58.5161,-0.000882037,
2,0,0,1,0,54389.6,-0.010893,-0.0112592,-26.2998,28,0.00444501,10,0.000296115,-1.58005,0.841011,0.0701536,-72.0019,-0.01125918,
2,0,0,1,0,54389.6,-0.0212998,-0.0216618,-25.5645,28,0.00377084,10,0.000553773,-1.59236,0.852332,0.0692218,-69.0686,-0.0216618,
2,0,0,1,0,54389.6,-0.0316984,-0.032128,-24.9067,28,0.00311518,10,0.000800202,-1.60368,0.991648,0.0594969,-57.8149,-0.032128,
2,0,0,1,0,54389.6,-0.0420942,-0.0425391,-24.3714,28,0.00247504,10,0.00103673,-1.61312,1.31146,0.0449882,-42.8256,-0.0425391,
2,0,0,1,0,54389.7,-0.0524927,-0.0528547,-24.0391,28,0.00184593,10,0.00127058,-1.61908,2.47068,0.02388,-22.4232,-0.0528547,
2,0,0,1,0,54389.7,-0.0628996,-0.0633071,-23.903,28,0.00122315,10,0.00151323,-1.62155,8.20731,0.00718872,-6.70356,-0.0633071,
2,0,0,1,0,54389.7,-0.0732982,-0.0736641,-23.8898,28,0.000602266,10,0.00175982,-1.62179,-7.38291,-0.00799143,7.45353,-0.0736641,
2,0,0,1,0,54389.8,-0.0836939,-0.0841357,-24.0357,28,-2.05745e-05,10,0.00202226,-1.61914,-2.68333,-0.0219876,20.6354,-0.0841357,
2,0,0,1,0,54389.8,-0.0940925,-0.0944587,-24.3128,28,-0.000648945,10,0.00229656,-1.61416,-1.74456,-0.0338194,32.0946,-0.0944587,
2,0,0,1,1,54389.8,-0.0978574,-0.0982974,-20.4409,28,-0.00113482,10,0.00200928,-1.6895,-0.0308603,-1.91184,1509.14,-0.0982974,
2,0,0,1,1,54389.8,-0.0874588,-0.0879149,-10.2106,28,-0.00151795,10,0.000897662,-1.99095,-0.0316466,-1.86434,740.444,-0.0879149,
2,0,0,1,1,54389.8,-0.077052,-0.077472,-3.74714,28,-0.00169414,10,0.000290299,-2.4263,-0.0155032,-3.80566,529.306,-0.077472,
2,1,0,1,1,54389.9,-0.0666562,-0.0670726,1.05698,28,-0.00172588,10,-7.08946e-05,-2.97593,0.00705641,8.3612,403.698,-0.0670726,
2,1,0,1,1,54389.9,-0.0562576,-0.0566828,4.79915,28,-0.0016474,10,-0.000272029,-2.31884,0.0336703,1.75229,321.904,-0.0566828,
2,1,0,1,1,54389.9,-0.0458563,-0.0463024,7.8156,28,-0.00148156,10,-0.000361881,-2.10704,0.0693433,0.850839,257.411,-0.0463024,
2,1,0,1,1,54390,-0.0354522,-0.0358437,10.2315,28,-0.00124566,10,-0.000366734,-1.99006,0.11629,0.507351,201.543,-0.0358437,
2,1,0,1,1,54390,-0.0250564,-0.0255036,12.13,28,-0.000953898,10,-0.000309358,-1.91614,0.172105,0.342813,162.114,-0.0255036,
2,1,0,1,1,54390,-0.0146579,-0.0150427,13.6488,28,-0.000617821,10,-0.000205315,-1.8649,0.239991,0.245842,130.754,-0.0150427,
2,1,0,1,1,54390,-0.00425653,-0.00464224,14.8411,28,-0.000246781,10,-6.8896e-05,-1.82853,0.34266,0.172182,99.5994,-0.00464224,
2,1,0,0,1,54390,-7.54729e-05,-0.000573459,15.2271,28,-8.88366e-05,10,-8.73209e-06,-1.81738, , , ,-0.000573459,