File: Figure_codes/Fig_3-5/rawdata_trumpetplot_data/after 10th/20221101_1-115_003_TrumpetPlot_ParaChange_from10_every3_08_CV_C01_22.csv
mode,ox/red,error,control changes,counter inc.,time/s,control/V,Ewe/V,<I>/mA,cycle number,(Q-Qo)/C,I Range,P/W,log(|I|),Tafel slope mV/dec,alpha_eff,dI/d(E-IR),E-IR/V,
2,0,0,0,0,44517.9,2.44065e-05,-0.000229887,-3.98428,23,0.0000000E+000,10,9.15933e-07,-2.39965, , , ,-0.000229887,
2,1,0,1,0,44518,0.0072942,0.00695683,0.782924,23,-8.22955e-05,10,5.44667e-06,-3.10628,0.00360134,16.3828,300.672,0.00695683,
2,1,0,1,0,44518.1,0.0147816,0.0144377,2.17556,23,6.78061e-05,10,3.14101e-05,-2.66243,0.0418589,1.4095,118.33,0.0144377,
2,1,0,1,0,44518.2,0.0222707,0.0219417,2.84596,23,0.000306784,10,6.24453e-05,-2.54577,0.0955141,0.61771,68.1231,0.0219417,
2,1,0,1,0,44518.3,0.0297581,0.0294294,3.26297,23,0.00059437,10,9.60273e-05,-2.48639,0.145927,0.404312,51.4393,0.0294294,
2,1,0,1,0,44518.4,0.0372544,0.0369328,3.61683,23,0.000918197,10,0.00013358,-2.44167,0.191436,0.308196,43.4782,0.0369328,
2,1,0,1,0,44518.4,0.0447507,0.0444102,3.94776,23,0.00127378,10,0.000175321,-2.40365,0.216391,0.272655,41.9792,0.0444102,
2,1,0,1,0,44518.5,0.0522381,0.0519548,4.25196,23,0.001659,10,0.00022091,-2.37141,0.221897,0.265889,44.1831,0.0519548,
2,1,0,1,0,44518.6,0.0597273,0.0594367,4.55453,23,0.00207292,10,0.000270706,-2.34156,0.274516,0.214924,38.205,0.0594367,
2,1,0,1,0,44518.7,0.0672147,0.0669162,4.84793,23,0.00251385,10,0.000324405,-2.31444,0.306129,0.192729,36.3676,0.0669162,
2,1,0,1,0,44518.8,0.0747038,0.0743981,5.09072,23,0.00297998,10,0.00037874,-2.29322,0.343351,0.171836,34.1512,0.0743981,
2,1,0,1,0,44518.9,0.0822055,0.0818609,5.30833,23,0.00346958,10,0.000434545,-2.27504,0.472261,0.124931,25.9058,0.0818609,
2,1,0,1,0,44519,0.0896946,0.0893922,5.51668,23,0.00397767,10,0.000493148,-2.25832,0.515245,0.114509,24.6437,0.0893922,
2,1,0,1,0,44519.1,0.097182,0.096852,5.73267,23,0.00450484,10,0.00055522,-2.24164,0.358297,0.164668,36.8562,0.09685196,
2,1,0,1,0,44519.2,0.104671,0.104372,6.04477,23,0.00505599,10,0.000630905,-2.21862,0.269277,0.219105,51.6816,0.104372,
2,1,0,1,0,44519.3,0.112159,0.111882,6.47323,23,0.0056419,10,0.00072424,-2.18888,0.25007,0.235934,59.5256,0.111882,
2,1,0,1,0,44519.4,0.119655,0.119287,6.93896,23,0.00627077,10,0.000827727,-2.15871,0.258896,0.227891,61.6406,0.119287,
2,1,0,1,0,44519.5,0.127149,0.126814,7.31569,23,0.00694103,10,0.000927734,-2.13574,0.380654,0.154996,44.29,0.126814,
2,1,0,1,0,44519.6,0.134639,0.134349,7.59463,23,0.00764132,10,0.00102033,-2.11949,0.712046,0.0828598,24.5535,0.134349,
2,1,0,1,0,44519.7,0.142126,0.141825,7.73981,23,0.00836116,10,0.0010977,-2.11127,1.58634,0.0371926,11.218,0.141825,
2,1,0,1,0,44519.8,0.149615,0.149328,7.60792,23,0.00908392,10,0.00113608,-2.11873,-0.355741,-0.165851,-49.1324,0.149328,
2,1,0,1,0,44519.9,0.157103,0.156803,6.94276,23,0.0097704,10,0.00108865,-2.15847,-0.123938,-0.476043,-128.58,0.156803,
2,1,0,1,0,44519.9,0.164606,0.164302,5.87933,23,0.0103735,10,0.000965986,-2.23067,-0.0939222,-0.62818,-143.998,0.1643021,
2,1,0,1,0,44520,0.172095,0.171822,4.92952,23,0.0108781,10,0.000847001,-2.3072,-0.110797,-0.532507,-102.753,0.171822,
2,1,0,1,0,44520.1,0.179582,0.179273,4.30378,23,0.0113094,10,0.000771552,-2.36615,-0.148093,-0.398399,-67.1276,0.179273,
2,1,0,1,0,44520.2,0.18707,0.186742,3.91292,23,0.0116937,10,0.000730706,-2.4075,-0.2218,-0.266005,-40.6644,0.186742,
2,1,0,1,0,44520.3,0.194559,0.194249,3.65568,23,0.0120481,10,0.000710113,-2.43703,-0.31431,-0.187713,-26.8126,0.194249,
2,1,0,1,0,44520.4,0.202062,0.201779,3.48846,23,0.0123837,10,0.000703897,-2.45737,-0.379893,-0.155307,-21.1242,0.201779,
2,1,0,1,0,44520.5,0.20955,0.209215,3.37663,23,0.0127055,10,0.000706443,-2.47152,-0.581873,-0.101397,-13.3404,0.209215,
2,1,0,1,0,44520.6,0.217039,0.216725,3.28146,23,0.013018,10,0.000711174,-2.48393,-0.972618,-0.060661,-7.78518,0.216725,
2,1,0,1,0,44520.7,0.224526,0.224211,3.22196,23,0.0133237,10,0.000722401,-2.49188,-0.791822,-0.0745117,-9.38511,0.224211,
2,1,0,1,0,44520.8,0.232016,0.231724,3.17515,23,0.0136241,10,0.000735759,-2.49824,-1.66931,-0.035344,-4.37802,0.231724,
2,1,0,1,0,44520.9,0.23951,0.239208,3.13676,23,0.0139208,10,0.00075034,-2.50352,-3.6759,-0.0160505,-1.96452,0.239208,
2,1,0,1,0,44521,0.247006,0.246749,3.10479,23,0.0142143,10,0.000766105,-2.50797,-1.11359,-0.0529817,-6.41702,0.246749,
2,1,0,1,0,44521.1,0.254494,0.25417,3.07936,23,0.0145046,10,0.000782679,-2.51154,-1.50829,-0.0391172,-4.69668,0.25417,
2,1,0,1,0,44521.2,0.261983,0.261672,3.04667,23,0.0147924,10,0.000797229,-2.51617,-4.51109,-0.0130789,-1.55609,0.261672,
2,1,0,1,0,44521.3,0.26947,0.269175,3.02475,23,0.0150779,10,0.000814187,-2.51931,-1.64607,-0.0358429,-4.23548,0.269175,
2,1,0,1,0,44521.3,0.276959,0.276625,3.00987,23,0.0153612,10,0.000832606,-2.52145,-1.63221,-0.0361474,-4.23742,0.276625,
2,1,0,1,0,44521.4,0.284461,0.284141,2.97602,23,0.0156429,10,0.000845612,-2.52636,-14.79,-0.00398917,-0.463775,0.284141,
2,1,0,1,0,44521.5,0.29195,0.291632,2.95444,23,0.0159216,10,0.00086161,-2.52952,-1.71645,-0.0343732,-3.96109,0.291632,
2,1,0,1,0,44521.6,0.299438,0.299179,2.92827,23,0.016198,10,0.000876074,-2.53339,-0.0309589,-1.90575,-200.937,0.299179,
2,0,0,1,0,44521.7,0.29424,0.293919,-0.262309,23,0.0162745,10,-7.70975e-05,-3.58119,-0.0106804,-5.52413,207.928,0.293919,
2,0,0,1,0,44521.8,0.286753,0.286446,-1.0641,23,0.0162037,10,-0.000304807,-2.97302,-0.0413584,-1.42655,58.3217,0.286446,
2,0,0,1,0,44521.9,0.279264,0.278905,-1.38281,23,0.0160867,10,-0.000385672,-2.85924,-0.0975077,-0.605081,32.504,0.278905,
2,0,0,1,0,44522,0.271776,0.271481,-1.56974,23,0.0159468,10,-0.000426154,-2.80417,-0.14385,-0.410149,25.2211,0.271481,
2,0,0,1,0,44522.1,0.26428,0.26398,-1.72563,23,0.0157907,10,-0.000455532,-2.76305,-0.265263,-0.222421,14.96,0.26398,
2,0,0,1,0,44522.2,0.256786,0.256466,-1.85021,23,0.0156223,10,-0.000474517,-2.73278,-0.277704,-0.212456,15.3002,0.256466,
2,0,0,1,0,44522.3,0.249296,0.248963,-1.94647,23,0.0154436,10,-0.000484599,-2.71075,-0.334491,-0.176387,13.43,0.248963,
2,0,0,1,0,44522.4,0.241809,0.241486,-2.03913,23,0.0152557,10,-0.000492422,-2.69055,-0.465986,-0.126613,10.0875,0.241486,
2,0,0,1,0,44522.5,0.23432,0.233982,-2.12488,23,0.0150596,10,-0.000497184,-2.67267,-0.401504,-0.146947,12.2013,0.2339824,
2,0,0,1,0,44522.6,0.226833,0.226478,-2.2053,23,0.0148557,10,-0.000499452,-2.65653,-0.372882,-0.158227,13.6247,0.226478,
2,0,0,1,0,44522.6,0.219329,0.219002,-2.29016,23,0.0146439,10,-0.00050155,-2.64013,-0.575526,-0.102515,9.13997,0.219002,
2,0,0,1,0,44522.7,0.21184,0.211503,-2.36974,23,0.0144254,10,-0.000501208,-2.6253,-0.538294,-0.109606,10.1017,0.211503,
2,0,0,1,0,44522.8,0.204353,0.204024,-2.4397,23,0.0141996,10,-0.000497758,-2.61266,-0.57358,-0.102863,9.80247,0.204024,
2,0,0,1,0,44522.9,0.196863,0.196517,-2.51492,23,0.0139666,10,-0.000494225,-2.59948,-0.666703,-0.0884952,8.69927,0.196517,
2,0,0,1,0,44523,0.189376,0.189011,-2.60634,23,0.0137259,10,-0.000492625,-2.58397,-0.495757,-0.11901,12.1024,0.189011,
2,0,0,1,0,44523.1,0.18188,0.181526,-2.69908,23,0.0134766,10,-0.000489953,-2.56878,-0.381065,-0.154829,16.3102,0.181526,
2,0,0,1,0,44523.2,0.174385,0.174043,-2.80705,23,0.0132177,10,-0.000488548,-2.55175,-0.469886,-0.125562,13.7699,0.1740431,
2,0,0,1,0,44523.3,0.166896,0.16656,-2.95435,23,0.0129476,10,-0.000492076,-2.52954,-0.325835,-0.181073,20.8017,0.16656,
2,0,0,1,0,44523.4,0.159409,0.1591,-3.12896,23,0.0126628,10,-0.000497818,-2.5046,-0.249099,-0.236854,28.9381,0.1591,
2,0,0,1,0,44523.5,0.151919,0.151611,-3.38806,23,0.0123575,10,-0.000513667,-2.47005,-0.19814,-0.297769,39.518,0.151611,
2,0,0,1,0,44523.6,0.144425,0.144117,-3.8101,23,0.0120206,10,-0.000549101,-2.41906,-0.124924,-0.472288,70.4075,0.1441173,
2,0,0,1,0,44523.7,0.136929,0.136605,-4.46814,23,0.0116334,10,-0.000610372,-2.34987,-0.0986126,-0.598301,104.505,0.136605,
2,0,0,1,0,44523.8,0.129441,0.129108,-5.30967,23,0.0111753,10,-0.000685519,-2.27493,-0.105068,-0.561542,116.399,0.129108,
2,0,0,1,0,44523.9,0.121952,0.121664,-6.17214,23,0.0106363,10,-0.000750929,-2.20956,-0.136203,-0.433177,104.025,0.121664,
2,0,0,1,0,44524,0.114465,0.114138,-6.88685,23,0.0100232,10,-0.000786053,-2.16198,-0.186692,-0.316028,84.8637,0.114138,
2,0,0,1,0,44524,0.106976,0.106642,-7.41568,23,0.00935079,10,-0.000790821,-2.12985,-0.324633,-0.181744,52.5666,0.106642,
2,0,0,1,0,44524.1,0.0994721,0.0991196,-7.71271,23,0.00863815,10,-0.00076448,-2.11279,-0.837986,-0.0704069,21.1649,0.0991196,
2,0,0,1,0,44524.2,0.0919847,0.0916346,-7.72741,23,0.00791271,10,-0.000708098,-2.11197,1.72739,0.0341556,-10.2948,0.0916346,
2,0,0,1,0,44524.3,0.0844974,0.0841241,-7.54515,23,0.00719579,10,-0.000634729,-2.12233,0.538509,0.109562,-32.2416,0.0841241,
2,0,0,1,0,44524.4,0.0770082,0.0766549,-7.31363,23,0.00649991,10,-0.000560625,-2.13587,0.531007,0.11111,-31.6894,0.0766549,
2,0,0,1,0,44524.5,0.0695208,0.0691825,-7.11346,23,0.00582456,10,-0.000492127,-2.14792,0.836819,0.0705051,-19.5769,0.0691825,
2,0,0,1,0,44524.6,0.0620245,0.0617111,-6.95253,23,0.00516453,10,-0.000429048,-2.15786,0.726111,0.0812548,-22.0753,0.0617111,
2,0,0,1,0,44524.7,0.0545282,0.0542088,-6.80357,23,0.00451888,10,-0.000368814,-2.16726,0.789481,0.0747327,-19.8349,0.0542088,
2,0,0,1,0,44524.8,0.0470408,0.046713,-6.64001,23,0.00388866,10,-0.000310174,-2.17783,0.755907,0.078052,-20.2129,0.046713,
2,0,0,1,0,44524.9,0.0395516,0.0391922,-6.45299,23,0.00327485,10,-0.000252907,-2.19024,0.54485,0.108287,-27.2666,0.0391922,
2,0,0,1,0,44525,0.0320643,0.031724,-6.24148,23,0.00267947,10,-0.000198005,-2.20471,0.449416,0.131281,-31.9683,0.031724,
2,0,0,1,0,44525.1,0.0245751,0.0242472,-6.00425,23,0.00210531,10,-0.000145586,-2.22154,0.452949,0.130258,-30.517,0.02424721,
2,0,0,1,0,44525.2,0.0170735,0.0167139,-5.75897,23,0.00155251,10,-9.62546e-05,-2.23966,0.471275,0.125192,-28.1944,0.0167139,
2,0,0,1,0,44525.3,0.00958429,0.0092105,-5.55827,23,0.00102176,10,-5.11945e-05,-2.25506,0.514683,0.114634,-24.8753,0.0092105,
2,0,0,1,0,44525.4,0.0020969,0.00165942,-5.45235,23,0.000508133,10,-9.04772e-06,-2.26342,1.71229,0.0344567,-7.28544,0.00165942,
2,0,0,1,0,44525.4,0.000199195,-0.000132542,-5.40358,23,0.000379523,10,7.162e-07,-2.26732, , , ,-0.000132542,