File: Figure_codes/Fig_3-5/rawdata_trumpetplot_data/after 10th/20221101_1-115_003_TrumpetPlot_ParaChange_from10_every3_08_CV_C01_8.csv
mode,ox/red,error,control changes,counter inc.,time/s,control/V,Ewe/V,<I>/mA,cycle number,(Q-Qo)/C,I Range,P/W,log(|I|),Tafel slope mV/dec,alpha_eff,dI/d(E-IR),E-IR/V,
2,0,0,0,0,16936.1,2.44065e-05,-0.000229887,-4.03961,9,0.0000000E+000,10,9.28654e-07,-2.39366, , , ,-0.000229887,
2,1,0,1,0,16936.2,0.0072942,0.00699126,1.72169,9,-1.41403e-05,10,1.20368e-05,-2.76405,0.0127535,4.62619,280.055,0.00699126,
2,1,0,1,0,16936.2,0.0147816,0.0144772,2.88747,9,0.000212787,10,4.18026e-05,-2.53948,0.0697664,0.845679,94.4435,0.0144772,
2,1,0,1,0,16936.3,0.0222707,0.0220191,3.3951,9,0.000510112,10,7.4757e-05,-2.46915,0.141252,0.417694,55.3622,0.0220191,
2,1,0,1,0,16936.4,0.0297581,0.0294492,3.78237,9,0.000847507,10,0.000111388,-2.42224,0.186001,0.317203,46.7492,0.0294492,
2,1,0,1,0,16936.5,0.0372544,0.0369282,4.13788,9,0.0012195,10,0.000152804,-2.38322,0.202349,0.291576,47.0267,0.0369282,
2,1,0,1,0,16936.6,0.0447507,0.044443,4.47027,9,0.00162419,10,0.000198672,-2.34967,0.222618,0.265028,46.3074,0.044443,
2,1,0,1,0,16936.7,0.0522381,0.0519279,4.8076,9,0.00206024,10,0.000249649,-2.31807,0.260236,0.226718,42.5631,0.0519279,
2,1,0,1,0,16936.8,0.0597273,0.0594074,5.1298,9,0.00252682,10,0.000304748,-2.2899,0.269637,0.218813,43.7732,0.0594074,
2,1,0,1,0,16936.9,0.0672147,0.0669391,5.42844,9,0.00302198,10,0.000363375,-2.26533,0.313677,0.188091,39.7873,0.0669391,
2,1,0,1,0,16937,0.0747038,0.074423,5.70085,9,0.00354361,10,0.000424275,-2.24406,0.429057,0.137511,30.5405,0.074423,
2,1,0,1,0,16937.1,0.0822055,0.0818821,5.92989,9,0.00408997,10,0.000485552,-2.22695,0.45174,0.130606,30.2028,0.0818821,
2,1,0,1,0,16937.2,0.0896946,0.0893598,6.14659,9,0.00465615,10,0.000549258,-2.21137,0.424821,0.138882,33.3706,0.0893598,
2,1,0,1,0,16937.3,0.097182,0.0968295,6.43186,9,0.00524591,10,0.000622794,-2.19166,0.343201,0.171911,43.1924,0.0968295,
2,1,0,1,0,16937.4,0.104671,0.104326,6.87441,9,0.00586784,10,0.000717182,-2.16276,0.235061,0.250999,67.221,0.104326,
2,1,0,1,0,16937.5,0.112159,0.111851,7.40596,9,0.00653633,10,0.000828365,-2.13042,0.216897,0.272018,78.6246,0.111851,
2,1,0,1,0,16937.6,0.119655,0.119319,7.95549,9,0.00725795,10,0.000949243,-2.09933,0.296161,0.199216,61.7878,0.119319,
2,1,0,1,0,16937.7,0.127149,0.126804,8.36468,9,0.00802488,10,0.00106068,-2.07755,0.450755,0.130891,42.7112,0.126804,
2,1,0,1,0,16937.7,0.134639,0.134314,8.66167,9,0.0088236,10,0.00116339,-2.0624,0.565198,0.104388,35.3159,0.134314,
2,1,0,1,0,16937.8,0.142126,0.141866,8.84051,9,0.00964585,10,0.00125417,-2.05352,3.30673,0.0178424,6.14923,0.141866,
2,1,0,1,0,16937.9,0.149615,0.149288,8.59082,9,0.0104682,10,0.00128251,-2.06597,-0.222107,-0.265638,-88.6447,0.149288,
2,1,0,1,0,16938,0.157103,0.156791,7.48347,9,0.0112275,10,0.00117334,-2.1259,-0.0901651,-0.654355,-190.436,0.156791,
2,1,0,1,0,16938.1,0.164606,0.164284,5.98148,9,0.0118593,10,0.00098266,-2.22319,-0.0747479,-0.78932,-184.658,0.164284,
2,1,0,1,0,16938.2,0.172095,0.171762,4.91387,9,0.0123657,10,0.000844016,-2.30858,-0.105756,-0.557889,-107.244,0.171762,
2,1,0,1,0,16938.3,0.179582,0.179282,4.30547,9,0.0127951,10,0.000771892,-2.36598,-0.170577,-0.345885,-58.2042,0.179282,
2,1,0,1,0,16938.4,0.18707,0.186735,3.9372,9,0.0131808,10,0.000735215,-2.40481,-0.248689,-0.237244,-36.5639,0.186735,
2,1,0,1,0,16938.5,0.194559,0.194298,3.72525,9,0.0135397,10,0.00072381,-2.42884,-0.350172,-0.168488,-24.455,0.194298,
2,1,0,1,0,16938.6,0.202062,0.201768,3.56682,9,0.0138818,10,0.00071967,-2.44772,-0.524554,-0.112476,-15.6224,0.201768,
2,1,0,1,0,16938.7,0.20955,0.209283,3.45224,9,0.0142113,10,0.000722495,-2.4619,-0.504337,-0.116985,-15.798,0.209283,
2,1,0,1,0,16938.8,0.217039,0.216773,3.3726,9,0.014532,10,0.000731087,-2.47204,-0.687787,-0.0857824,-11.3034,0.216773,
2,1,0,1,0,16938.9,0.224526,0.224237,3.319,9,0.0148463,10,0.000744241,-2.47899,-1.15889,-0.0509107,-6.59075,0.224237,
2,1,0,1,0,16939,0.232016,0.231694,3.26863,9,0.0151555,10,0.000757324,-2.48563,-2.01896,-0.029223,-3.72654,0.231694,
2,1,0,1,0,16939.1,0.23951,0.239155,3.22983,9,0.015461,10,0.000772429,-2.49082,-1.47487,-0.0400034,-5.04799,0.239155,
2,1,0,1,0,16939.1,0.247006,0.246686,3.19966,9,0.0157631,10,0.000789313,-2.4949,-1.43965,-0.0409821,-5.10357,0.246686,
2,1,0,1,0,16939.2,0.254494,0.25422,3.16013,9,0.0160618,10,0.000803369,-2.5003,-2.51029,-0.0235032,-2.90084,0.25422,
2,1,0,1,0,16939.3,0.261983,0.26168,3.13623,9,0.0163578,10,0.00082069,-2.50359,-1.01721,-0.0580015,-7.09542,0.26168,
2,1,0,1,0,16939.4,0.26947,0.269164,3.11247,9,0.0166511,10,0.000837764,-2.50689,-14.0194,-0.00420847,-0.510799,0.269164,
2,1,0,1,0,16939.5,0.276959,0.276635,3.07836,9,0.016942,10,0.000851581,-2.51168,-3.67155,-0.0160695,-1.93328,0.276635,
2,1,0,1,0,16939.6,0.284461,0.284176,3.05009,9,0.0172307,10,0.000866764,-2.51569,-1.6626,-0.0354865,-4.22527,0.2841762,
2,1,0,1,0,16939.7,0.29195,0.291645,3.0255,9,0.017516,10,0.000882372,-2.5192,-1.77575,-0.0332253,-3.91841,0.2916452,
2,1,0,1,0,16939.8,0.299438,0.2991,2.98329,9,0.0177986,10,0.000892301,-2.5253,-0.0230427,-2.56046,-267.692,0.2991,
2,0,0,1,0,16939.9,0.29424,0.29393,-0.765609,9,0.0178393,10,-0.000225035,-3.11599,-0.00903044,-6.53346,157.101,0.29393,
2,0,0,1,0,16940,0.286753,0.286433,-1.30202,9,0.0177361,10,-0.000372942,-2.88538,-0.0713709,-0.826668,41.8777,0.286433,
2,0,0,1,0,16940.1,0.279264,0.278939,-1.53341,9,0.0176014,10,-0.000427729,-2.81434,-0.141438,-0.417143,25.0368,0.278939,
2,0,0,1,0,16940.2,0.271776,0.271447,-1.7036,9,0.0174486,10,-0.000462436,-2.76863,-0.194056,-0.304036,20.1764,0.271447,
2,0,0,1,0,16940.3,0.26428,0.263929,-1.84032,9,0.0172817,10,-0.000485712,-2.73511,-0.217442,-0.271337,19.4163,0.263929,
2,0,0,1,0,16940.4,0.256786,0.256483,-1.94611,9,0.0171033,10,-0.000499144,-2.71083,-0.316025,-0.186694,14.1601,0.256483,
2,0,0,1,0,16940.4,0.249296,0.248995,-2.05397,9,0.0169152,10,-0.000511427,-2.68741,-0.529817,-0.111359,8.90435,0.2489949,
2,0,0,1,0,16940.5,0.241809,0.241518,-2.13953,9,0.0167181,10,-0.000516734,-2.66968,-0.419286,-0.140715,11.7594,0.241518,
2,0,0,1,0,16940.6,0.23432,0.234007,-2.22245,9,0.0165128,10,-0.000520069,-2.65317,-0.418643,-0.140932,12.2596,0.234007,
2,0,0,1,0,16940.7,0.226833,0.226527,-2.31188,9,0.0162996,10,-0.000523704,-2.63603,-0.453945,-0.129972,11.7078,0.226527,
2,0,0,1,0,16940.8,0.219329,0.218994,-2.39409,9,0.0160784,10,-0.000524293,-2.62086,-0.434838,-0.135683,12.6475,0.218994,
2,0,0,1,0,16940.9,0.21184,0.211521,-2.46628,9,0.01585,10,-0.000521671,-2.60796,-0.522542,-0.11291,10.8736,0.211521,
2,0,0,1,0,16941,0.204353,0.203972,-2.55896,9,0.0156138,10,-0.000521956,-2.59194,-0.971958,-0.0607022,6.05732,0.203972,
2,0,0,1,0,16941.1,0.196863,0.196547,-2.64827,9,0.0153696,10,-0.000520509,-2.57704,-0.424544,-0.138973,14.3521,0.196547,
2,0,0,1,0,16941.2,0.189376,0.18908,-2.73939,9,0.0151165,10,-0.000517963,-2.56235,-0.428798,-0.137594,14.7554,0.18908,
2,0,0,1,0,16941.3,0.18188,0.181598,-2.85938,9,0.0148532,10,-0.000519259,-2.54373,-0.382858,-0.154104,17.2039,0.1815985,
2,0,0,1,0,16941.4,0.174385,0.174026,-3.00667,9,0.0145777,10,-0.000523238,-2.52191,-0.30175,-0.195526,22.946,0.174026,
2,0,0,1,0,16941.5,0.166896,0.16658,-3.19882,9,0.014287,10,-0.000532859,-2.49501,-0.239719,-0.246122,30.7072,0.16658,
2,0,0,1,0,16941.6,0.159409,0.159049,-3.4668,9,0.0139749,10,-0.000551389,-2.46007,-0.190365,-0.30993,41.9723,0.159049,
2,0,0,1,0,16941.7,0.151919,0.15153,-3.88561,9,0.0136313,10,-0.000588785,-2.41054,-0.135043,-0.436898,66.3896,0.15153,
2,0,0,1,0,16941.8,0.144425,0.144153,-4.54494,9,0.0132378,10,-0.00065517,-2.34247,-0.0930123,-0.634325,112.877,0.144153,
2,0,0,1,0,16941.8,0.136929,0.136618,-5.5215,9,0.0127668,10,-0.000754337,-2.25794,-0.0858616,-0.687152,148.373,0.136618,
2,0,0,1,0,16941.9,0.129441,0.129147,-6.69603,9,0.0121944,10,-0.000864775,-2.17418,-0.0990178,-0.595853,155.347,0.129147,
2,0,0,1,0,16942,0.121952,0.121671,-7.74682,9,0.0115158,10,-0.00094256,-2.11088,-0.144445,-0.408461,123.178,0.121671,
2,0,0,1,0,16942.1,0.114465,0.114157,-8.49866,9,0.0107518,10,-0.000970178,-2.07065,-0.25628,-0.230217,76.31,0.114157,
2,0,0,1,0,16942.2,0.106976,0.106671,-8.92927,9,0.00993247,10,-0.000952494,-2.04918,-0.710836,-0.0830008,28.8759,0.106671,
2,0,0,1,0,16942.3,0.0994721,0.0991462,-8.99749,9,0.00908782,10,-0.000892067,-2.04588,2.04377,0.0288682,-10.1299,0.0991462,
2,0,0,1,0,16942.4,0.0919847,0.0916851,-8.7336,9,0.00825417,10,-0.000800741,-2.05881,0.396928,0.148641,-50.6802,0.0916851,
2,0,0,1,0,16942.5,0.0844974,0.0841357,-8.28349,9,0.00745585,10,-0.000696937,-2.08179,0.29508,0.199946,-64.603,0.0841357,
2,0,0,1,0,16942.6,0.0770082,0.0767043,-7.85192,9,0.00670128,10,-0.000602276,-2.10502,0.368273,0.160207,-49.0941,0.0767043,
2,0,0,1,0,16942.7,0.0695208,0.0692214,-7.54326,9,0.00598093,10,-0.000522155,-2.12244,0.528097,0.111722,-32.9329,0.06922137,
2,0,0,1,0,16942.8,0.0620245,0.0616854,-7.33369,9,0.00528315,10,-0.000452382,-2.13468,0.576696,0.102307,-29.3004,0.0616854,
2,0,0,1,0,16942.9,0.0545282,0.0541829,-7.14059,9,0.00460421,10,-0.000386898,-2.14627,0.788556,0.0748203,-20.8551,0.0541829,
2,0,0,1,0,16943,0.0470408,0.0467501,-6.93775,9,0.00394431,10,-0.000324341,-2.15878,0.583948,0.101036,-27.3382,0.0467501,
2,0,0,1,0,16943.1,0.0395517,0.0392348,-6.7246,9,0.00330411,10,-0.000263839,-2.17233,0.480386,0.122818,-32.199,0.0392348,
2,0,0,1,0,16943.2,0.0320643,0.0317216,-6.47159,9,0.00268575,10,-0.000205289,-2.18899,0.418629,0.140936,-35.5649,0.0317216,
2,0,0,1,0,16943.3,0.0245751,0.0242441,-6.17592,9,0.00209276,10,-0.00014973,-2.2093,0.356365,0.165561,-39.9378,0.0242441,
2,0,0,1,0,16943.3,0.0170735,0.0167268,-5.89205,9,0.00152583,10,-9.85553e-05,-2.22973,0.360102,0.163843,-37.7031,0.01672681,
2,0,0,1,0,16943.4,0.00958429,0.00927696,-5.65956,9,0.000984904,10,-5.25035e-05,-2.24722,0.483445,0.122041,-26.9381,0.009276961,
2,0,0,1,0,16943.5,0.0020969,0.001716,-5.53224,9,0.000463352,10,-9.49331e-06,-2.2571,1.68451,0.035025,-7.51167,0.001715997,
2,0,0,1,0,16943.6,0.000199195,-0.000166899,-5.48054,9,0.000332674,10,9.14696e-07,-2.26118, , , ,-0.000166899,