File: Figure_codes/Fig_3-5/rawdata_trumpetplot_data/after 10th/20221101_1-115_003_TrumpetPlot_ParaChange_from10_every3_08_CV_C01_0.csv
mode,ox/red,error,control changes,counter inc.,time/s,control/V,Ewe/V,<I>/mA,cycle number,(Q-Qo)/C,I Range,P/W,log(|I|),Tafel slope mV/dec,alpha_eff,dI/d(E-IR),E-IR/V,
2,0,0,1,0,1175.02,2.44065e-05,-0.000382585,-3.86725,1,0.0000000E+000,10,1.47955e-06,-2.4126, , , ,-0.000382585,
2,1,0,1,0,1175.11,0.0072942,0.00699637,2.28651,1,3.94406e-05,10,1.59973e-05,-2.64083,0.0216517,2.72496,227.928,0.00699637,
2,1,0,1,0,1175.2,0.0147816,0.0144612,3.081,1,0.0003008,10,4.4555e-05,-2.51131,0.120512,0.489578,58.7343,0.0144612,
2,1,0,1,0,1175.3,0.0222707,0.0219458,3.39996,1,0.000606791,10,7.46149e-05,-2.46853,0.242204,0.243596,32.3409,0.0219458,
2,1,0,1,0,1175.39,0.0297581,0.0294563,3.67775,1,0.000938506,10,0.000108333,-2.43442,0.244952,0.240863,34.4639,0.0294563,
2,1,0,1,0,1175.48,0.0372544,0.0369074,3.95633,1,0.00129635,10,0.000146018,-2.40271,0.21048,0.280312,43.2552,0.0369074,
2,1,0,1,0,1175.58,0.0447507,0.044415,4.28236,1,0.00168319,10,0.000190201,-2.36832,0.221143,0.266796,44.643,0.044415,
2,1,0,1,0,1175.67,0.0522381,0.0519092,4.65701,1,0.00210246,10,0.000241742,-2.33189,0.200141,0.294793,53.579,0.0519092,
2,1,0,1,0,1175.76,0.0597273,0.0594398,5.06247,1,0.00255836,10,0.000300912,-2.29564,0.201702,0.29251,57.7593,0.05943979,
2,1,0,1,0,1175.86,0.0672147,0.0669316,5.46188,1,0.00305217,10,0.000365572,-2.26266,0.233234,0.252964,53.9378,0.0669316,
2,1,0,1,0,1175.95,0.0747038,0.0744165,5.85304,1,0.00358326,10,0.000435563,-2.23262,0.29676,0.198814,45.3893,0.0744165,
2,1,0,1,0,1176.05,0.0822055,0.0818824,6.20446,1,0.00415021,10,0.000508036,-2.2073,0.303375,0.194479,47.0997,0.0818824,
2,1,0,1,0,1176.14,0.0896946,0.0893309,6.52721,1,0.00474788,10,0.000583081,-2.18527,0.348776,0.169163,43.1853,0.0893309,
2,1,0,1,0,1176.23,0.097182,0.0968809,6.89106,1,0.00537693,10,0.000667612,-2.16171,0.308949,0.19097,51.3366,0.0968809,
2,1,0,1,0,1176.33,0.104671,0.104357,7.33235,1,0.00604239,10,0.000765185,-2.13476,0.228548,0.258151,73.8971,0.104357,
2,1,0,1,0,1176.42,0.112159,0.111855,7.93025,1,0.00675694,10,0.000887035,-2.10071,0.204119,0.289047,89.5609,0.1118546,
2,1,0,1,0,1176.51,0.119655,0.119314,8.66432,1,0.00753523,10,0.00103377,-2.06227,0.213053,0.276926,93.574,0.119314,
2,1,0,1,0,1176.61,0.127149,0.126862,9.36011,1,0.00838134,10,0.00118745,-2.02872,0.242095,0.243706,89.009,0.126862,
2,1,0,1,0,1176.7,0.134639,0.13433,9.96435,1,0.00928822,10,0.00133851,-2.00155,0.304627,0.193679,75.3613,0.13433,
2,1,0,1,0,1176.79,0.142126,0.14178,10.4423,1,0.0102463,10,0.00148051,-1.9812,0.481393,0.122561,49.9156,0.14178,
2,1,0,1,0,1176.89,0.149615,0.14933,10.608,1,0.0112365,10,0.00158409,-1.97437,-1.45119,-0.0406563,-16.783,0.14933,
2,1,0,1,0,1176.98,0.157103,0.156814,9.98023,1,0.0122092,10,0.00156504,-2.00086,-0.145716,-0.404897,-156.968,0.156814,
2,1,0,1,0,1177.08,0.164606,0.164285,8.26827,1,0.0130729,10,0.00135835,-2.08259,-0.0689032,-0.856273,-275.609,0.164285,
2,1,0,1,0,1177.17,0.172095,0.171775,6.37471,1,0.0137548,10,0.00109501,-2.19554,-0.0717454,-0.822352,-205.431,0.171775,
2,1,0,1,0,1177.26,0.179582,0.179255,5.21068,1,0.0142926,10,0.00093404,-2.28311,-0.111955,-0.526998,-107.701,0.179255,
2,1,0,1,0,1177.36,0.18707,0.186791,4.5689,1,0.0147494,10,0.000853429,-2.34019,-0.151732,-0.388844,-69.497,0.186791,
2,1,0,1,0,1177.45,0.194559,0.194273,4.17611,1,0.0151581,10,0.000811306,-2.37923,-0.207711,-0.284049,-46.2283,0.194273,
2,1,0,1,0,1177.54,0.202062,0.201798,3.89285,1,0.0155363,10,0.000785568,-2.40973,-0.310791,-0.189838,-28.8365,0.201798,
2,1,0,1,0,1177.64,0.20955,0.209273,3.70248,1,0.0158924,10,0.000774829,-2.43151,-0.34106,-0.17299,-25.0037,0.209273,
2,1,0,1,0,1177.73,0.217039,0.216744,3.56937,1,0.0162333,10,0.00077364,-2.44741,-0.435247,-0.135555,-18.8698,0.216744,
2,1,0,1,0,1177.82,0.224526,0.224277,3.4671,1,0.0165634,10,0.00077759,-2.46003,-0.834661,-0.0706873,-9.57396,0.224277,
2,1,0,1,0,1177.92,0.232016,0.231735,3.38642,1,0.0168854,10,0.000784753,-2.47026,-0.980101,-0.0601979,-7.97417,0.231735,
2,1,0,1,0,1178.01,0.23951,0.239239,3.33501,1,0.0172016,10,0.000797864,-2.4769,-0.965098,-0.0611337,-7.95535,0.239239,
2,1,0,1,0,1178.11,0.247006,0.246705,3.28975,1,0.0175125,10,0.000811598,-2.48284,-1.88207,-0.0313484,-4.01274,0.246705,
2,1,0,1,0,1178.2,0.254494,0.254204,3.23473,1,0.0178189,10,0.000822281,-2.49016,-1.28333,-0.0459741,-5.80936,0.254204,
2,1,0,1,0,1178.29,0.261983,0.261691,3.19828,1,0.0181214,10,0.000836962,-2.49508,-1.02426,-0.0576027,-7.19872,0.261691,
2,1,0,1,0,1178.39,0.26947,0.269165,3.16871,1,0.0184203,10,0.000852906,-2.49912,-9.10517,-0.00647983,-0.799909,0.269165,
2,1,0,1,0,1178.48,0.276959,0.276648,3.12816,1,0.018716,10,0.000865401,-2.50471,-2.847,-0.0207235,-2.53115,0.276648,
2,1,0,1,0,1178.57,0.284461,0.28421,3.1004,1,0.0190091,10,0.000881165,-2.50858,-1.29898,-0.0454201,-5.4834,0.28421,
2,1,0,1,0,1178.67,0.29195,0.291645,3.06601,1,0.0192984,10,0.000894186,-2.51343,-1.19918,-0.0492001,-5.87071,0.2916452,
2,1,0,1,0,1178.76,0.299438,0.299155,3.02253,1,0.0195845,10,0.000904205,-2.51963,-0.019833,-2.97483,-308.969,0.299155,
2,0,0,1,0,1178.84,0.29424,0.293923,-1.03248,1,0.0196024,10,-0.000303468,-2.98612,-0.0188564,-3.12891,113.769,0.293923,
2,0,0,1,0,1178.93,0.286753,0.286478,-1.42022,1,0.0194836,10,-0.000406861,-2.84765,-0.093084,-0.633836,34.9052,0.286478,
2,0,0,1,0,1179.03,0.279264,0.278979,-1.6204,1,0.0193397,10,-0.000452057,-2.79038,-0.167941,-0.351313,22.2844,0.278979,
2,0,0,1,0,1179.12,0.271776,0.271495,-1.7796,1,0.0191792,10,-0.000483151,-2.74968,-0.196508,-0.300243,20.8209,0.271495,
2,0,0,1,0,1179.22,0.26428,0.263975,-1.91295,1,0.0190054,10,-0.000504969,-2.7183,-0.253924,-0.232353,17.2763,0.263975,
2,0,0,1,0,1179.31,0.256786,0.256477,-2.0139,1,0.0188205,10,-0.000516519,-2.69596,-0.360413,-0.163701,12.8747,0.256477,
2,0,0,1,0,1179.4,0.249296,0.248995,-2.11871,1,0.018626,10,-0.000527549,-2.67393,-0.511285,-0.115396,9.54085,0.248995,
2,0,0,1,0,1179.5,0.241809,0.241552,-2.20576,1,0.0184223,10,-0.000532806,-2.65644,-0.38706,-0.152431,13.1563,0.241552,
2,0,0,1,0,1179.59,0.23432,0.233976,-2.2982,1,0.0182101,10,-0.000537725,-2.63861,-0.433578,-0.136077,12.2573,0.233976,
2,0,0,1,0,1179.68,0.226833,0.226564,-2.39019,1,0.0179894,10,-0.000541531,-2.62157,-0.463908,-0.12718,11.8625,0.226564,
2,0,0,1,0,1179.78,0.219329,0.219035,-2.49651,1,0.0177597,10,-0.000546823,-2.60267,-0.363773,-0.162189,15.7196,0.219035,
2,0,0,1,0,1179.87,0.21184,0.211551,-2.5808,1,0.0175215,10,-0.000545972,-2.58824,-0.451688,-0.130621,13.1638,0.211551,
2,0,0,1,0,1179.96,0.204353,0.204042,-2.69278,1,0.0172734,10,-0.000549439,-2.5698,-0.677331,-0.0871066,9.17181,0.204042,
2,0,0,1,0,1180.06,0.196863,0.196533,-2.82288,1,0.0170146,10,-0.000554789,-2.54931,-0.337536,-0.174796,19.2777,0.196533,
2,0,0,1,0,1180.15,0.189376,0.189059,-2.97544,1,0.0167427,10,-0.000562534,-2.52645,-0.263917,-0.223555,25.9697,0.189059,
2,0,0,1,0,1180.25,0.18188,0.181578,-3.17644,1,0.0164542,10,-0.000576773,-2.49806,-0.238938,-0.246926,30.5928,0.181578,
2,0,0,1,0,1180.34,0.174385,0.174082,-3.45178,1,0.0161435,10,-0.000600892,-2.46196,-0.181259,-0.325502,43.8374,0.174082,
2,0,0,1,0,1180.43,0.166896,0.166565,-3.84589,1,0.0158025,10,-0.000640591,-2.415,-0.136646,-0.431774,64.7392,0.166565,
2,0,0,1,0,1180.53,0.159409,0.159154,-4.42657,1,0.0154163,10,-0.000704507,-2.35393,-0.107544,-0.548612,95.0078,0.159154,
2,0,0,1,0,1180.62,0.151919,0.151643,-5.31509,1,0.0149618,10,-0.000805998,-2.27449,-0.0868043,-0.679689,141.374,0.151643,
2,0,0,1,0,1180.71,0.144425,0.144171,-6.54588,1,0.0144074,10,-0.000943725,-2.18403,-0.0828826,-0.711851,181.9,0.144171,
2,0,0,1,0,1180.81,0.136929,0.136645,-7.98426,1,0.013726,10,-0.00109101,-2.09777,-0.0973053,-0.606339,188.666,0.136645,
2,0,0,1,0,1180.9,0.129441,0.129142,-9.30324,1,0.0129139,10,-0.00120143,-2.03137,-0.137818,-0.428101,155.09,0.129142,
2,0,0,1,0,1180.99,0.121952,0.121646,-10.246,1,0.011995,10,-0.00124639,-1.98944,-0.245301,-0.240521,95.8927,0.1216457,
2,0,0,1,0,1181.09,0.114465,0.114156,-10.6864,1,0.0110103,10,-0.00121992,-1.97117,-1.12288,-0.0525435,21.8974,0.114156,
2,0,0,1,0,1181.18,0.106976,0.10667,-10.6494,1,0.0100073,10,-0.00113597,-1.97268,0.631073,0.0934915,-38.7899,0.10667,
2,0,0,1,0,1181.28,0.0994721,0.0991288,-10.186,1,0.0090264,10,-0.00100972,-1.992,0.292525,0.201692,-80.1033,0.0991288,
2,0,0,1,0,1181.37,0.0919847,0.0916496,-9.43959,1,0.00810572,10,-0.000865135,-2.02505,0.218297,0.270274,-99.6677,0.0916496,
2,0,0,1,0,1181.46,0.0844973,0.0841654,-8.71378,1,0.00725584,10,-0.000733398,-2.05979,0.235068,0.250991,-85.4505,0.0841654,
2,0,0,1,0,1181.56,0.0770082,0.076694,-8.18439,1,0.00646602,10,-0.000627694,-2.08701,0.321094,0.183747,-58.6507,0.076694,
2,0,0,1,0,1181.65,0.0695208,0.0692258,-7.79836,1,0.00571819,10,-0.000539847,-2.108,0.408295,0.144503,-44.025,0.0692258,
2,0,0,1,0,1181.74,0.0620245,0.0616825,-7.49584,1,0.00500074,10,-0.000462362,-2.12518,0.382082,0.154417,-45.1528,0.0616825,
2,0,0,1,0,1181.84,0.0545282,0.054186,-7.17978,1,0.0043122,10,-0.000389043,-2.14389,0.420578,0.140283,-39.3173,0.054186,
2,0,0,1,0,1181.93,0.0470408,0.046714,-6.8194,1,0.00365539,10,-0.000318562,-2.16625,0.312321,0.188908,-50.2602,0.046714,
2,0,0,1,0,1182.02,0.0395517,0.0392682,-6.40269,1,0.00303548,10,-0.000251422,-2.19364,0.240921,0.244894,-61.1207,0.0392682,
2,0,0,1,0,1182.12,0.0320643,0.0317236,-5.97075,1,0.00245635,10,-0.000189414,-2.22397,0.244648,0.241163,-56.1318,0.0317236,
2,0,0,1,0,1182.21,0.0245751,0.0242469,-5.60275,1,0.00191464,10,-0.000135849,-2.2516,0.327728,0.180028,-39.4243,0.02424687,
2,0,0,1,0,1182.31,0.0170735,0.0167224,-5.35787,1,0.0014001,10,-8.95964e-05,-2.27101,0.474856,0.124248,-26.0539,0.0167224,
2,0,0,1,0,1182.4,0.00958429,0.00928037,-5.23786,1,0.000903741,10,-4.86092e-05,-2.28085,1.27824,0.046157,-9.43387,0.00928037,
2,0,0,1,0,1182.49,0.0020969,0.00171838,-5.25432,1,0.00041522,10,-9.02894e-06,-2.27948,-1.29238,-0.0456521,9.275,0.00171838,
2,0,0,1,0,1182.52,0.000199195,-0.000166899,-5.22422,1,0.000290837,10,8.71916e-07,-2.28198, , , ,-0.000166899,