File: Figure_codes/Fig_3-5/rawdata_trumpetplot_data/after 10th/20221101_1-115_003_TrumpetPlot_ParaChange_from10_every3_05_CV_C01_34.csv
mode,ox/red,error,control changes,counter inc.,time/s,control/V,Ewe/V,<I>/mA,cycle number,(Q-Qo)/C,I Range,P/W,log(|I|),Tafel slope mV/dec,alpha_eff,dI/d(E-IR),E-IR/V,
2,0,0,1,0,68104.5,2.44065e-05,-0.000325324,-0.738606,35,0.0000000E+000,10,2.40286e-07,-3.13159, , , ,-0.000325324,
2,1,0,1,0,68104.8,0.00729063,0.0069765,0.639932,35,0.000119401,10,4.46449e-06,-3.19387,0.0396766,1.48702,36.054,0.0069765,
2,1,0,1,0,68105.2,0.0147802,0.0144983,0.798048,35,0.000398752,10,1.15703e-05,-3.09797,0.117527,0.502014,15.5939,0.01449828,
2,1,0,1,0,68105.6,0.0222725,0.0219378,0.8926,35,0.000722439,10,1.95817e-05,-3.04934,0.176141,0.334959,11.6796,0.0219378,
2,1,0,1,0,68105.9,0.0297644,0.0294502,0.980499,35,0.0010793,10,2.88759e-05,-3.00855,0.199456,0.295804,11.3009,0.0294502,
2,1,0,1,0,68106.3,0.0372544,0.0369184,1.06556,35,0.00146849,10,3.93387e-05,-2.97242,0.221841,0.265956,11.067,0.0369184,
2,1,0,1,0,68106.7,0.0447449,0.0444095,1.15246,35,0.00189015,10,5.11803e-05,-2.93837,0.23095,0.255466,11.4994,0.0444095,
2,1,0,1,0,68107.1,0.0522363,0.0518827,1.2336,35,0.00234388,10,6.40027e-05,-2.90882,0.233923,0.25222,12.1588,0.0518827,
2,1,0,1,0,68107.4,0.0597291,0.0594222,1.31328,35,0.00282774,10,7.8038e-05,-2.88164,0.303225,0.194575,9.95935,0.05942224,
2,1,0,1,0,68107.8,0.0672182,0.066881,1.38227,35,0.00333841,10,9.24476e-05,-2.85941,0.372941,0.158202,8.51231,0.066881,
2,1,0,1,0,68108.2,0.0747092,0.0743676,1.43785,35,0.00387245,10,0.00010693,-2.84229,0.484511,0.121772,6.82799,0.0743676,
2,1,0,1,0,68108.6,0.0822001,0.0818745,1.48183,35,0.00442558,10,0.000121324,-2.8292,0.520591,0.113333,6.5654,0.0818745,
2,1,0,1,0,68108.9,0.0896911,0.0893638,1.53427,35,0.00499664,10,0.000137108,-2.8141,0.426905,0.138204,8.29439,0.0893638,
2,1,0,1,0,68109.3,0.097182,0.0968826,1.61702,35,0.00559186,10,0.000156661,-2.79128,0.240733,0.245085,15.4705,0.0968826,
2,1,0,1,0,68109.7,0.104673,0.104344,1.75434,35,0.00622688,10,0.000183055,-2.75589,0.189864,0.310749,21.2004,0.104344,
2,1,0,1,0,68110.1,0.112164,0.111853,1.89653,35,0.00691592,10,0.000212132,-2.72204,0.251329,0.234752,17.3382,0.1118528,
2,1,0,1,0,68110.4,0.119655,0.119366,2.00866,35,0.00765447,10,0.000239764,-2.69709,0.477784,0.123487,9.65579,0.119366,
2,1,0,1,0,68110.8,0.127146,0.126795,2.05463,35,0.00842317,10,0.000260516,-2.68727,1.0744,0.0549142,4.41003,0.126795,
2,1,0,1,0,68111.2,0.134637,0.13432,2.07244,35,0.0092045,10,0.000278369,-2.68352,-1.48115,-0.039834,-3.21925,0.13432,
2,1,0,1,0,68111.6,0.142128,0.141845,1.97376,35,0.00997407,10,0.000279967,-2.70471,-0.189377,-0.311548,-23.924,0.141845,
2,1,0,1,0,68111.9,0.149619,0.149317,1.69149,35,0.0106711,10,0.000252568,-2.77173,-0.086033,-0.685784,-45.1142,0.149317,
2,1,0,1,0,68112.3,0.157108,0.156787,1.37103,35,0.0112473,10,0.00021496,-2.86295,-0.0884785,-0.666829,-35.7599,0.156787,
2,1,0,1,0,68112.7,0.164601,0.164276,1.17091,35,0.0117248,10,0.000192353,-2.93147,-0.138282,-0.426664,-19.4916,0.164276,
2,1,0,1,0,68113.1,0.172092,0.171789,1.06372,35,0.0121468,10,0.000182735,-2.97317,-0.246845,-0.239016,-9.95682,0.171789,
2,1,0,1,0,68113.4,0.179582,0.179264,1.01142,35,0.0125406,10,0.000181312,-2.99507,-0.421619,-0.139937,-5.53057,0.179264,
2,1,0,1,0,68113.8,0.187073,0.186764,0.981863,35,0.0129189,10,0.000183377,-3.00795,-0.783257,-0.0753265,-2.88294,0.186764,
2,1,0,1,0,68114.2,0.194564,0.194233,0.961938,35,0.0132883,10,0.00018684,-3.01685,-1.16169,-0.0507881,-1.90596,0.194233,
2,1,0,1,0,68114.6,0.202057,0.201764,0.949917,35,0.0136518,10,0.000191659,-3.02231,-1.00756,-0.0585571,-2.1648,0.201764,
2,1,0,1,0,68114.9,0.209546,0.20925,0.938986,35,0.0140108,10,0.000196483,-3.02734,-1.34485,-0.0438709,-1.61004,0.20925,
2,1,0,1,0,68115.3,0.217037,0.216731,0.932166,35,0.0143662,10,0.00020203,-3.03051,-1.81692,-0.0324725,-1.18046,0.216731,
2,1,0,1,0,68115.7,0.224528,0.22429,0.924201,35,0.0147192,10,0.000207289,-3.03423,-2.63069,-0.0224276,-0.807557,0.22429,
2,1,0,1,0,68116,0.232019,0.231688,0.920646,35,0.0150697,10,0.000213303,-3.03591,-4.65476,-0.0126752,-0.453991,0.231688,
2,1,0,1,0,68116.4,0.23951,0.239218,0.91311,35,0.0154184,10,0.000218432,-3.03948,-6.568,-0.00898295,-0.320233,0.239218,
2,1,0,1,0,68116.8,0.247001,0.246698,0.911726,35,0.0157652,10,0.000224921,-3.04014,-1.57664,-0.0374214,-1.32505,0.246698,
2,1,0,1,0,68117.2,0.254492,0.254159,0.90259,35,0.0161102,10,0.000229402,-3.04451,-1.95751,-0.0301403,-1.06333,0.254159,
2,1,0,1,0,68117.5,0.261983,0.261638,0.898452,35,0.0164533,10,0.00023507,-3.04651,-1.81703,-0.0324706,-1.14021,0.261638,
2,1,0,1,0,68117.9,0.269474,0.269215,0.891526,35,0.0167945,10,0.000240012,-3.04987,14.6314,0.00403243,0.140572,0.269215,
2,1,0,1,0,68118.3,0.276965,0.276697,0.886795,35,0.0171335,10,0.000245373,-3.05218,-2.20385,-0.0267714,-0.927567,0.2766965,
2,1,0,1,0,68118.7,0.284456,0.284131,0.880181,35,0.0174702,10,0.000250087,-3.05543,-3.97519,-0.0148421,-0.510033,0.284131,
2,1,0,1,0,68119,0.291947,0.29163,0.871731,35,0.0178042,10,0.000254223,-3.05962,-3.0475,-0.0193602,-0.660164,0.29163,
2,1,0,1,0,68119.4,0.299436,0.299131,0.866681,35,0.0181357,10,0.000259251,-3.06214,-0.00435646,-13.5431,-300.149,0.299131,
2,0,0,1,0,68119.8,0.293745,0.293395,-0.164265,35,0.0181713,10,-4.81945e-05,-3.78445,-0.012848,-4.59216,26.0278,0.293395,
2,0,0,1,0,68120.1,0.286254,0.285965,-0.278012,35,0.0180797,10,-7.95015e-05,-3.55594,-0.0624375,-0.944944,10.2261,0.285965,
2,0,0,1,0,68120.5,0.278763,0.278469,-0.344165,35,0.0179568,10,-9.58394e-05,-3.46323,-0.111596,-0.528691,7.09076,0.2784692,
2,0,0,1,0,68120.9,0.271272,0.270887,-0.394818,35,0.0178126,10,-0.000106951,-3.4036,-0.15099,-0.390754,6.00476,0.270887,
2,0,0,1,0,68121.3,0.263781,0.263463,-0.432218,35,0.017652,10,-0.000113873,-3.3643,-0.18514,-0.318678,5.3829,0.263463,
2,0,0,1,0,68121.6,0.25629,0.25598,-0.469309,35,0.0174768,10,-0.000120134,-3.32854,-0.264058,-0.223436,4.08826,0.2559801,
2,0,0,1,0,68122,0.248799,0.248473,-0.502067,35,0.0172892,10,-0.00012475,-3.29924,-0.32356,-0.182346,3.56433,0.248473,
2,0,0,1,0,68122.4,0.241308,0.240977,-0.529607,35,0.0170903,10,-0.000127623,-3.27605,-0.356144,-0.165663,3.43166,0.240977,
2,0,0,1,0,68122.8,0.233817,0.233486,-0.557226,35,0.0168807,10,-0.000130104,-3.25397,-0.362241,-0.162875,3.54298,0.2334861,
2,0,0,1,0,68123.1,0.226326,0.226045,-0.58305,35,0.016661,10,-0.000131796,-3.23429,-0.497044,-0.118702,2.70383,0.226045,
2,0,0,1,0,68123.5,0.218835,0.218494,-0.612608,35,0.0164314,10,-0.000133851,-3.21282,-0.416595,-0.141625,3.36549,0.218494,
2,0,0,1,0,68123.9,0.211344,0.21102,-0.634767,35,0.0161926,10,-0.000133948,-3.19739,-0.468005,-0.126067,3.11886,0.21102,
2,0,0,1,0,68124.3,0.203855,0.203548,-0.658171,35,0.0159443,10,-0.000133969,-3.18166,-0.550813,-0.107114,2.75741,0.203548,
2,0,0,1,0,68124.6,0.196362,0.196041,-0.686219,35,0.0156867,10,-0.000134527,-3.16354,-0.415358,-0.142046,3.79832,0.196041,
2,0,0,1,0,68125,0.188871,0.188512,-0.714079,35,0.0154188,10,-0.000134613,-3.14625,-0.332397,-0.177499,4.9393,0.188512,
2,0,0,1,0,68125.4,0.18138,0.181063,-0.744137,35,0.01514,10,-0.000134735,-3.12835,-0.37742,-0.156324,4.54526,0.181063,
2,0,0,1,0,68125.8,0.173891,0.173599,-0.778023,35,0.014849,10,-0.000135064,-3.10901,-0.324118,-0.182032,5.5312,0.173599,
2,0,0,1,0,68126.1,0.166398,0.166065,-0.822502,35,0.0145433,10,-0.000136589,-3.08486,-0.356053,-0.165706,5.32336,0.166065,
2,0,0,1,0,68126.5,0.158906,0.158575,-0.877902,35,0.0142189,10,-0.000139214,-3.05655,-0.23594,-0.250063,8.59212,0.158575,
2,0,0,1,0,68126.9,0.151417,0.1511,-0.96427,35,0.0138684,10,-0.000145701,-3.0158,-0.163556,-0.360732,13.61,0.1511,
2,0,0,1,0,68127.3,0.143926,0.143552,-1.11004,35,0.0134761,10,-0.000159349,-2.95466,-0.0961882,-0.613381,26.6101,0.143552,
2,0,0,1,0,68127.6,0.136435,0.136143,-1.33608,35,0.0130141,10,-0.000181898,-2.87417,-0.0898797,-0.656433,34.1756,0.136143,
2,0,0,1,0,68128,0.128942,0.128614,-1.60307,35,0.0124581,10,-0.000206177,-2.79505,-0.106823,-0.552314,34.4452,0.128614,
2,0,0,1,0,68128.4,0.121453,0.121115,-1.84529,35,0.0118046,10,-0.000223492,-2.73394,-0.150358,-0.392398,28.2069,0.121115,
2,0,0,1,0,68128.8,0.113962,0.113626,-2.01617,35,0.0110716,10,-0.000229089,-2.69547,-0.294768,-0.200158,15.7456,0.113626,
2,0,0,1,0,68129.1,0.106471,0.10617,-2.08143,35,0.0102935,10,-0.000220986,-2.68164,-4.85085,-0.0121628,0.989128,0.10617,
2,0,0,1,0,68129.5,0.0989799,0.0986527,-2.06201,35,0.00950886,10,-0.000203423,-2.68571,0.917581,0.0642995,-5.16366,0.0986527,
2,0,0,1,0,68129.9,0.0914889,0.0911668,-2.01046,35,0.00874005,10,-0.000183287,-2.69671,0.659164,0.0895073,-7.02206,0.0911668,
2,0,0,1,0,68130.3,0.083998,0.0837054,-1.96316,35,0.00799058,10,-0.000164327,-2.70704,0.716351,0.0823619,-6.30496,0.0837054,
2,0,0,1,0,68130.6,0.076507,0.0761881,-1.92236,35,0.00725701,10,-0.000146461,-2.71617,0.786618,0.0750047,-5.62094,0.0761881,
2,0,0,1,0,68131,0.069016,0.0686973,-1.87322,35,0.00653983,10,-0.000128685,-2.72741,0.62235,0.0948019,-6.94436,0.0686973,
2,0,0,1,0,68131.4,0.0615251,0.0612314,-1.82496,35,0.00583988,10,-0.000111745,-2.73875,0.591932,0.0996736,-7.10928,0.0612314,
2,0,0,1,0,68131.7,0.0540342,0.0537137,-1.77296,35,0.00515934,10,-9.52321e-05,-2.7513,0.631772,0.0933881,-6.45773,0.0537137,
2,0,0,1,0,68132.1,0.0465432,0.0462203,-1.71743,35,0.004499,10,-7.93799e-05,-2.76512,0.4836,0.122002,-8.18272,0.0462203,
2,0,0,1,0,68132.5,0.0390523,0.0386973,-1.65858,35,0.0038609,10,-6.41827e-05,-2.78026,0.409892,0.14394,-9.30133,0.0386973,
2,0,0,1,0,68132.9,0.0315626,0.0312469,-1.59451,35,0.00324625,10,-4.98234e-05,-2.79737,0.449413,0.131282,-8.15969,0.0312469,
2,0,0,1,0,68133.2,0.0240704,0.0237511,-1.5344,35,0.00265398,10,-3.64438e-05,-2.81406,0.497644,0.118559,-7.11298,0.0237511,
2,0,0,1,0,68133.6,0.0165785,0.0162782,-1.48756,35,0.00208146,10,-2.42147e-05,-2.82753,0.677448,0.0870915,-5.07018,0.01627817,
2,0,0,1,0,68134,0.00908846,0.00876547,-1.45789,35,0.00152382,10,-1.27791e-05,-2.83627,1.1444,0.0515553,-2.93477,0.00876547,
2,0,0,1,0,68134.4,0.0015984,0.00125279,-1.45877,35,0.000974029,10,-1.82752e-06,-2.83601, , , ,0.00125279,
2,0,0,1,0,68134.4,0.000199195,-0.000166776,-1.44639,35,0.000871055,10,2.41222e-07,-2.83972, , , ,-0.000166776,