File: Figure_codes/Fig_3-5/rawdata_trumpetplot_data/after 10th/20221101_1-115_003_TrumpetPlot_ParaChange_from10_every3_11_CV_C01_15.csv
mode,ox/red,error,control changes,counter inc.,time/s,control/V,Ewe/V,<I>/mA,cycle number,(Q-Qo)/C,I Range,P/W,log(|I|),Tafel slope mV/dec,alpha_eff,dI/d(E-IR),E-IR/V,
2,1,0,1,0,30746.5,2.44065e-05,-0.000478022,9.69422,16,0.0000000E+000,10,-4.63405e-06,-2.01349, , , ,-0.000478022,
2,1,0,1,0,30746.5,0.0101427,0.00983761,13.182,16,0.00029533,10,0.00012968,-1.88002,0.130127,0.453403,231.907,0.00983761,
2,1,0,1,0,30746.5,0.0205441,0.0201914,15.1579,16,0.000665415,10,0.000306059,-1.81936,0.221418,0.266464,157.263,0.02019142,
2,1,0,1,0,30746.6,0.0309482,0.0305696,16.605,16,0.00107914,10,0.000507609,-1.77976,0.306227,0.192668,124.733,0.0305696,
2,1,0,1,0,30746.6,0.0413439,0.0409754,17.8116,16,0.00152697,10,0.000729836,-1.7493,0.374932,0.157362,109.327,0.0409754,
2,1,0,1,0,30746.6,0.0517425,0.0513568,18.932,16,0.00200485,10,0.000972287,-1.7228,0.407893,0.144646,106.881,0.0513568,
2,1,0,1,0,30746.6,0.0621438,0.0618081,20.0362,16,0.00251157,10,0.0012384,-1.69818,0.4272,0.138109,108.01,0.0618081,
2,1,0,1,0,30746.7,0.0725479,0.0721969,21.1722,16,0.00304738,10,0.00152857,-1.67423,0.436308,0.135226,111.722,0.0721969,
2,1,0,1,0,30746.7,0.0829437,0.0825942,22.3404,16,0.0036132,10,0.00184519,-1.65091,0.462263,0.127633,111.266,0.0825942,
2,1,0,1,0,30746.7,0.0933422,0.0929746,23.4804,16,0.0042092,10,0.00218308,-1.62929,0.487003,0.121149,111.111,0.0929746,
2,1,0,1,0,30746.7,0.103749,0.103429,24.6684,16,0.00483541,10,0.00255143,-1.60786,0.512847,0.115044,110.765,0.103429,
2,1,0,1,0,30746.8,0.114148,0.113826,25.8286,16,0.00549186,10,0.00293997,-1.5879,0.514165,0.114749,115.647,0.113826,
2,1,0,1,0,30746.8,0.124543,0.124185,27.1037,16,0.00617967,10,0.00336589,-1.56697,0.484008,0.121899,128.936,0.124185,
2,1,0,1,0,30746.8,0.134942,0.134619,28.5489,16,0.006903,10,0.00384322,-1.54441,0.454039,0.129945,144.858,0.134619,
2,1,0,1,0,30746.8,0.145349,0.14503,30.1102,16,0.00766556,10,0.00436688,-1.52129,0.473387,0.124634,146.322,0.14503,
2,1,0,1,0,30746.9,0.155747,0.155387,31.5421,16,0.00846734,10,0.00490123,-1.50111,0.561856,0.105009,129.156,0.155387,
2,1,0,1,0,30746.9,0.166143,0.165823,32.6914,16,0.00930335,10,0.00542099,-1.48557,0.863254,0.0683461,87.1429,0.1658234,
2,1,0,1,0,30746.9,0.176542,0.176199,33.2401,16,0.0101625,10,0.00585689,-1.47834,12.0157,0.00491024,6.36064,0.176199,
2,1,0,1,0,30746.9,0.186949,0.186609,32.7095,16,0.0110225,10,0.0061039,-1.48533,-0.660956,-0.0892646,-113.699,0.186609,
2,1,0,1,0,30747,0.197347,0.197049,30.8871,16,0.0118517,10,0.00608628,-1.51022,-0.310013,-0.190314,-229.034,0.197049,
2,1,0,1,0,30747,0.207743,0.207412,28.1282,16,0.0126199,10,0.0058341,-1.55086,-0.227472,-0.259372,-284.508,0.207412,
2,1,0,1,0,30747,0.218141,0.217858,25.1709,16,0.0133122,10,0.00548366,-1.5991,-0.214356,-0.275243,-270.482,0.217858,
2,1,0,1,0,30747,0.228548,0.228229,22.6054,16,0.0139318,10,0.00515921,-1.64579,-0.232577,-0.253679,-223.898,0.228229,
2,1,0,1,0,30747.1,0.238947,0.23864,20.5696,16,0.0144916,10,0.00490875,-1.68677,-0.283561,-0.208068,-167.164,0.23864,
2,1,0,1,0,30747.1,0.249343,0.249049,19.025,16,0.0150053,10,0.00473816,-1.72068,-0.338455,-0.174322,-129.578,0.249049,
2,1,0,1,0,30747.1,0.259741,0.25947,17.8602,16,0.015484,10,0.0046342,-1.74811,-0.416743,-0.141574,-98.7002,0.25947,
2,1,0,1,0,30747.2,0.270148,0.269823,16.9472,16,0.0159359,10,0.00457275,-1.7709,-0.507719,-0.116206,-76.9217,0.269823,
2,1,0,1,0,30747.2,0.280547,0.280196,16.2299,16,0.0163669,10,0.00454756,-1.78968,-0.610287,-0.0966758,-61.2843,0.280196,
2,1,0,1,0,30747.2,0.290942,0.290614,15.6561,16,0.0167812,10,0.0045499,-1.80532,-0.71973,-0.0819752,-50.0736,0.290614,
2,1,0,0,0,30747.2,0.300012,0.299804,15.2175,16,0.0171315,10,0.00456227,-1.81766,0.00148632,39.6954,20747.7,0.299804,
2,1,0,1,0,30747.2,0.290704,0.290385,4.97879,16,0.0173437,10,0.00144577,-2.30288,0.0165871,3.55699,681.215,0.290385,
2,0,0,1,0,30747.3,0.280305,0.280056,-0.155824,16,0.0173991,10,-4.36394e-05,-3.80737,-0.150023,-0.393274,362.144,0.280056,
2,0,0,1,0,30747.3,0.269909,0.269602,-3.09634,16,0.0173535,10,-0.00083478,-2.50915,-0.0308218,-1.91423,223.545,0.269602,
2,0,0,1,0,30747.3,0.2595,0.259232,-4.9979,16,0.0172465,10,-0.00129562,-2.30121,-0.0751994,-0.784581,151.887,0.259232,
2,0,0,1,0,30747.4,0.249104,0.248756,-6.34381,16,0.017098,10,-0.00157806,-2.19765,-0.132397,-0.445631,109.849,0.248756,
2,0,0,1,0,30747.4,0.238705,0.238392,-7.35168,16,0.0169194,10,-0.00175258,-2.13361,-0.196423,-0.300372,86.09,0.238392,
2,0,0,1,0,30747.4,0.22831,0.22797,-8.16534,16,0.0167172,10,-0.00186145,-2.08803,-0.261513,-0.22561,71.9478,0.22797,
2,0,0,1,0,30747.4,0.2179,0.217622,-8.87197,16,0.0164954,10,-0.00193074,-2.05198,-0.328146,-0.179798,62.1174,0.217622,
2,0,0,1,0,30747.5,0.207504,0.207164,-9.47475,16,0.0162568,10,-0.00196283,-2.02343,-0.390334,-0.151153,55.936,0.207164,
2,0,0,1,0,30747.5,0.197106,0.196795,-10.0397,16,0.0160028,10,-0.00197576,-1.99828,-0.429848,-0.137258,53.8703,0.1967947,
2,0,0,1,0,30747.5,0.18671,0.186424,-10.6035,16,0.0157343,10,-0.00197674,-1.97455,-0.436566,-0.135146,55.929,0.186424,
2,0,0,1,0,30747.5,0.1763,0.176001,-11.2018,16,0.0154509,10,-0.00197153,-1.95071,-0.4344,-0.13582,59.3379,0.176001,
2,0,0,1,0,30747.6,0.165905,0.165584,-11.858,16,0.0151514,10,-0.0019635,-1.92599,-0.398815,-0.147938,68.4941,0.165584,
2,0,0,1,0,30747.6,0.155506,0.155165,-12.6873,16,0.0148327,10,-0.00196864,-1.89663,-0.308751,-0.191092,94.7383,0.155165,
2,0,0,1,0,30747.6,0.145105,0.144775,-13.8505,16,0.0144885,10,-0.00200521,-1.85854,-0.235526,-0.250503,135.614,0.144775,
2,0,0,1,0,30747.6,0.134701,0.134355,-15.567,16,0.0141073,10,-0.0020915,-1.80779,-0.180998,-0.325971,198.39,0.134355,
2,0,0,1,0,30747.7,0.124305,0.124016,-17.9808,16,0.0136723,10,-0.0022299,-1.74519,-0.159968,-0.368825,259.06,0.124016,
2,0,0,1,0,30747.7,0.113906,0.113612,-20.8232,16,0.0131677,10,-0.00236576,-1.68145,-0.174125,-0.338836,275.303,0.113612,
2,0,0,1,0,30747.7,0.103505,0.10323,-23.6177,16,0.0125892,10,-0.00243805,-1.62676,-0.209708,-0.281344,259.185,0.10323,
2,0,0,1,0,30747.7,0.0931008,0.0928176,-26.1427,16,0.0119412,10,-0.00242651,-1.58265,-0.269888,-0.218609,222.765,0.0928176,
2,0,0,1,0,30747.8,0.0827051,0.0823896,-28.1603,16,0.0112339,10,-0.00232012,-1.55036,-0.387413,-0.152292,167.146,0.0823896,
2,0,0,1,0,30747.8,0.0723065,0.0720008,-29.6028,16,0.0104817,10,-0.00213143,-1.52867,-0.634436,-0.092996,107.276,0.0720008,
2,0,0,1,0,30747.8,0.0618997,0.0615961,-30.3754,16,0.00970051,10,-0.001871,-1.51748,-1.55507,-0.0379404,44.9524,0.0615961,
2,0,0,1,0,30747.8,0.0515011,0.0511807,-30.6134,16,0.00890675,10,-0.00156682,-1.51409,-15.4808,-0.00381117,4.54899,0.0511807,
2,0,0,1,0,30747.9,0.0411053,0.0407824,-30.5097,16,0.00811176,10,-0.00124426,-1.51556,3.56954,0.0165287,-19.6725,0.0407824,
2,0,0,1,0,30747.9,0.0307068,0.030401,-30.2287,16,0.00732177,10,-0.000918984,-1.51958,2.12508,0.0277637,-32.768,0.030401,
2,0,0,1,0,30747.9,0.0202999,0.0200186,-29.8662,16,0.00654026,10,-0.000597878,-1.52482,1.61988,0.0364225,-42.4436,0.0200186,
2,0,0,1,0,30748,0.00990136,0.00958099,-29.3471,16,0.00577024,10,-0.000281175,-1.53243,1.18602,0.0497464,-56.9492,0.00958099,
2,0,0,1,0,30748,-0.000494411,-0.000840681,-28.6716,16,0.00501575,10,2.41037e-05,-1.54255,0.861072,0.0685193,-76.5661,-0.000840681,
2,0,0,1,0,30748,-0.010893,-0.0112687,-27.7347,16,0.00428232,10,0.000312535,-1.55698,0.670367,0.0880114,-95.2604,-0.0112687,
2,0,0,1,0,30748,-0.0212998,-0.0216713,-26.7358,16,0.00357438,10,0.000579399,-1.57291,0.673996,0.0875376,-91.3269,-0.0216713,
2,0,0,1,0,30748.1,-0.0316984,-0.0320612,-25.8303,16,0.00289166,10,0.00082815,-1.58787,0.769761,0.0766472,-77.2366,-0.0320612,
2,0,0,1,0,30748.1,-0.0420942,-0.0424574,-25.1216,16,0.00222991,10,0.0010666,-1.59995,0.99912,0.059052,-57.9489,-0.0424574,
2,0,0,1,0,30748.1,-0.0524927,-0.0528547,-24.6884,16,0.00158279,10,0.0013049,-1.60751,1.99076,0.0296369,-28.5873,-0.0528547,
2,0,0,1,0,30748.1,-0.0628996,-0.063288,-24.5163,16,0.000943666,10,0.00155159,-1.61054,7.79141,0.00757244,-7.24248,-0.06328804,
2,0,0,1,0,30748.2,-0.0732982,-0.0736281,-24.5138,16,0.00030676,10,0.0018049,-1.61059,-5.88046,-0.0100332,9.60274,-0.0736281,
2,0,0,1,0,30748.2,-0.0836939,-0.0840317,-24.7084,16,-0.000332824,10,0.00207629,-1.60716,-2.17581,-0.0271164,26.1603,-0.0840317,
2,0,0,1,0,30748.2,-0.0940925,-0.0944227,-25.0679,16,-0.000979545,10,0.00236697,-1.60088,-1.37799,-0.042816,41.8842,-0.0944227,
2,0,0,1,1,30748.2,-0.0978574,-0.0982497,-21.1481,16,-0.00148128,10,0.00207779,-1.67473,-0.030536,-1.93214,1567.44,-0.0982497,
2,0,0,1,1,30748.3,-0.0874588,-0.0878662,-9.93118,16,-0.00186915,10,0.000872614,-2.003,-0.027469,-2.14787,826.258,-0.0878662,
2,0,0,1,1,30748.3,-0.077052,-0.0774721,-2.83256,16,-0.00202895,10,0.000219445,-2.54782,-0.00997945,-5.91215,573.504,-0.0774721,
2,1,0,1,1,30748.3,-0.0666562,-0.067062,2.3312,16,-0.00203177,10,-0.000156335,-2.63242,0.0105026,5.61767,429.849,-0.067062,
2,1,0,1,1,30748.3,-0.0562576,-0.0567072,6.26177,16,-0.00191752,10,-0.000355087,-2.2033,0.0424671,1.38931,334.806,-0.0567072,
2,1,0,1,1,30748.4,-0.0458563,-0.0463003,9.35271,16,-0.00171252,10,-0.000433034,-2.02906,0.0819635,0.719832,260.981,-0.0463003,
2,1,0,1,1,30748.4,-0.0354522,-0.0358129,11.7467,16,-0.00143677,10,-0.000420683,-1.93008,0.13323,0.442844,202.011,-0.0358129,
2,1,0,1,1,30748.4,-0.0250564,-0.0254517,13.5731,16,-0.00110646,10,-0.000345457,-1.86732,0.20581,0.286672,151.708,-0.0254517,
2,1,0,1,1,30748.4,-0.0146579,-0.0150533,14.9778,16,-0.000734245,10,-0.000225466,-1.82455,0.290125,0.20336,118.756,-0.0150533,
2,1,0,1,1,30748.5,-0.00425653,-0.00468678,16.0424,16,-0.000330186,10,-7.51873e-05,-1.79473,0.417465,0.141329,88.389,-0.00468678,
2,1,0,0,1,30748.5,-7.54729e-05,-0.000535284,16.3668,16,-0.000159857,10,-8.76091e-06,-1.78604, , , ,-0.000535284,