File: Figure_codes/Fig_3-5/rawdata_trumpetplot_data/after 10th/20221101_1-115_003_TrumpetPlot_ParaChange_from10_every3_08_CV_C01_32.csv
mode,ox/red,error,control changes,counter inc.,time/s,control/V,Ewe/V,<I>/mA,cycle number,(Q-Qo)/C,I Range,P/W,log(|I|),Tafel slope mV/dec,alpha_eff,dI/d(E-IR),E-IR/V,
2,0,0,0,0,64219.2,2.44065e-05,-0.000287149,-3.95057,33,0.0000000E+000,10,1.1344e-06,-2.40334, , , ,-0.0002871489,
2,1,0,1,0,64219.3,0.0072942,0.00691013,0.371343,33,-0.000109884,10,2.56603e-06,-3.43022,0.00846923,6.96639,291.968,0.00691013,
2,1,0,1,0,64219.4,0.0147816,0.0143941,1.81288,33,2.76473e-06,10,2.60946e-05,-2.74163,0.0319928,1.84416,128.001,0.0143941,
2,1,0,1,0,64219.5,0.0222707,0.0219745,2.54051,33,0.00021082,10,5.58263e-05,-2.59508,0.0804564,0.733316,72.2743,0.0219745,
2,1,0,1,0,64219.6,0.0297581,0.0294267,3.00228,33,0.000472293,10,8.83471e-05,-2.52255,0.129954,0.454008,53.0628,0.0294267,
2,1,0,1,0,64219.7,0.0372544,0.0369344,3.3601,33,0.000772025,10,0.000124104,-2.47365,0.175719,0.335764,44.048,0.0369344,
2,1,0,1,0,64219.8,0.0447507,0.0444426,3.6889,33,0.00110368,10,0.000163944,-2.4331,0.214673,0.274836,39.5172,0.0444426,
2,1,0,1,0,64219.8,0.0522381,0.0519225,3.98703,33,0.00146405,10,0.000207016,-2.39935,0.221307,0.266598,41.4883,0.0519225,
2,1,0,1,0,64219.9,0.0597273,0.0594112,4.26942,33,0.00185173,10,0.000253651,-2.36963,0.265767,0.221999,36.9603,0.0594112,
2,1,0,1,0,64220,0.0672147,0.0669374,4.5388,33,0.002265,10,0.000303815,-2.34306,0.317782,0.185662,32.8256,0.0669374,
2,1,0,1,0,64220.1,0.0747038,0.0744186,4.77804,33,0.002702,10,0.000355575,-2.32075,0.353908,0.16671,31.0752,0.07441856,
2,1,0,1,0,64220.2,0.0822055,0.0818616,4.9854,33,0.00316135,10,0.000408113,-2.3023,0.413684,0.142621,27.7654,0.0818616,
2,1,0,1,0,64220.3,0.0896946,0.089412,5.1814,33,0.00363846,10,0.000463279,-2.28555,0.525386,0.112298,22.7105,0.089412,
2,1,0,1,0,64220.4,0.097182,0.0968547,5.38218,33,0.00413372,10,0.000521289,-2.26904,0.380041,0.155246,32.6333,0.0968547,
2,1,0,1,0,64220.5,0.104671,0.104341,5.65909,33,0.00465074,10,0.000590477,-2.24725,0.286436,0.20598,45.5119,0.104341,
2,1,0,1,0,64220.6,0.112159,0.111853,6.03084,33,0.00519843,10,0.000674565,-2.21962,0.273229,0.215936,50.8447,0.111853,
2,1,0,1,0,64220.7,0.119655,0.119359,6.45071,33,0.00578416,10,0.000769949,-2.19039,0.272564,0.216463,54.4186,0.119359,
2,1,0,1,0,64220.8,0.127149,0.126831,6.80027,33,0.00640682,10,0.000862482,-2.16747,0.373588,0.157928,41.8996,0.126831,
2,1,0,1,0,64220.9,0.134639,0.134303,7.04638,33,0.00705715,10,0.000946347,-2.15203,0.706137,0.0835531,22.9795,0.134303,
2,1,0,1,0,64221,0.142126,0.141835,7.18613,33,0.0077253,10,0.00101924,-2.1435,1.96429,0.0300363,8.40844,0.141835,
2,1,0,1,0,64221.1,0.149615,0.149266,7.08594,33,0.00839685,10,0.00105769,-2.1496,-0.438487,-0.134554,-37.1446,0.149266,
2,1,0,1,0,64221.2,0.157103,0.156812,6.57299,33,0.00904096,10,0.00103072,-2.18224,-0.155825,-0.378629,-96.9668,0.156812,
2,1,0,1,0,64221.2,0.164606,0.164306,5.75048,33,0.00962111,10,0.000944838,-2.2403,-0.114645,-0.514633,-115.235,0.164306,
2,1,0,1,0,64221.3,0.172095,0.171763,4.93984,33,0.0101208,10,0.000848481,-2.30629,-0.125774,-0.469094,-90.6105,0.171763,
2,1,0,1,0,64221.4,0.179582,0.179214,4.35711,33,0.0105556,10,0.000780854,-2.3608,-0.149825,-0.393793,-67.1709,0.179214,
2,1,0,1,0,64221.5,0.18707,0.18674,3.97081,33,0.0109451,10,0.000741508,-2.40112,-0.213292,-0.276616,-42.831,0.18674,
2,1,0,1,0,64221.6,0.194559,0.19421,3.6932,33,0.0113037,10,0.000717254,-2.4326,-0.297155,-0.198549,-28.6278,0.19421,
2,1,0,1,0,64221.7,0.202062,0.201726,3.49877,33,0.0116416,10,0.000705792,-2.45608,-0.360099,-0.163844,-22.3918,0.201726,
2,1,0,1,0,64221.8,0.20955,0.209231,3.37372,33,0.0119639,10,0.000705885,-2.47189,-0.439842,-0.134139,-17.6454,0.209231,
2,1,0,1,0,64221.9,0.217039,0.216698,3.26808,33,0.0122752,10,0.000708185,-2.48571,-0.864775,-0.0682259,-8.70838,0.2166978,
2,1,0,1,0,64222,0.224526,0.224198,3.19042,33,0.0125787,10,0.000715287,-2.49615,-0.681681,-0.0865508,-10.795,0.224198,
2,1,0,1,0,64222.1,0.232016,0.231665,3.13944,33,0.0128759,10,0.000727297,-2.50315,-1.06215,-0.0555478,-6.80393,0.231665,
2,1,0,1,0,64222.2,0.23951,0.239174,3.09211,33,0.0131688,10,0.000739554,-2.50974,-2.52992,-0.0233209,-2.81612,0.2391741,
2,1,0,1,0,64222.3,0.247006,0.246652,3.05511,33,0.013458,10,0.000753549,-2.51497,-1.34663,-0.043813,-5.21986,0.246652,
2,1,0,1,0,64222.4,0.254494,0.254183,3.02577,33,0.0137436,10,0.000769097,-2.51916,-1.28592,-0.0458816,-5.41686,0.254183,
2,1,0,1,0,64222.5,0.261983,0.261644,2.99926,33,0.0140266,10,0.000784738,-2.52299,-2.30464,-0.0256006,-2.99568,0.261644,
2,1,0,1,0,64222.6,0.26947,0.269126,2.97195,33,0.0143072,10,0.00079983,-2.52696,-2.00455,-0.0294331,-3.41747,0.269126,
2,1,0,1,0,64222.7,0.276959,0.276647,2.95317,33,0.0145856,10,0.000816986,-2.52971,-3.011,-0.0195948,-2.25628,0.276647,
2,1,0,1,0,64222.7,0.284461,0.284159,2.92754,33,0.0148623,10,0.000831888,-2.5335,-6.72032,-0.00877934,-1.00278,0.284159,
2,1,0,1,0,64222.8,0.29195,0.291656,2.89992,33,0.0151361,10,0.000845781,-2.53761,-2.35038,-0.0251023,-2.8431,0.291656,
2,1,0,1,0,64222.9,0.299438,0.29911,2.88117,33,0.0154077,10,0.000861787,-2.54043,-0.0348073,-1.69505,-177.904,0.29911,
2,1,0,1,0,64223,0.29424,0.293935,-0.00146784,33,0.015499,10,-4.3145e-07,-5.83332,0.025278,2.33405,216.501,0.293935,
2,0,0,1,0,64223.1,0.286753,0.286389,-0.894888,33,0.0154479,10,-0.000256286,-3.04823,-0.029552,-1.99648,68.5901,0.286389,
2,0,0,1,0,64223.2,0.279264,0.278905,-1.27905,33,0.0153431,10,-0.000356734,-2.89311,-0.0814958,-0.723964,35.9407,0.278905,
2,0,0,1,0,64223.3,0.271776,0.271429,-1.49463,33,0.0152116,10,-0.000405686,-2.82547,-0.121135,-0.487058,28.4764,0.271429,
2,0,0,1,0,64223.4,0.26428,0.263959,-1.65772,33,0.0150622,10,-0.00043757,-2.78049,-0.19711,-0.299326,19.3832,0.263959,
2,0,0,1,0,64223.5,0.256786,0.256473,-1.79311,33,0.0148993,10,-0.000459884,-2.74639,-0.288148,-0.204756,14.2867,0.256473,
2,0,0,1,0,64223.6,0.249296,0.248912,-1.90084,33,0.0147256,10,-0.000473142,-2.72105,-0.325889,-0.181043,13.3978,0.2489121,
2,0,0,1,0,64223.7,0.241809,0.241476,-1.98591,33,0.0145425,10,-0.000479549,-2.70204,-0.400842,-0.14719,11.4342,0.241476,
2,0,0,1,0,64223.8,0.23432,0.234004,-2.07758,33,0.014351,10,-0.000486161,-2.68244,-0.513651,-0.114864,9.33162,0.234004,
2,0,0,1,0,64223.9,0.226833,0.226521,-2.15639,33,0.0141516,10,-0.000488467,-2.66627,-0.393891,-0.149788,12.6149,0.226521,
2,0,0,1,0,64223.9,0.219329,0.219004,-2.2366,33,0.0139445,10,-0.000489824,-2.65041,-0.484104,-0.121875,10.6356,0.219004,
2,0,0,1,0,64224,0.21184,0.21152,-2.31113,33,0.0137308,10,-0.000488849,-2.63618,-0.644894,-0.0914879,8.24288,0.2115197,
2,0,0,1,0,64224.1,0.204353,0.204021,-2.38567,33,0.01351,10,-0.000486727,-2.62239,-0.581067,-0.101537,9.46106,0.204021,
2,0,0,1,0,64224.2,0.196863,0.19653,-2.45202,33,0.0132823,10,-0.000481896,-2.61048,-0.574094,-0.102771,9.86127,0.19653,
2,0,0,1,0,64224.3,0.189376,0.18902,-2.5396,33,0.0130473,10,-0.000480034,-2.59523,-0.646828,-0.0912143,9.04618,0.1890195,
2,0,0,1,0,64224.4,0.18188,0.181562,-2.62583,33,0.0128045,10,-0.000476752,-2.58073,-0.399278,-0.147767,15.1511,0.181562,
2,0,0,1,0,64224.5,0.174385,0.174023,-2.71908,33,0.012553,10,-0.000473182,-2.56558,-0.440728,-0.133869,14.2369,0.174023,
2,0,0,1,0,64224.6,0.166896,0.166549,-2.8425,33,0.0122918,10,-0.000473414,-2.5463,-0.421654,-0.139925,15.5012,0.166549,
2,0,0,1,0,64224.7,0.159409,0.159077,-2.99148,33,0.0120182,10,-0.000475877,-2.52411,-0.290815,-0.202878,23.6762,0.159077,
2,0,0,1,0,64224.8,0.151919,0.151567,-3.19463,33,0.011728,10,-0.0004842,-2.49558,-0.210545,-0.280225,35.0622,0.151567,
2,0,0,1,0,64224.9,0.144425,0.144121,-3.52586,33,0.0114131,10,-0.000508151,-2.45274,-0.154741,-0.381282,52.5577,0.144121,
2,0,0,1,0,64225,0.136929,0.136612,-4.04321,33,0.0110594,10,-0.000552349,-2.39327,-0.111072,-0.531185,83.8883,0.136612,
2,0,0,1,0,64225.1,0.129441,0.129086,-4.73787,33,0.0106485,10,-0.000611592,-2.32442,-0.107121,-0.550777,101.844,0.129086,
2,0,0,1,0,64225.2,0.121952,0.121617,-5.48668,33,0.0101687,10,-0.000667272,-2.26069,-0.136783,-0.431341,92.1755,0.121617,
2,0,0,1,0,64225.3,0.114465,0.114129,-6.1645,33,0.00962203,10,-0.000703548,-2.2101,-0.175884,-0.335448,80.5215,0.114129,
2,0,0,1,0,64225.4,0.106976,0.10667,-6.69867,33,0.00901806,10,-0.000714549,-2.17401,-0.24033,-0.245496,64.1271,0.10667,
2,0,0,1,0,64225.4,0.0994721,0.0991629,-7.06365,33,0.00836975,10,-0.000700452,-2.15097,-0.51815,-0.113867,31.3442,0.0991629,
2,0,0,1,0,64225.5,0.0919847,0.0916585,-7.19842,33,0.0076998,10,-0.000659796,-2.14276,-5.25123,-0.0112355,3.15296,0.0916585,
2,0,0,1,0,64225.6,0.0844974,0.0841937,-7.12559,33,0.00702744,10,-0.000599929,-2.14718,1.04967,0.0562081,-15.6149,0.0841937,
2,0,0,1,0,64225.7,0.0770082,0.0766235,-6.96635,33,0.00636677,10,-0.000533786,-2.15699,0.663189,0.0889641,-24.1876,0.0766235,
2,0,0,1,0,64225.8,0.0695208,0.0691907,-6.82272,33,0.00572099,10,-0.000472069,-2.16604,0.80471,0.0733183,-19.514,0.0691907,
2,0,0,1,0,64225.9,0.0620245,0.0616818,-6.70115,33,0.00508687,10,-0.000413339,-2.17385,1.05629,0.0558557,-14.6088,0.0616818,
2,0,0,1,0,64226,0.0545282,0.0541771,-6.57751,33,0.00446375,10,-0.000356351,-2.18194,0.929544,0.063472,-16.2998,0.0541771,
2,0,0,1,0,64226.1,0.0470408,0.0466564,-6.44809,33,0.00385292,10,-0.000300845,-2.19057,0.756649,0.0779754,-19.6122,0.0466564,
2,0,0,1,0,64226.2,0.0395516,0.0392038,-6.30029,33,0.00325554,10,-0.000246996,-2.20064,0.750165,0.0786494,-19.3239,0.03920383,
2,0,0,1,0,64226.3,0.0320643,0.0317165,-6.11552,33,0.0026734,10,-0.000193963,-2.21357,0.509787,0.115735,-27.6169,0.0317165,
2,0,0,1,0,64226.4,0.0245751,0.0241882,-5.91696,33,0.00210919,10,-0.000143121,-2.2279,0.457623,0.128927,-29.7462,0.0241882,
2,0,0,1,0,64226.5,0.0170735,0.0167653,-5.70488,33,0.00156339,10,-9.56442e-05,-2.24375,0.525601,0.112253,-24.9953,0.0167653,
2,0,0,1,0,64226.6,0.00958429,0.00927287,-5.50535,33,0.00103775,10,-5.10504e-05,-2.25922,0.547167,0.107828,-23.1912,0.00927287,
2,0,0,1,0,64226.7,0.0020969,0.00171975,-5.39531,33,0.000528368,10,-9.27856e-06,-2.26798,0.835397,0.0706251,-14.794,0.001719746,
2,0,0,1,0,64226.7,0.000199195,-0.000208891,-5.33833,33,0.000400935,10,1.11513e-06,-2.27259, , , ,-0.0002088909,