File: Figure_codes/Fig_3-5/rawdata_trumpetplot_data/after 10th/20221101_1-115_003_TrumpetPlot_ParaChange_from10_every3_09_CV_C01_12.csv
mode,ox/red,error,control changes,counter inc.,time/s,control/V,Ewe/V,<I>/mA,cycle number,(Q-Qo)/C,I Range,P/W,log(|I|),Tafel slope mV/dec,alpha_eff,dI/d(E-IR),E-IR/V,
2,0,0,0,0,24824.1,2.44065e-05,-0.000306236,-5.31867,13,0.0000000E+000,10,1.62877e-06,-2.2742, , , ,-0.000306236,
2,1,0,1,0,24824.2,0.00978761,0.00946257,1.71023,13,-6.43404e-05,10,1.61831e-05,-2.76695,0.0131776,4.47728,275.467,0.00946257,
2,1,0,1,0,24824.3,0.0197755,0.0194603,3.35471,13,0.000202497,10,6.52838e-05,-2.47435,0.0748742,0.787988,102.801,0.0194603,
2,1,0,1,0,24824.4,0.0297635,0.0294726,4.16404,13,0.000581034,10,0.000122725,-2.38048,0.147709,0.399434,64.7087,0.0294726,
2,1,0,1,0,24824.5,0.0397514,0.0394531,4.76088,13,0.00102773,10,0.000187831,-2.32231,0.174189,0.338713,63.0177,0.0394531,
2,1,0,1,0,24824.6,0.0497484,0.0494431,5.33059,13,0.00153242,10,0.000263561,-2.27322,0.223725,0.263717,54.7465,0.0494431,
2,1,0,1,0,24824.7,0.0597273,0.0593811,5.83994,13,0.00209003,10,0.000346782,-2.23359,0.271832,0.217045,49.4394,0.0593811,
2,1,0,1,0,24824.8,0.0697152,0.0693616,6.31076,13,0.00269772,10,0.000437725,-2.19992,0.329983,0.178797,44.0395,0.0693616,
2,1,0,1,0,24824.9,0.0797031,0.0794132,6.73563,13,0.00334997,10,0.000534898,-2.17162,0.39151,0.150699,39.5685,0.0794132,
2,1,0,1,0,24825,0.0896911,0.0893664,7.08382,13,0.00404081,10,0.000633055,-2.14973,0.441671,0.133584,36.9969,0.0893664,
2,1,0,1,0,24825.1,0.099679,0.099364,7.51057,13,0.00476812,10,0.000746281,-2.12433,0.344804,0.171112,50.1273,0.099364,
2,1,0,1,0,24825.2,0.109667,0.109359,8.13693,13,0.00554773,10,0.000889847,-2.08954,0.255443,0.230972,73.3936,0.109359,
2,1,0,1,0,24825.3,0.119655,0.11935,8.93642,13,0.0064006,10,0.00106656,-2.04884,0.280269,0.210512,73.3909,0.11935,
2,1,0,1,0,24825.4,0.129643,0.129303,9.59834,13,0.00732838,10,0.0012411,-2.0178,0.403821,0.146104,54.6659,0.129303,
2,1,0,1,0,24825.5,0.139631,0.139273,10.0254,13,0.00831073,10,0.00139627,-1.9989,0.690541,0.0854403,33.4434,0.139273,
2,1,0,1,0,24825.6,0.149619,0.149258,10.0782,13,0.00932003,10,0.00150426,-1.99662,-0.572168,-0.103117,-40.4173,0.149258,
2,1,0,1,0,24825.7,0.159607,0.159281,8.93923,13,0.0102818,10,0.00142385,-2.0487,-0.112998,-0.522131,-181.895,0.159281,
2,1,0,1,0,24825.8,0.169595,0.169286,6.98864,13,0.0110772,10,0.00118308,-2.15561,-0.0905541,-0.651544,-177.967,0.169286,
2,1,0,1,0,24825.9,0.179582,0.179285,5.61178,13,0.0116997,10,0.00100611,-2.2509,-0.131817,-0.44759,-98.2608,0.179285,
2,1,0,1,0,24826,0.18957,0.189217,4.88957,13,0.0122204,10,0.000925188,-2.31073,-0.223476,-0.26401,-50.3884,0.1892167,
2,1,0,1,0,24826.1,0.199558,0.19925,4.49632,13,0.0126868,10,0.000895891,-2.34714,-0.352385,-0.167431,-29.347,0.19925,
2,1,0,1,0,24826.2,0.209546,0.209264,4.26047,13,0.0131229,10,0.000891562,-2.37054,-0.443585,-0.133007,-22.1266,0.209264,
2,1,0,1,0,24826.3,0.219534,0.219211,4.10001,13,0.0135398,10,0.000898767,-2.38721,-0.732959,-0.0804956,-12.8862,0.219211,
2,1,0,1,0,24826.4,0.229522,0.229236,3.98742,13,0.0139441,10,0.000914059,-2.39931,-0.966637,-0.0610364,-9.51833,0.229236,
2,1,0,1,0,24826.5,0.23951,0.239225,3.91662,13,0.0143393,10,0.000936956,-2.40709,-2.18334,-0.0270228,-4.13301,0.239225,
2,1,0,1,0,24826.6,0.249498,0.249132,3.86272,13,0.0147275,10,0.000962326,-2.41311,-1.833,-0.0321877,-4.84887,0.249132,
2,1,0,1,0,24826.7,0.259486,0.259179,3.81068,13,0.0151106,10,0.000987649,-2.419,-1.07917,-0.0546714,-8.12515,0.259179,
2,1,0,1,0,24826.8,0.269474,0.269179,3.76202,13,0.015489,10,0.00101266,-2.42458,-2.20399,-0.0267697,-3.93358,0.269179,
2,1,0,1,0,24826.9,0.279462,0.279133,3.72324,13,0.015863,10,0.00103928,-2.42908,-2.00103,-0.0294849,-4.28107,0.279133,
2,1,0,1,0,24827,0.28945,0.289135,3.67262,13,0.0162326,10,0.00106188,-2.43502,-3.22052,-0.01832,-2.62694,0.289135,
2,1,0,1,0,24827.1,0.299438,0.299132,3.63203,13,0.0165974,10,0.00108646,-2.43985,-0.0285478,-2.06671,-268.478,0.299132,
2,0,0,1,0,24827.2,0.291747,0.291442,-0.91375,13,0.01665,10,-0.000266305,-3.03917,-0.0126745,-4.65503,151.006,0.291442,
2,0,0,1,0,24827.3,0.281759,0.281419,-1.66969,13,0.0165138,10,-0.000469882,-2.77736,-0.0877129,-0.672649,43.538,0.281419,
2,0,0,1,0,24827.4,0.271771,0.271464,-1.9984,13,0.0163297,10,-0.000542493,-2.69932,-0.156612,-0.376727,29.3125,0.271464,
2,0,0,1,0,24827.5,0.261783,0.261466,-2.22646,13,0.0161183,10,-0.000582145,-2.65238,-0.277878,-0.212323,18.4197,0.261466,
2,0,0,1,0,24827.6,0.251795,0.251513,-2.40156,13,0.0158869,10,-0.000604022,-2.61951,-0.335937,-0.175628,16.4745,0.251513,
2,0,0,1,0,24827.7,0.241807,0.241514,-2.55339,13,0.0156388,10,-0.000616681,-2.59288,-0.410371,-0.143772,14.3883,0.241514,
2,0,0,1,0,24827.8,0.231815,0.231507,-2.70486,13,0.0153764,10,-0.000626194,-2.56786,-0.403957,-0.146055,15.3932,0.231507,
2,0,0,1,0,24827.9,0.221831,0.221525,-2.82594,13,0.0151006,10,-0.000626016,-2.54884,-0.496557,-0.118818,13.0992,0.221525,
2,0,0,1,0,24828,0.211843,0.211512,-2.95384,13,0.0148117,10,-0.000624773,-2.52961,-0.612136,-0.0963839,11.1156,0.211512,
2,0,0,1,0,24828.1,0.201856,0.201537,-3.08917,13,0.01451,10,-0.000622583,-2.51016,-0.693069,-0.0851286,10.2579,0.201537,
2,0,0,1,0,24828.2,0.191868,0.191518,-3.22781,13,0.0141947,10,-0.000618184,-2.49109,-0.490544,-0.120275,15.17,0.191518,
2,0,0,1,0,24828.3,0.18188,0.181527,-3.40164,13,0.0138647,10,-0.000617489,-2.46831,-0.397137,-0.148563,19.6853,0.181527,
2,0,0,1,0,24828.4,0.171892,0.171619,-3.6007,13,0.013516,10,-0.000617949,-2.44361,-0.35765,-0.164966,23.1994,0.171619,
2,0,0,1,0,24828.5,0.161904,0.161542,-3.89435,13,0.0131428,10,-0.000629101,-2.40957,-0.237798,-0.24811,37.7436,0.161542,
2,0,0,1,0,24828.6,0.151916,0.151574,-4.38019,13,0.0127314,10,-0.000663923,-2.35851,-0.162863,-0.362267,62.1028,0.151574,
2,0,0,1,0,24828.7,0.141928,0.141563,-5.26598,13,0.0122541,10,-0.000745469,-2.27852,-0.103496,-0.570072,117.287,0.141563,
2,0,0,1,0,24828.8,0.13194,0.131621,-6.67053,13,0.0116623,10,-0.00087798,-2.17584,-0.0952404,-0.619485,161.252,0.131621,
2,0,0,1,0,24828.9,0.121952,0.121621,-8.21971,13,0.0109171,10,-0.000999693,-2.08514,-0.136019,-0.433762,138.86,0.121621,
2,0,0,1,0,24829,0.111964,0.111664,-9.40018,13,0.0100333,10,-0.00104966,-2.02686,-0.224303,-0.263037,96.4116,0.111664,
2,0,0,1,0,24829.1,0.101976,0.101618,-10.0965,13,0.00905481,10,-0.00102599,-1.99583,-0.612056,-0.0963964,37.9165,0.1016183,
2,0,0,1,0,24829.2,0.0919883,0.0916764,-10.1801,13,0.00803721,10,-0.000933273,-1.99225,1.29026,0.0457271,-18.1595,0.0916764,
2,0,0,1,0,24829.3,0.0820004,0.0816829,-9.76589,13,0.00703902,10,-0.000797706,-2.01029,0.41486,0.142217,-54.1714,0.0816829,
2,0,0,1,0,24829.4,0.0720124,0.0716686,-9.26417,13,0.00608999,10,-0.00066395,-2.03319,0.491767,0.119976,-43.3955,0.0716686,
2,0,0,1,0,24829.5,0.0620245,0.0616889,-8.91602,13,0.00518347,10,-0.00055002,-2.04983,0.638389,0.0924202,-32.1572,0.0616889,
2,0,0,1,0,24829.6,0.0520366,0.0517067,-8.6281,13,0.00430763,10,-0.000446131,-2.06408,0.670187,0.0880351,-29.6281,0.0517067,
2,0,0,1,0,24829.7,0.0420486,0.0417074,-8.32714,13,0.0034604,10,-0.000347304,-2.0795,0.625701,0.0942942,-30.6761,0.0417074,
2,0,0,1,0,24829.8,0.0320607,0.0317078,-7.9989,13,0.00264501,10,-0.000253627,-2.09697,0.473189,0.124686,-38.8937,0.0317078,
2,0,0,1,0,24829.9,0.0220728,0.0217643,-7.58979,13,0.00186643,10,-0.000165187,-2.11977,0.410559,0.143707,-42.5629,0.0217643,
2,0,0,1,0,24830,0.0120848,0.0117619,-7.16314,13,0.00113034,10,-8.42523e-05,-2.1449,0.388217,0.151977,-42.4951,0.0117619,
2,0,0,1,0,24830.1,0.0020969,0.00173784,-6.8725,13,0.000433156,10,-1.19433e-05,-2.16289,0.842308,0.0700456,-18.6801,0.001737842,
2,0,0,1,0,24830.2,-0.00789103,-0.00830424,-6.62313,13,-0.000238817,10,5.50001e-05,-2.17894,1.34026,0.0440213,-11.4094,-0.00830424,
2,0,0,1,0,24830.3,-0.017879,-0.0182554,-6.59577,13,-0.000897321,10,0.000120408,-2.18073,-3.87786,-0.0152146,3.91252,-0.0182554,
2,0,0,1,0,24830.4,-0.0278669,-0.0282093,-6.66119,13,-0.00155822,10,0.000187908,-2.17645,-1.34145,-0.0439823,11.4512,-0.0282093,
2,0,0,1,0,24830.5,-0.0378548,-0.0382278,-6.83013,13,-0.00223148,10,0.0002611,-2.16557,-0.867817,-0.0679867,18.1167,-0.0382278,
2,0,0,1,0,24830.6,-0.0478428,-0.0481894,-7.06138,13,-0.00292501,10,0.000340284,-2.15111,-0.524292,-0.112533,31.0612,-0.0481894,
2,0,0,1,0,24830.7,-0.0578216,-0.0582363,-7.37339,13,-0.0036447,10,0.000429399,-2.13233,-0.501351,-0.117682,33.8341,-0.0582363,
2,0,0,1,0,24830.8,-0.0678187,-0.0681804,-7.74472,13,-0.00439865,10,0.000528038,-2.11099,-0.424532,-0.138977,41.9973,-0.0681804,
2,0,0,1,0,24830.9,-0.0778066,-0.0781973,-8.19683,13,-0.00519401,10,0.000640969,-2.08635,-0.396625,-0.148755,47.6185,-0.0781973,
2,0,0,1,0,24831,-0.0877945,-0.0881644,-8.7312,13,-0.00603883,10,0.00076978,-2.05893,-0.362688,-0.162674,55.4153,-0.0881644,
2,0,0,1,0,24831.1,-0.0977825,-0.0981583,-9.27916,13,-0.00693866,10,0.000910827,-2.03249,-0.384181,-0.153573,55.6513,-0.09815827,
2,0,0,1,1,24831.2,-0.0927386,-0.0930797,-2.17555,13,-0.00750487,10,0.000202499,-2.66243,-0.008771,-6.72671,549.994,-0.0930797,
2,1,0,1,1,24831.3,-0.0827529,-0.0831088,1.4677,13,-0.00751498,10,-0.000121979,-2.83336,0.0131581,4.48393,241.469,-0.08310879,
2,1,0,1,1,24831.4,-0.0727627,-0.0731426,3.24619,13,-0.00727051,10,-0.000237435,-2.48863,0.057748,1.02168,128.202,-0.0731426,
2,1,0,1,1,24831.5,-0.0627748,-0.063199,4.21952,13,-0.00689319,10,-0.000266669,-2.37474,0.131172,0.449791,73.8863,-0.063199,
2,1,0,1,1,24831.6,-0.0527868,-0.0531429,4.7741,13,-0.00644121,10,-0.000253709,-2.32111,0.266066,0.22175,41.2699,-0.0531429,
2,1,0,1,1,24831.7,-0.0427989,-0.0431768,5.08398,13,-0.00594713,10,-0.00021951,-2.2938,0.484303,0.121825,24.1623,-0.0431768,
2,1,0,1,1,24831.8,-0.0328109,-0.0331763,5.23667,13,-0.00543115,10,-0.000173734,-2.28095,1.18558,0.0497645,10.1651,-0.0331763,
2,1,0,1,1,24831.9,-0.022823,-0.0232077,5.29406,13,-0.00490484,10,-0.000122863,-2.27621,16.8385,0.00350388,0.723506,-0.0232077,
2,1,0,1,1,24832,-0.0128351,-0.013185,5.29041,13,-0.00437593,10,-6.9754e-05,-2.27651,-4.59647,-0.0128359,-2.6521,-0.013185,
2,1,0,1,1,24832.1,-0.00284713,-0.00319797,5.28567,13,-0.00384739,10,-1.69034e-05,-2.2769,-15.5508,-0.00379402,-0.783161,-0.00319797,
2,1,0,1,1,24832.1,-2.55332e-05,-0.000363498,5.30306,13,-0.00369883,10,-1.92765e-06,-2.27547, , , ,-0.000363498,