File: Figure_codes/Fig_3-5/rawdata_trumpetplot_data/after 10th/20221101_1-115_003_TrumpetPlot_ParaChange_from10_every3_04_CV_C01_1.csv
mode,ox/red,error,control changes,counter inc.,time/s,control/V,Ewe/V,<I>/mA,cycle number,(Q-Qo)/C,I Range,P/W,log(|I|),Tafel slope mV/dec,alpha_eff,dI/d(E-IR),E-IR/V,
2,0,0,1,0,3030.15,2.44065e-05,-0.000401673,-0.376704,2,0.0000000E+000,10,1.51312e-07,-3.424, , , ,-0.000401673,
2,1,0,1,0,3030.87,0.00729063,0.00697133,0.383074,2,0.000226829,10,2.67054e-06,-3.41672,0.0770702,0.765536,11.3911,0.00697133,
2,1,0,1,0,3031.62,0.0147814,0.0144652,0.444602,2,0.000553538,10,6.43125e-06,-3.35203,0.149102,0.395703,6.85823,0.0144652,
2,1,0,1,0,3032.37,0.0222725,0.0219962,0.490299,2,0.000918404,10,1.07847e-05,-3.30954,0.181148,0.325701,6.23571,0.02199623,
2,1,0,1,0,3033.12,0.0297635,0.0294438,0.535608,2,0.00131699,10,1.57703e-05,-3.27115,0.203615,0.289762,6.07154,0.0294438,
2,1,0,1,0,3033.87,0.0372544,0.0369469,0.583471,2,0.001751,10,2.15575e-05,-3.23398,0.207232,0.284705,6.50968,0.0369469,
2,1,0,1,0,3034.62,0.0447458,0.0444285,0.642067,2,0.00222537,10,2.85261e-05,-3.19242,0.182291,0.323658,8.10573,0.0444285,
2,1,0,1,0,3035.37,0.0522363,0.0519485,0.70094,2,0.00274338,10,3.64128e-05,-3.15432,0.176573,0.334139,9.13546,0.0519485,
2,1,0,1,0,3036.12,0.0597282,0.0594065,0.759973,2,0.00330531,10,4.51473e-05,-3.1192,0.231931,0.254386,7.52687,0.0594065,
2,1,0,1,0,3036.87,0.0672182,0.0669044,0.813023,2,0.00390834,10,5.43949e-05,-3.0899,0.319474,0.184679,5.84389,0.0669044,
2,1,0,1,0,3037.62,0.0747092,0.0744185,0.85972,2,0.00454853,10,6.3979e-05,-3.06564,0.350504,0.168329,5.63795,0.0744185,
2,1,0,1,0,3038.36,0.0822001,0.0819272,0.897692,2,0.00522295,10,7.35454e-05,-3.04687,0.360434,0.163691,5.7648,0.0819272,
2,1,0,1,0,3039.11,0.0896911,0.0893851,0.951021,2,0.00592958,10,8.50071e-05,-3.02181,0.303063,0.194679,7.21105,0.0893851,
2,1,0,1,0,3039.86,0.097182,0.0968715,1.01261,2,0.00667734,10,9.80928e-05,-2.99456,0.190395,0.309882,12.2475,0.0968715,
2,1,0,1,0,3040.61,0.104673,0.10437,1.10885,2,0.00748355,10,0.000115731,-2.95513,0.185714,0.317692,13.7101,0.10437,
2,1,0,1,0,3041.36,0.112164,0.11185,1.213,2,0.0083671,10,0.000135673,-2.91614,0.218633,0.269858,12.7227,0.11185,
2,1,0,1,0,3042.11,0.119655,0.119334,1.30866,2,0.00932706,10,0.000156167,-2.88317,0.315294,0.187127,9.55953,0.119334,
2,1,0,1,0,3042.86,0.127146,0.126843,1.38457,2,0.0103524,10,0.000175623,-2.85869,0.319056,0.18492,10.0201,0.126843,
2,1,0,1,0,3043.61,0.134637,0.134327,1.44794,2,0.0114335,10,0.000194498,-2.83925,0.768246,0.0767983,4.34629,0.1343272,
2,1,0,1,0,3044.36,0.142127,0.141816,1.41871,2,0.0125317,10,0.000201195,-2.84811,-0.253753,-0.23251,-12.7957,0.141816,
2,1,0,1,0,3045.11,0.149619,0.149333,1.22178,2,0.0135448,10,0.000182452,-2.91301,-0.0802295,-0.735391,-34.9233,0.149333,
2,1,0,1,0,3045.86,0.157109,0.156796,0.964207,2,0.0143741,10,0.000151184,-3.01583,-0.0716331,-0.823642,-30.994,0.156796,
2,1,0,1,0,3046.6,0.164601,0.164289,0.790812,2,0.0150387,10,0.000129922,-3.10193,-0.100892,-0.584782,-18.0392,0.164289,
2,1,0,1,0,3047.35,0.172091,0.171804,0.686323,2,0.0156026,10,0.000117913,-3.16347,-0.16035,-0.367946,-9.91332,0.171804,
2,1,0,1,0,3048.1,0.179582,0.179287,0.629822,2,0.0161089,10,0.000112919,-3.20078,-0.240066,-0.245765,-6.06692,0.179287,
2,1,0,1,0,3048.85,0.187074,0.186791,0.596397,2,0.0165807,10,0.000111402,-3.22446,-0.40546,-0.145514,-3.37107,0.186791,
2,1,0,1,0,3049.6,0.194564,0.194207,0.572394,2,0.0170306,10,0.000111163,-3.24231,-0.57251,-0.103055,-2.30317,0.194207,
2,1,0,1,0,3050.35,0.202056,0.20176,0.55434,2,0.0174656,10,0.000111844,-3.25622,-0.58531,-0.100801,-2.1723,0.20176,
2,1,0,1,0,3051.1,0.209546,0.209246,0.542798,2,0.0178903,10,0.000113578,-3.26536,-0.803561,-0.0734232,-1.55356,0.209246,
2,1,0,1,0,3051.85,0.217038,0.216716,0.531489,2,0.0183059,10,0.000115182,-3.27451,-1.40482,-0.0419982,-0.871438,0.2167161,
2,1,0,1,0,3052.6,0.224528,0.224216,0.523372,2,0.018715,10,0.000117348,-3.28119,-1.86481,-0.0316387,-0.646564,0.224216,
2,1,0,1,0,3053.35,0.232019,0.23171,0.515591,2,0.0191183,10,0.000119467,-3.2877,-1.65192,-0.035716,-0.718846,0.23171,
2,1,0,1,0,3054.1,0.23951,0.239195,0.5114,2,0.0195171,10,0.000122324,-3.29124,-1.58313,-0.0372681,-0.742438,0.239195,
2,1,0,1,0,3054.84,0.247001,0.246679,0.50579,2,0.0199114,10,0.000124768,-3.29603,-0.938451,-0.0628695,-1.23627,0.2466794,
2,1,0,1,0,3055.59,0.254492,0.254211,0.499121,2,0.0203017,10,0.000126882,-3.30179,-1.27157,-0.0463992,-0.907293,0.254211,
2,1,0,1,0,3056.34,0.261983,0.261659,0.493829,2,0.0206881,10,0.000129215,-3.30642,-1.69894,-0.0347276,-0.670726,0.2616587,
2,1,0,1,0,3057.09,0.269474,0.269189,0.489872,2,0.0210708,10,0.000131868,-3.30992,10.3144,0.00572017,0.109384,0.269189,
2,1,0,1,0,3057.84,0.276965,0.276633,0.485773,2,0.0214501,10,0.000134381,-3.31357,-1.27624,-0.0462295,-0.876167,0.2766327,
2,1,0,1,0,3058.59,0.284456,0.284138,0.481391,2,0.0218259,10,0.000136782,-3.3175,-8.84295,-0.00667198,-0.125016,0.284138,
2,1,0,1,0,3059.34,0.291947,0.291649,0.476259,2,0.0221982,10,0.0001389,-3.32216,-0.761865,-0.0774416,-1.44009,0.291649,
2,1,0,1,0,3060.09,0.299437,0.299162,0.46914,2,0.0225671,10,0.000140349,-3.3287,-0.00137174,-43.0111,-253.413,0.299162,
2,0,0,1,0,3060.77,0.293745,0.293398,-0.0886846,2,0.0225645,10,-2.60198e-05,-4.05215,-0.0203277,-2.90244,9.56436,0.293398,
2,0,0,1,0,3061.52,0.286253,0.285937,-0.139855,2,0.0224624,10,-3.99897e-05,-3.85432,-0.0604436,-0.976117,5.34584,0.285937,
2,0,0,1,0,3062.27,0.278763,0.278459,-0.1732,2,0.0223299,10,-4.82291e-05,-3.76145,-0.1066,-0.553469,3.73467,0.278459,
2,0,0,1,0,3063.02,0.271272,0.270979,-0.201068,2,0.0221752,10,-5.44851e-05,-3.69666,-0.163552,-0.360742,2.81365,0.2709786,
2,0,0,1,0,3063.77,0.263781,0.263501,-0.220638,2,0.0220023,10,-5.81381e-05,-3.65632,-0.1761,-0.335037,2.89305,0.263501,
2,0,0,1,0,3064.52,0.25629,0.255975,-0.242754,2,0.0218139,10,-6.2139e-05,-3.61483,-0.246752,-0.239107,2.26322,0.255975,
2,0,0,1,0,3065.27,0.248799,0.24849,-0.261255,2,0.0216116,10,-6.49192e-05,-3.58293,-0.233838,-0.252311,2.56364,0.24849,
2,0,0,1,0,3066.02,0.241308,0.24099,-0.27571,2,0.0213965,10,-6.64435e-05,-3.55955,-0.322238,-0.183095,1.97907,0.24099,
2,0,0,1,0,3066.77,0.233817,0.233503,-0.29253,2,0.0211691,10,-6.83065e-05,-3.53383,-0.335043,-0.176097,2.01043,0.233503,
2,0,0,1,0,3067.51,0.226326,0.226051,-0.307556,2,0.0209294,10,-6.95235e-05,-3.51208,-0.36479,-0.161737,1.95906,0.2260513,
2,0,0,1,0,3068.26,0.218835,0.218522,-0.325312,2,0.0206774,10,-7.1088e-05,-3.4877,-0.275156,-0.214424,2.71958,0.2185224,
2,0,0,1,0,3069.01,0.211344,0.211017,-0.343486,2,0.0204129,10,-7.24813e-05,-3.46409,-0.327703,-0.180041,2.39961,0.211017,
2,0,0,1,0,3069.76,0.203854,0.203499,-0.361846,2,0.0201348,10,-7.36352e-05,-3.44148,-0.321232,-0.183668,2.60577,0.203499,
2,0,0,1,0,3070.51,0.196362,0.196084,-0.382128,2,0.0198423,10,-7.49292e-05,-3.41779,-0.370415,-0.159281,2.36955,0.196084,
2,0,0,1,0,3071.26,0.188872,0.188575,-0.406074,2,0.0195328,10,-7.65753e-05,-3.39139,-0.200213,-0.294686,4.66955,0.188575,
2,0,0,1,0,3072.01,0.18138,0.181058,-0.439294,2,0.0192024,10,-7.95378e-05,-3.35724,-0.219891,-0.268315,4.58927,0.181058,
2,0,0,1,0,3072.76,0.17389,0.173605,-0.482708,2,0.0188442,10,-8.38004e-05,-3.31632,-0.149283,-0.395222,7.43425,0.173605,
2,0,0,1,0,3073.51,0.166398,0.166103,-0.544502,2,0.0184466,10,-9.04435e-05,-3.264,-0.135888,-0.43418,9.2832,0.166103,
2,0,0,1,0,3074.26,0.158907,0.158591,-0.643921,2,0.0179888,10,-0.00010212,-3.19117,-0.0876277,-0.673303,17.0249,0.158591,
2,0,0,1,0,3075.01,0.151417,0.151121,-0.809217,2,0.0174333,10,-0.00012229,-3.09193,-0.0685221,-0.861036,27.3447,0.151121,
2,0,0,1,0,3075.75,0.143925,0.143646,-1.04742,2,0.0167258,10,-0.000150458,-2.97988,-0.0649357,-0.908591,37.1114,0.143646,
2,0,0,1,0,3076.5,0.136435,0.13616,-1.29636,2,0.0158286,10,-0.000176512,-2.88727,-0.103464,-0.570246,28.7548,0.13616,
2,0,0,1,0,3077.25,0.128943,0.128638,-1.44713,2,0.0147789,10,-0.000186156,-2.83949,-0.313573,-0.188154,10.5641,0.128638,
2,0,0,1,0,3078,0.121453,0.12112,-1.47613,2,0.0136634,10,-0.000178789,-2.83088,1.10459,0.0534137,-3.07446,0.12112,
2,0,0,1,0,3078.75,0.113962,0.113669,-1.42405,2,0.0125571,10,-0.000161871,-2.84647,0.335671,0.175767,-9.80356,0.113669,
2,0,0,1,0,3079.5,0.106471,0.106158,-1.35051,2,0.0114991,10,-0.000143367,-2.8695,0.312189,0.188988,-10.0059,0.1061575,
2,0,0,1,0,3080.25,0.0989798,0.098688,-1.26557,2,0.0105042,10,-0.000124897,-2.89771,0.286398,0.206007,-10.1471,0.098688,
2,0,0,1,0,3081,0.0914889,0.0911665,-1.1882,2,0.00957384,10,-0.000108324,-2.92511,0.320402,0.184144,-8.50287,0.0911665,
2,0,0,1,0,3081.75,0.083998,0.0837034,-1.12274,2,0.00869689,10,-9.39769e-05,-2.94972,0.301259,0.195845,-8.57335,0.0837034,
2,0,0,1,0,3082.5,0.076507,0.0761724,-1.07678,2,0.00785925,10,-8.20208e-05,-2.96787,0.44883,0.131453,-5.5247,0.0761724,
2,0,0,1,0,3083.25,0.069016,0.0687124,-1.03404,2,0.00705338,10,-7.10512e-05,-2.98546,0.382052,0.154429,-6.24541,0.0687124,
2,0,0,1,0,3083.99,0.0615251,0.0612313,-0.993475,2,0.00627751,10,-6.08317e-05,-3.00284,0.457904,0.128848,-5.00901,0.0612313,
2,0,0,1,0,3084.74,0.0540341,0.0537193,-0.951476,2,0.00553436,10,-5.11127e-05,-3.0216,0.346484,0.170282,-6.30558,0.0537193,
2,0,0,1,0,3085.49,0.0465441,0.0462264,-0.900108,2,0.0048268,10,-4.16087e-05,-3.04571,0.336631,0.175266,-6.1641,0.0462264,
2,0,0,1,0,3086.24,0.0390523,0.0387507,-0.854134,2,0.0041559,10,-3.30983e-05,-3.06847,0.282023,0.209202,-6.95456,0.0387507,
2,0,0,1,0,3086.99,0.0315618,0.0312466,-0.812326,2,0.003519,10,-2.53824e-05,-3.09027,0.412882,0.142898,-4.52063,0.03124663,
2,0,0,1,0,3087.74,0.0240704,0.0237756,-0.778991,2,0.00290932,10,-1.8521e-05,-3.10847,0.601915,0.0980205,-2.99304,0.0237756,
2,0,0,1,0,3088.49,0.0165796,0.0162861,-0.765348,2,0.00231742,10,-1.24645e-05,-3.11614,1.66211,0.035497,-1.06045,0.0162861,
2,0,0,1,0,3089.24,0.00908845,0.00879205,-0.758076,2,0.00173339,10,-6.66504e-06,-3.12029,8.59878,0.00686144,-0.203512,0.00879205,
2,0,0,1,0,3089.99,0.00159728,0.00121947,-0.776018,2,0.00114724,10,-9.46332e-07,-3.11013, , , ,0.001219471,
2,0,0,1,0,3090.13,0.000199195,-0.000163081,-0.767954,2,0.00103685,10,1.25239e-07,-3.11466, , , ,-0.000163081,