File: Figure_codes/Fig_3-5/rawdata_trumpetplot_data/after 10th/20221101_1-115_003_TrumpetPlot_ParaChange_from10_every3_14_CV_C01_4.csv
mode,ox/red,error,control changes,counter inc.,time/s,control/V,Ewe/V,<I>/mA,cycle number,(Q-Qo)/C,I Range,P/W,log(|I|),Tafel slope mV/dec,alpha_eff,dI/d(E-IR),E-IR/V,
2,1,0,1,0,9079.63,2.44065e-05,-0.000115363,44.9507,5,0.0000000E+000,10,-5.18565e-06,-1.34726, , , ,-0.000115363,
2,1,0,1,0,9079.64,0.0133084,0.0129955,48.7005,5,0.000618257,10,0.000632888,-1.31247,0.547268,0.107808,204.101,0.0129955,
2,1,0,1,0,9079.66,0.0273414,0.0269621,51.019,5,0.00131762,10,0.00137558,-1.29227,0.845239,0.0698028,138.625,0.0269621,
2,1,0,1,0,9079.67,0.0413245,0.0409637,52.6644,5,0.00204399,10,0.00215733,-1.27848,1.12711,0.0523463,107.493,0.0409637,
2,1,0,1,0,9079.68,0.0553076,0.0549632,54.0961,5,0.00279144,10,0.0029733,-1.26683,1.1738,0.0502639,106.163,0.0549632,
2,1,0,1,0,9079.7,0.0693407,0.0689383,55.5455,5,0.00355922,10,0.00382921,-1.25535,1.10965,0.0531697,115.419,0.0689383,
2,1,0,1,0,9079.71,0.0833238,0.082977,57.4,5,0.00434953,10,0.00476288,-1.24109,0.93687,0.0629757,141.11,0.082977,
2,1,0,1,0,9079.73,0.0973069,0.0969627,59.53,5,0.00516778,10,0.00577219,-1.22526,0.803379,0.0734398,170.885,0.0969627,
2,1,0,1,0,9079.74,0.11134,0.111005,62.0928,5,0.00601916,10,0.00689259,-1.20696,0.743346,0.0793708,192.431,0.111005,
2,1,0,1,0,9079.75,0.125323,0.12496,64.9229,5,0.00690823,10,0.00811274,-1.1876,0.706679,0.0834891,211.619,0.12496,
2,1,0,1,0,9079.77,0.139306,0.138955,68.0621,5,0.00783888,10,0.00945755,-1.16709,0.646603,0.0912461,242.664,0.138955,
2,1,0,1,0,9079.78,0.153339,0.152964,71.6763,5,0.0088171,10,0.0109639,-1.14462,0.614073,0.0960797,268.966,0.152964,
2,1,0,1,0,9079.8,0.167322,0.166976,75.6129,5,0.00984841,10,0.0126255,-1.1214,0.617101,0.0956083,282.008,0.166976,
2,1,0,1,0,9079.81,0.181305,0.180984,79.4774,5,0.0109348,10,0.0143841,-1.09976,0.701092,0.0841544,260.697,0.180984,
2,1,0,1,0,9079.82,0.195338,0.194942,82.7331,5,0.0120718,10,0.0161282,-1.08232,1.03718,0.0568851,183.131,0.194942,
2,1,0,1,0,9079.84,0.209322,0.209004,84.4356,5,0.0132446,10,0.0176474,-1.07347,6.89811,0.00855307,28.0181,0.209004,
2,1,0,1,0,9079.85,0.223305,0.223005,83.1983,5,0.0144219,10,0.0185536,-1.07989,-0.871562,-0.0676945,-218.145,0.223005,
2,1,0,1,0,9079.87,0.237338,0.237063,78.2071,5,0.0155557,10,0.01854,-1.10675,-0.372483,-0.158396,-480.095,0.237063,
2,1,0,1,0,9079.88,0.251321,0.251049,70.242,5,0.0165963,10,0.0176342,-1.1534,-0.264073,-0.223423,-610.623,0.251049,
2,1,0,1,0,9079.89,0.265304,0.26506,61.6035,5,0.0175178,10,0.0163287,-1.21039,-0.244719,-0.241093,-580.619,0.26506,
2,1,0,1,0,9079.91,0.279337,0.279086,54.1328,5,0.0183256,10,0.0151077,-1.26654,-0.260037,-0.226891,-481.105,0.279086,
2,1,0,1,0,9079.92,0.29332,0.293046,48.3256,5,0.0190402,10,0.0141616,-1.31582,-0.309856,-0.190411,-362.293,0.293046,
2,1,0,1,0,9079.93,0.298714,0.298665,42.2962,5,0.0194123,10,0.0126324,-1.3737,0.0298643,1.9756,2657.74,0.298665,
2,1,0,1,0,9079.94,0.28473,0.284605,15.7857,5,0.0197926,10,0.0044927,-1.80173,0.0259297,2.27538,1343.88,0.284605,
2,1,0,1,0,9079.96,0.270747,0.270525,1.69517,5,0.019905,10,0.000458585,-2.77079,0.0428367,1.37732,779.023,0.270525,
2,0,0,1,0,9079.97,0.256714,0.256487,-6.90009,5,0.0198628,10,-0.00176979,-2.16114,-0.0259858,-2.27047,490.786,0.2564871,
2,0,0,1,0,9079.99,0.242731,0.242466,-12.4762,5,0.0197241,10,-0.00302506,-1.90392,-0.0837503,-0.704475,330.315,0.242466,
2,0,0,1,0,9080,0.228748,0.228503,-16.3809,5,0.0195203,10,-0.00374308,-1.78566,-0.15321,-0.385092,242.846,0.228503,
2,0,0,1,0,9080.01,0.214715,0.214405,-19.3418,5,0.0192688,10,-0.00414698,-1.7135,-0.23554,-0.250488,188.015,0.214405,
2,0,0,1,0,9080.03,0.200732,0.200469,-21.7435,5,0.0189804,10,-0.00435889,-1.66267,-0.311309,-0.189522,160.328,0.200469,
2,0,0,1,0,9080.04,0.186735,0.18641,-23.9105,5,0.0186607,10,-0.00445715,-1.62141,-0.356461,-0.165516,154.29,0.18641,
2,0,0,1,0,9080.06,0.172716,0.172433,-26.0868,5,0.0183104,10,-0.00449822,-1.58358,-0.370021,-0.15945,162.584,0.172433,
2,0,0,1,0,9080.07,0.158733,0.158414,-28.5855,5,0.017928,10,-0.00452836,-1.54385,-0.324847,-0.181624,203.394,0.158414,
2,0,0,1,0,9080.08,0.144719,0.144464,-31.9429,5,0.0175055,10,-0.00461459,-1.49563,-0.261255,-0.225833,282.837,0.144464,
2,0,0,1,0,9080.1,0.130717,0.130437,-36.6017,5,0.017027,10,-0.0047742,-1.4365,-0.216904,-0.27201,390.502,0.130437,
2,0,0,1,0,9080.11,0.116733,0.116442,-42.8546,5,0.0164719,10,-0.0049901,-1.368,-0.200317,-0.294533,493.313,0.1164424,
2,0,0,1,0,9080.13,0.102703,0.102483,-50.2527,5,0.0158205,10,-0.00515006,-1.29884,-0.216056,-0.273077,533.42,0.1024832,
2,0,0,1,0,9080.14,0.0887173,0.0885304,-57.4964,5,0.0150651,10,-0.00509018,-1.24036,-0.269665,-0.21879,488.5,0.0885304,
2,0,0,1,0,9080.15,0.0747341,0.0745892,-63.8441,5,0.0142145,10,-0.00476208,-1.19488,-0.346974,-0.170041,421.818,0.0745892,
2,0,0,1,0,9080.17,0.0607011,0.0605357,-69.0955,5,0.0132818,10,-0.00418274,-1.16055,-0.491357,-0.120076,322.482,0.0605357,
2,0,0,1,0,9080.18,0.046718,0.0464259,-72.8272,5,0.0122862,10,-0.00338107,-1.13771,-0.826353,-0.071398,201.991,0.0464259,
2,0,0,1,0,9080.2,0.0327349,0.032473,-74.7616,5,0.0112511,10,-0.00242774,-1.12632,-1.978,-0.0298281,86.7694,0.032473,
2,0,0,1,0,9080.21,0.0187018,0.0184364,-75.419,5,0.0101988,10,-0.00139046,-1.12252,-12.9244,-0.00456502,13.4074,0.0184364,
2,0,0,1,0,9080.22,0.00471873,0.00441681,-75.1928,5,0.00914388,10,-0.000332113,-1.12382,5.07584,0.0116237,-34.0803,0.00441681,
2,0,0,1,0,9080.24,-0.00926438,-0.00957949,-74.471,5,0.00809552,10,0.000713394,-1.12801,2.31579,0.0254772,-73.951,-0.00957949,
2,0,0,1,0,9080.25,-0.0232974,-0.0236522,-73.1881,5,0.00706151,10,0.00173106,-1.13556,1.44755,0.0407585,-116.193,-0.0236522,
2,0,0,1,0,9080.27,-0.0372805,-0.0376251,-71.1622,5,0.00605051,10,0.00267749,-1.14775,0.979384,0.0602419,-167.041,-0.0376251,
2,0,0,1,0,9080.28,-0.0512636,-0.0516204,-68.606,5,0.00507226,10,0.00354147,-1.16364,0.844366,0.0698749,-187.022,-0.0516204,
2,0,0,1,0,9080.29,-0.0652967,-0.065605,-66.1174,5,0.00413002,10,0.00433763,-1.17968,0.939021,0.0628314,-162.266,-0.065605,
2,0,0,1,0,9080.31,-0.0792798,-0.0796607,-64.0966,5,0.00321941,10,0.00510598,-1.19317,1.24599,0.047352,-118.682,-0.0796607,
2,0,0,1,0,9080.32,-0.0932629,-0.0936284,-62.8206,5,0.00233201,10,0.0058818,-1.2019,2.21614,0.0266228,-65.3729,-0.0936284,
2,0,0,1,0,9080.34,-0.107296,-0.107639,-62.2892,5,0.00145726,10,0.00670471,-1.20559,8.85503,0.00666288,-16.2127,-0.107639,
2,0,0,1,0,9080.35,-0.121279,-0.121613,-62.2501,5,0.000586087,10,0.0075704,-1.20586,-9.4668,-0.00623231,15.1598,-0.121613,
2,0,0,1,0,9080.36,-0.135262,-0.135597,-62.6813,5,-0.000287964,10,0.00849941,-1.20286,-3.31111,-0.0178188,43.6257,-0.135597,
2,0,0,1,0,9080.38,-0.149295,-0.149629,-63.5048,5,-0.0011709,10,0.00950214,-1.19719,-2.16681,-0.0272289,67.4868,-0.149629,
2,0,0,1,0,9080.39,-0.163278,-0.163605,-64.4906,5,-0.0020668,10,0.010551,-1.1905,-1.91511,-0.0308076,77.5829,-0.163605,
2,0,0,1,0,9080.41,-0.177261,-0.177573,-65.659,5,-0.00297783,10,0.0116593,-1.18271,-1.73491,-0.0340076,87.1593,-0.177573,
2,0,0,1,0,9080.42,-0.191295,-0.191578,-67.0175,5,-0.00390633,10,0.0128391,-1.17381,-1.51737,-0.0388832,101.656,-0.191578,
2,0,0,0,1,9080.43,-0.199984,-0.200532,-67.556,5,-0.00453375,10,0.0135472,-1.17034,-0.0351944,-1.6764,3840.04,-0.200532,
2,0,0,1,1,9080.44,-0.186686,-0.187127,-40.4883,5,-0.00521525,10,0.00757644,-1.39267,-0.0603976,-0.97686,1552.43,-0.187127,
2,0,0,1,1,9080.46,-0.172667,-0.173086,-22.5056,5,-0.0056474,10,0.0038954,-1.64771,-0.045988,-1.28294,1102.22,-0.173086,
2,0,0,1,1,9080.47,-0.158684,-0.159101,-8.88981,5,-0.00586212,10,0.00141438,-2.05111,-0.0191265,-3.08473,868.61,-0.159101,
2,1,0,1,1,9080.48,-0.14467,-0.145142,2.10598,5,-0.00590626,10,-0.000305665,-2.67655,0.0563873,1.04633,718.589,-0.145142,
2,1,0,1,1,9080.5,-0.130668,-0.131174,11.2394,5,-0.00580981,10,-0.00147432,-1.94926,0.0393179,1.50059,604.313,-0.131174,
2,1,0,1,1,9080.51,-0.116685,-0.117106,19.0843,5,-0.00559546,10,-0.00223488,-1.71932,0.0827217,0.713234,517.491,-0.117106,
2,1,0,1,1,9080.53,-0.102654,-0.103028,25.8723,5,-0.00527932,10,-0.00266556,-1.58717,0.131542,0.448524,446.487,-0.103028,
2,1,0,1,1,9080.54,-0.0886685,-0.0890411,31.6167,5,-0.00487538,10,-0.00281518,-1.50008,0.188788,0.31252,383.003,-0.0890411,
2,1,0,1,1,9080.55,-0.0746854,-0.0750925,36.6269,5,-0.00439637,10,-0.0027504,-1.4362,0.252082,0.23405,332.915,-0.0750925,
2,1,0,1,1,9080.57,-0.0606523,-0.0610739,41.0333,5,-0.00385208,10,-0.00250607,-1.38686,0.324342,0.181907,289.842,-0.0610739,
2,1,0,1,1,9080.58,-0.0466692,-0.0470649,44.7155,5,-0.00325092,10,-0.00210453,-1.34954,0.418301,0.141047,245.468,-0.0470649,
2,1,0,1,1,9080.6,-0.0326861,-0.0330527,47.8476,5,-0.00260203,10,-0.00158149,-1.32014,0.54122,0.109013,203.11,-0.0330527,
2,1,0,1,1,9080.61,-0.018653,-0.0190277,50.5015,5,-0.00191302,10,-0.000960928,-1.2967,0.692478,0.0852013,167.433,-0.0190277,
2,1,0,1,1,9080.62,-0.00466992,-0.0050664,52.5224,5,-0.00119111,10,-0.0002661,-1.27966, , , ,-0.0050664,
2,1,0,0,1,9080.63,-0.000175352,-0.000649808,53.071,5,-0.000953472,10,-3.44859e-05,-1.27514, , , ,-0.000649808,