File: Figure_codes/Fig_3-5/rawdata_trumpetplot_data/after 10th/20221101_1-115_003_TrumpetPlot_ParaChange_from10_every3_09_CV_C01_7.csv
mode,ox/red,error,control changes,counter inc.,time/s,control/V,Ewe/V,<I>/mA,cycle number,(Q-Qo)/C,I Range,P/W,log(|I|),Tafel slope mV/dec,alpha_eff,dI/d(E-IR),E-IR/V,
2,0,0,0,0,14973.4,2.44065e-05,-0.000382585,-5.34093,8,0.0000000E+000,10,2.04336e-06,-2.27238, , , ,-0.000382585,
2,1,0,1,0,14973.5,0.00978761,0.00945129,2.25115,8,-1.81655e-05,10,2.12763e-05,-2.6476,0.0190716,3.0936,256.923,0.00945129,
2,1,0,1,0,14973.6,0.0197755,0.0194836,3.70294,8,0.000293061,10,7.21466e-05,-2.43145,0.0974479,0.605452,87.3339,0.0194836,
2,1,0,1,0,14973.7,0.0297635,0.0294847,4.41864,8,0.000701825,10,0.000130282,-2.35471,0.169442,0.348203,59.9316,0.0294847,
2,1,0,1,0,14973.8,0.0397514,0.0394576,5.00099,8,0.00117376,10,0.000197327,-2.30094,0.185422,0.318193,62.1869,0.0394576,
2,1,0,1,0,14973.9,0.0497484,0.0494423,5.55861,8,0.00170279,10,0.00027483,-2.25503,0.247824,0.238072,51.6455,0.0494423,
2,1,0,1,0,14974,0.0597273,0.0594197,6.08928,8,0.0022849,10,0.000361823,-2.21543,0.263758,0.22369,53.0867,0.05941971,
2,1,0,1,0,14974.1,0.0697152,0.0694006,6.56296,8,0.00291824,10,0.000455473,-2.1829,0.347719,0.169677,43.484,0.0694006,
2,1,0,1,0,14974.2,0.0797031,0.0794302,6.99785,8,0.00359693,10,0.000555841,-2.15504,0.416192,0.141761,38.6688,0.07943017,
2,1,0,1,0,14974.3,0.0896911,0.0893776,7.36892,8,0.00431545,10,0.000658616,-2.1326,0.425791,0.138566,39.8885,0.0893776,
2,1,0,1,0,14974.4,0.099679,0.0993603,7.854,8,0.00507385,10,0.000780375,-2.10491,0.308588,0.191193,58.5537,0.0993603,
2,1,0,1,0,14974.5,0.109667,0.109384,8.57932,8,0.0058924,10,0.000938438,-2.06655,0.225864,0.261219,87.4722,0.109384,
2,1,0,1,0,14974.6,0.119655,0.11935,9.45116,8,0.00679443,10,0.00112799,-2.02452,0.278127,0.212133,78.2115,0.11935,
2,1,0,1,0,14974.7,0.129643,0.129302,10.1346,8,0.00777587,10,0.00131042,-1.99419,0.417539,0.141304,55.8455,0.129302,
2,1,0,1,0,14974.8,0.139631,0.139313,10.5983,8,0.00881412,10,0.00147648,-1.97477,0.697286,0.0846138,34.9958,0.139313,
2,1,0,1,0,14974.9,0.149619,0.149284,10.5997,8,0.00988032,10,0.00158236,-1.97471,-0.405827,-0.145382,-59.9097,0.149284,
2,1,0,1,0,14975,0.159607,0.159281,9.12482,8,0.0108803,10,0.00145341,-2.03978,-0.0923162,-0.639108,-227.076,0.159281,
2,1,0,1,0,14975.1,0.169595,0.169294,6.87369,8,0.0116764,10,0.00116367,-2.16281,-0.0831063,-0.709934,-190.711,0.169294,
2,1,0,1,0,14975.2,0.179582,0.179246,5.51213,8,0.0122871,10,0.000988026,-2.25868,-0.140164,-0.420935,-90.873,0.179246,
2,1,0,1,0,14975.3,0.18957,0.189241,4.85658,8,0.0128025,10,0.000919065,-2.31367,-0.237629,-0.248286,-47.1275,0.189241,
2,1,0,1,0,14975.4,0.199558,0.199276,4.50261,8,0.0132684,10,0.000897262,-2.34654,-0.402963,-0.146415,-25.7017,0.199276,
2,1,0,1,0,14975.5,0.209546,0.209255,4.27999,8,0.0137063,10,0.00089561,-2.36856,-0.4679,-0.126095,-21.0645,0.209255,
2,1,0,1,0,14975.6,0.219534,0.219196,4.12665,8,0.0141258,10,0.000904546,-2.3844,-0.941948,-0.0626362,-10.08,0.219196,
2,1,0,1,0,14975.7,0.229522,0.229203,4.01082,8,0.0145329,10,0.000919294,-2.39677,-0.914229,-0.0645353,-10.1238,0.229203,
2,1,0,1,0,14975.8,0.23951,0.239218,3.93923,8,0.0149309,10,0.000942336,-2.40459,-2.0489,-0.0287959,-4.43365,0.239218,
2,1,0,1,0,14975.9,0.249498,0.249189,3.88588,8,0.0153218,10,0.000968322,-2.41051,-1.73771,-0.0339527,-5.1463,0.249189,
2,1,0,1,0,14976,0.259486,0.259184,3.83297,8,0.0157076,10,0.000993442,-2.41646,-0.968584,-0.0609137,-9.10336,0.259184,
2,1,0,1,0,14976.1,0.269474,0.269119,3.78129,8,0.0160884,10,0.00101762,-2.42236,-1.56568,-0.0376834,-5.56454,0.269119,
2,1,0,1,0,14976.2,0.279462,0.279144,3.73805,8,0.0164646,10,0.00104345,-2.42736,-2.90416,-0.0203157,-2.9649,0.279144,
2,1,0,1,0,14976.3,0.28945,0.289182,3.69022,8,0.0168362,10,0.00106715,-2.43295,-3.94379,-0.0149602,-2.15667,0.289182,
2,1,0,1,0,14976.4,0.299438,0.299121,3.64824,8,0.017203,10,0.00109127,-2.43792,-0.0259338,-2.27502,-293.741,0.299121,
2,0,0,1,0,14976.5,0.291747,0.291419,-1.15107,8,0.0172322,10,-0.000335445,-2.9389,-0.0209912,-2.81071,119.608,0.2914193,
2,0,0,1,0,14976.6,0.281759,0.281458,-1.75232,8,0.0170816,10,-0.000493204,-2.75639,-0.10902,-0.541184,36.8838,0.281458,
2,0,0,1,0,14976.7,0.271771,0.271448,-2.05043,8,0.0168911,10,-0.000556584,-2.68816,-0.171937,-0.34315,27.3738,0.271448,
2,0,0,1,0,14976.8,0.261783,0.26148,-2.26809,8,0.0166755,10,-0.000593059,-2.64434,-0.320837,-0.183894,16.2299,0.26148,
2,0,0,1,0,14976.9,0.251795,0.251474,-2.43708,8,0.0164408,10,-0.000612862,-2.61313,-0.340854,-0.173095,16.4642,0.251474,
2,0,0,1,0,14977,0.241807,0.241479,-2.58867,8,0.0161898,10,-0.00062511,-2.58692,-0.36826,-0.160213,16.2249,0.241479,
2,0,0,1,0,14977.1,0.231815,0.231497,-2.73912,8,0.0159244,10,-0.000634099,-2.56239,-0.411186,-0.143487,15.2949,0.231497,
2,0,0,1,0,14977.2,0.221831,0.221507,-2.86138,8,0.0156457,10,-0.000633814,-2.54342,-0.50597,-0.116608,13.0093,0.221507,
2,0,0,1,0,14977.3,0.211843,0.211522,-2.99393,8,0.0153536,10,-0.000633284,-2.52376,-0.606214,-0.0973254,11.3626,0.2115223,
2,0,0,1,0,14977.4,0.201856,0.201542,-3.13031,8,0.0150481,10,-0.000630889,-2.50441,-0.5364,-0.109992,13.4469,0.201542,
2,0,0,1,0,14977.5,0.191868,0.19156,-3.28438,8,0.0147283,10,-0.000629156,-2.48355,-0.429028,-0.13752,17.6449,0.19156,
2,0,0,1,0,14977.6,0.18188,0.181529,-3.47004,8,0.0143927,10,-0.000629913,-2.45966,-0.33159,-0.177931,24.0467,0.181529,
2,0,0,1,0,14977.7,0.171892,0.171628,-3.69869,8,0.0140358,10,-0.000634799,-2.43195,-0.323729,-0.182251,26.3484,0.171628,
2,0,0,1,0,14977.8,0.161904,0.161582,-4.05842,8,0.0136502,10,-0.000655768,-2.39164,-0.210202,-0.280683,44.466,0.161582,
2,0,0,1,0,14977.9,0.151916,0.151613,-4.63627,8,0.0132186,10,-0.000702918,-2.33383,-0.136079,-0.433571,78.8105,0.151613,
2,0,0,1,0,14978,0.141928,0.141589,-5.72102,8,0.0127063,10,-0.000810036,-2.24253,-0.0930464,-0.634092,141.747,0.141589,
2,0,0,1,0,14978.1,0.13194,0.131651,-7.35337,8,0.0120576,10,-0.000968079,-2.13351,-0.0953464,-0.618796,177.678,0.131651,
2,0,0,1,0,14978.2,0.121952,0.121663,-9.07396,8,0.0112348,10,-0.00110396,-2.0422,-0.143336,-0.411622,145.464,0.121663,
2,0,0,1,0,14978.3,0.111964,0.111652,-10.2809,8,0.0102632,10,-0.00114788,-1.98797,-0.265219,-0.222458,89.1657,0.111652,
2,0,0,1,0,14978.4,0.101976,0.101637,-10.8602,8,0.00920185,10,-0.0011038,-1.96416,-1.17619,-0.0501621,21.219,0.101637,
2,0,0,1,0,14978.5,0.0919883,0.0916648,-10.7342,8,0.00811789,10,-0.000983949,-1.96923,0.632365,0.0933005,-39.073,0.0916648,
2,0,0,1,0,14978.6,0.0820004,0.0816692,-10.0943,8,0.00707602,10,-0.000824392,-1.99592,0.313831,0.187999,-74.0111,0.0816692,
2,0,0,1,0,14978.7,0.0720124,0.0716677,-9.44943,8,0.0061028,10,-0.000677219,-2.02459,0.405688,0.145432,-53.6399,0.0716677,
2,0,0,1,0,14978.8,0.0620245,0.0617064,-9.03519,8,0.00518203,10,-0.000557529,-2.04406,0.588632,0.100232,-35.3339,0.0617064,
2,0,0,1,0,14978.9,0.0520366,0.051685,-8.71755,8,0.00429603,10,-0.000450567,-2.05961,0.578519,0.101985,-34.6877,0.051685,
2,0,0,1,0,14979,0.0420486,0.0417659,-8.39472,8,0.00344112,10,-0.000350613,-2.07599,0.637493,0.09255,-30.3607,0.0417659,
2,0,0,1,0,14979.1,0.0320607,0.0317501,-8.04706,8,0.00262029,10,-0.000255495,-2.09436,0.462081,0.127683,-40.0504,0.0317501,
2,0,0,1,0,14979.2,0.0220728,0.0217379,-7.59423,8,0.00183911,10,-0.000165082,-2.11952,0.368444,0.160133,-47.4864,0.0217379,
2,0,0,1,0,14979.3,0.0120848,0.011742,-7.14999,8,0.00110334,10,-8.39552e-05,-2.14569,0.365052,0.161621,-45.0963,0.01174201,
2,0,0,1,0,14979.4,0.0020969,0.00173611,-6.8608,8,0.000407795,10,-1.19111e-05,-2.16363,0.847303,0.0696327,-18.5376,0.00173611,
2,0,0,1,0,14979.5,-0.00789103,-0.00824407,-6.62983,8,-0.00026355,10,5.46568e-05,-2.1785,1.84832,0.0319209,-8.27688,-0.00824407,
2,0,0,1,0,14979.6,-0.017879,-0.018274,-6.62536,8,-0.000923569,10,0.000121072,-2.17879,-2.33739,-0.0252418,6.51656,-0.018274,
2,0,0,1,0,14979.7,-0.0278669,-0.0282605,-6.71887,8,-0.00158852,10,0.000189879,-2.1727,-1.2021,-0.0490809,12.884,-0.0282605,
2,0,0,1,0,14979.8,-0.0378548,-0.0382074,-6.9104,8,-0.00226816,10,0.000264029,-2.1605,-0.798954,-0.0738465,19.8963,-0.0382074,
2,0,0,1,0,14979.9,-0.0478428,-0.0481972,-7.15863,8,-0.00297021,10,0.000345026,-2.14517,-0.498263,-0.118411,33.1375,-0.0481972,
2,0,0,1,0,14980,-0.0578216,-0.058179,-7.48865,8,-0.00370075,10,0.000435682,-2.1256,-0.477582,-0.123539,36.119,-0.058179,
2,0,0,1,0,14980.1,-0.0678187,-0.0681866,-7.89823,8,-0.00446842,10,0.000538553,-2.10247,-0.403674,-0.146158,45.0379,-0.0681866,
2,0,0,1,0,14980.2,-0.0778066,-0.0781747,-8.38317,8,-0.00528105,10,0.000655352,-2.07659,-0.379799,-0.155345,50.8821,-0.0781747,
2,0,0,1,0,14980.3,-0.0877945,-0.0881469,-8.96616,8,-0.00614721,10,0.00079034,-2.04739,-0.335098,-0.176068,61.6256,-0.0881469,
2,0,0,1,0,14980.4,-0.0977825,-0.0981487,-9.55343,8,-0.00707244,10,0.000937657,-2.01984,-0.369117,-0.159841,59.6059,-0.0981487,
2,0,0,1,1,14980.5,-0.0927386,-0.0930763,-1.5087,8,-0.00762039,10,0.000140425,-2.8214,-0.00490005,-12.0407,611.502,-0.0930763,
2,1,0,1,1,14980.6,-0.0827529,-0.0830923,2.16298,8,-0.00755837,10,-0.000179727,-2.66495,0.021009,2.80832,229.401,-0.0830923,
2,1,0,1,1,14980.7,-0.0727627,-0.0731327,3.76099,8,-0.00725286,10,-0.000275051,-2.4247,0.0767247,0.768983,112.149,-0.0731327,
2,1,0,1,1,14980.8,-0.0627748,-0.063107,4.56302,8,-0.00683267,10,-0.000287958,-2.34075,0.178351,0.330809,58.8671,-0.063107,
2,1,0,1,1,14980.9,-0.0527868,-0.0531101,4.99494,8,-0.00635261,10,-0.000265282,-2.30147,0.398105,0.148202,28.8673,-0.0531101,
2,1,0,1,1,14981,-0.0427989,-0.0431482,5.21626,8,-0.00584124,10,-0.000225072,-2.28264,0.665193,0.0886961,18.0519,-0.0431482,
2,1,0,1,1,14981.1,-0.0328109,-0.033159,5.31637,8,-0.00531512,10,-0.000176286,-2.27438,3.35684,0.017576,3.64035,-0.033159,
2,1,0,1,1,14981.2,-0.022823,-0.0231592,5.33674,8,-0.00478338,10,-0.000123594,-2.27272,22.8713,0.00257965,0.536547,-0.0231592,
2,1,0,1,1,14981.3,-0.0128351,-0.0132301,5.31671,8,-0.0042514,10,-7.03406e-05,-2.27436,-4.33423,-0.0136126,-2.82481,-0.01323009,
2,1,0,1,1,14981.4,-0.00284713,-0.00323987,5.30734,8,-0.00372064,10,-1.71951e-05,-2.27512,-25.8072,-0.00228619,-0.473881,-0.00323987,
2,1,0,1,1,14981.4,-2.55332e-05,-0.000458935,5.33105,8,-0.00357136,10,-2.4466e-06,-2.27319, , , ,-0.000458935,