File: Figure_codes/Fig_3-5/rawdata_trumpetplot_data/after 10th/20221101_1-115_003_TrumpetPlot_ParaChange_from10_every3_12_CV_C01_5.csv
mode,ox/red,error,control changes,counter inc.,time/s,control/V,Ewe/V,<I>/mA,cycle number,(Q-Qo)/C,I Range,P/W,log(|I|),Tafel slope mV/dec,alpha_eff,dI/d(E-IR),E-IR/V,
2,1,0,1,0,11047.2,2.44065e-05,-0.000439847,18.9568,6,0.0000000E+000,10,-8.33808e-06,-1.72224, , , ,-0.000439847,
2,1,0,1,0,11047.2,0.0104008,0.0100338,22.6787,6,0.000361556,10,0.000227553,-1.64438,0.201229,0.293198,258.017,0.0100338,
2,1,0,1,0,11047.2,0.0212099,0.0209136,24.978,6,0.000791871,10,0.00052238,-1.60244,0.322038,0.183208,178.053,0.0209136,
2,1,0,1,0,11047.2,0.0320052,0.031664,26.6948,6,0.0012576,10,0.000845263,-1.57357,0.416297,0.141726,147.473,0.031664,
2,1,0,1,0,11047.2,0.0428033,0.0424006,28.2103,6,0.00175201,10,0.00119613,-1.54959,0.477399,0.123586,136.015,0.0424006,
2,1,0,1,0,11047.3,0.0535986,0.0532655,29.6885,6,0.00227316,10,0.00158137,-1.52741,0.487835,0.120943,140.15,0.0532655,
2,1,0,1,0,11047.3,0.0644077,0.0640763,31.2584,6,0.00282177,10,0.00200292,-1.50503,0.476315,0.123868,151.149,0.0640763,
2,1,0,1,0,11047.3,0.075203,0.0748798,32.9303,6,0.0033995,10,0.00246581,-1.4824,0.463403,0.127319,163.674,0.0748798,
2,1,0,1,0,11047.3,0.0860011,0.0856079,34.7133,6,0.00400837,10,0.00297173,-1.4595,0.477688,0.123512,167.367,0.0856079,
2,1,0,1,0,11047.3,0.0968075,0.0963604,36.5193,6,0.00464986,10,0.00351901,-1.43748,0.491448,0.120053,171.236,0.0963604,
2,1,0,1,0,11047.4,0.107606,0.107273,38.4582,6,0.00532483,10,0.00412552,-1.41501,0.492966,0.119684,179.579,0.107273,
2,1,0,1,0,11047.4,0.118401,0.118069,40.3735,6,0.00603448,10,0.00476686,-1.3939,0.512751,0.115066,181.423,0.118069,
2,1,0,1,0,11047.4,0.129207,0.128888,42.478,6,0.00678,10,0.00547492,-1.37184,0.477934,0.123448,204.707,0.128888,
2,1,0,1,0,11047.4,0.140005,0.139647,44.8558,6,0.00756574,10,0.00626399,-1.34818,0.442783,0.133248,233.289,0.139647,
2,1,0,1,0,11047.4,0.150803,0.150436,47.4301,6,0.00839637,10,0.00713519,-1.32395,0.46136,0.127883,236.585,0.150436,
2,1,0,1,0,11047.4,0.161604,0.161291,49.9091,6,0.00927293,10,0.0080499,-1.30182,0.529286,0.111471,216.918,0.161291,
2,1,0,1,0,11047.5,0.172405,0.172043,52.0513,6,0.0101915,10,0.00895504,-1.28357,0.696684,0.0846869,171.77,0.172043,
2,1,0,1,0,11047.5,0.183203,0.182873,53.4736,6,0.0111429,10,0.00977886,-1.27186,1.59725,0.0369385,76.8838,0.182873,
2,1,0,1,0,11047.5,0.194001,0.193664,53.3989,6,0.0121078,10,0.0103415,-1.27247,-1.13067,-0.0521813,-108.284,0.193664,
2,1,0,1,0,11047.5,0.204808,0.204471,50.9665,6,0.0130509,10,0.0104212,-1.29271,-0.339981,-0.173539,-343.476,0.204471,
2,1,0,1,0,11047.5,0.215603,0.215286,46.1586,6,0.0139275,10,0.00993729,-1.33575,-0.207869,-0.283833,-509.719,0.215286,
2,1,0,1,0,11047.6,0.226401,0.226117,40.3138,6,0.0147053,10,0.00911563,-1.39455,-0.174266,-0.338564,-532.849,0.226117,
2,1,0,1,0,11047.6,0.237207,0.236992,35.0423,6,0.0153814,10,0.00830473,-1.45541,-0.185263,-0.318466,-436.469,0.236992,
2,1,0,1,0,11047.6,0.248005,0.247728,31.0073,6,0.0159734,10,0.00768139,-1.50854,-0.225986,-0.261079,-316.713,0.247728,
2,1,0,1,0,11047.6,0.258801,0.258503,28.119,6,0.0165036,10,0.00726885,-1.551,-0.29033,-0.203217,-223.524,0.258503,
2,1,0,1,0,11047.6,0.26961,0.269333,26.0837,6,0.01699,10,0.0070252,-1.58363,-0.376845,-0.156563,-159.601,0.269333,
2,1,0,1,0,11047.6,0.280405,0.280101,24.6179,6,0.0174454,10,0.0068955,-1.60875,-0.493289,-0.119605,-114.999,0.2801013,
2,1,0,1,0,11047.7,0.291203,0.290906,23.5157,6,0.017878,10,0.00684085,-1.62864,-0.602799,-0.0978767,-89.9232,0.290906,
2,1,0,0,0,11047.7,0.300012,0.299727,22.7971,6,0.0182182,10,0.00683292,-1.64212,0.00158557,37.2107,27846.5,0.299727,
2,1,0,1,0,11047.7,0.290843,0.290576,7.39546,6,0.0184298,10,0.00214894,-2.13103,0.0141945,4.15655,1128.76,0.290576,
2,0,0,1,0,11047.7,0.280047,0.279805,-1.15666,6,0.0184766,10,-0.000323639,-2.9368,-0.0368454,-1.60129,573.259,0.279805,
2,0,0,1,0,11047.7,0.269244,0.268901,-5.86594,6,0.0184092,10,-0.00157736,-2.23166,-0.0381762,-1.54546,334.021,0.268901,
2,0,0,1,0,11047.7,0.258443,0.258165,-8.73098,6,0.0182756,10,-0.00225403,-2.05894,-0.0921702,-0.64012,214.95,0.258165,
2,0,0,1,0,11047.8,0.247645,0.247354,-10.6594,6,0.0180998,10,-0.00263664,-1.97227,-0.161473,-0.365386,151.292,0.247354,
2,0,0,1,0,11047.8,0.236849,0.23656,-12.0847,6,0.0178942,10,-0.00285876,-1.91776,-0.239499,-0.246348,115.887,0.23656,
2,0,0,1,0,11047.8,0.22604,0.225767,-13.2278,6,0.017666,10,-0.00298639,-1.87851,-0.32064,-0.184007,94.7218,0.225767,
2,0,0,1,0,11047.8,0.215245,0.21496,-14.1784,6,0.0174192,10,-0.00304779,-1.84837,-0.378648,-0.155818,86.1529,0.2149605,
2,0,0,1,0,11047.8,0.204447,0.204116,-15.0636,6,0.0171559,10,-0.00307471,-1.82207,-0.435394,-0.13551,79.5713,0.204116,
2,0,0,1,0,11047.9,0.19364,0.193284,-15.9197,6,0.0168772,10,-0.00307702,-1.79807,-0.465605,-0.126717,78.6209,0.193284,
2,0,0,1,0,11047.9,0.182842,0.182534,-16.7809,6,0.016583,10,-0.00306309,-1.77518,-0.445325,-0.132488,86.8106,0.182534,
2,0,0,1,0,11047.9,0.172047,0.171763,-17.7751,6,0.0162721,10,-0.0030531,-1.75019,-0.395066,-0.149342,103.776,0.171763,
2,0,0,1,0,11047.9,0.161241,0.160954,-19.0288,6,0.0159412,10,-0.00306277,-1.72059,-0.33236,-0.177518,132.136,0.160954,
2,0,0,1,0,11047.9,0.150443,0.150107,-20.7169,6,0.015584,10,-0.00310976,-1.68367,-0.260413,-0.226563,183.731,0.150107,
2,0,0,1,0,11047.9,0.139645,0.139365,-23.1036,6,0.0151905,10,-0.00321983,-1.63632,-0.203839,-0.289443,261.87,0.1393652,
2,0,0,1,0,11048,0.128849,0.128559,-26.4205,6,0.014746,10,-0.00339658,-1.57806,-0.172449,-0.342131,353.636,0.128559,
2,0,0,1,0,11048,0.118043,0.11773,-30.6701,6,0.0142328,10,-0.00361078,-1.51328,-0.170416,-0.346212,414.059,0.11773,
2,0,0,1,0,11048,0.107245,0.106956,-35.2662,6,0.013639,10,-0.00377193,-1.45264,-0.191809,-0.307598,422.073,0.106956,
2,0,0,1,0,11048,0.0964468,0.096212,-39.6276,6,0.0129644,10,-0.00381265,-1.402,-0.234045,-0.252089,388.998,0.096212,
2,0,0,1,0,11048,0.0856404,0.0854191,-43.4858,6,0.0122149,10,-0.00371452,-1.36165,-0.311469,-0.189425,320.722,0.0854191,
2,0,0,1,0,11048,0.0748451,0.0745945,-46.5689,6,0.011403,10,-0.00347379,-1.3319,-0.428151,-0.137802,249.92,0.0745945,
2,0,0,1,0,11048.1,0.0640471,0.0637656,-48.7467,6,0.0105432,10,-0.00310837,-1.31205,-0.746908,-0.0789923,149.947,0.0637656,
2,0,0,1,0,11048.1,0.0532407,0.0529368,-49.8116,6,0.00965438,10,-0.00263687,-1.30267,-2.40123,-0.0245708,47.6738,0.0529368,
2,0,0,1,0,11048.1,0.0424426,0.0421524,-49.8738,6,0.00875591,10,-0.0021023,-1.30213,4.368,0.0135073,-26.2663,0.0421524,
2,0,0,1,0,11048.1,0.0316473,0.0313246,-49.3467,6,0.00786229,10,-0.00154577,-1.30674,1.81214,0.0325582,-62.6886,0.0313246,
2,0,0,1,0,11048.1,0.0208437,0.0204968,-48.5739,6,0.00698085,10,-0.000995611,-1.3136,1.37842,0.0428026,-81.1118,0.0204968,
2,0,0,1,0,11048.2,0.0100429,0.00970188,-47.6606,6,0.00611472,10,-0.000462397,-1.32184,1.18277,0.0498828,-92.7208,0.00970188,
2,0,0,1,0,11048.2,-0.000755207,-0.00113547,-46.5987,6,0.00526637,10,5.29116e-05,-1.33163,0.959693,0.061478,-111.626,-0.00113547,
2,0,0,1,0,11048.2,-0.0115505,-0.0119007,-45.1458,6,0.0044404,10,0.000537267,-1.34538,0.682775,0.0864121,-152.068,-0.0119007,
2,0,0,1,0,11048.2,-0.0223597,-0.0227105,-43.3173,6,0.00364402,10,0.000983759,-1.36334,0.549721,0.107327,-181.33,-0.0227105,
2,0,0,1,0,11048.2,-0.033155,-0.0334991,-41.345,6,0.00288226,10,0.00138502,-1.38358,0.554987,0.106309,-171.664,-0.0334991,
2,0,0,1,0,11048.2,-0.043953,-0.0443152,-39.6259,6,0.00215413,10,0.00175603,-1.40202,0.665466,0.0886596,-137.339,-0.0443152,
2,0,0,1,0,11048.3,-0.0547594,-0.0551028,-38.4089,6,0.00145264,10,0.00211644,-1.41557,0.975132,0.0605046,-90.825,-0.0551028,
2,0,0,1,0,11048.3,-0.0655575,-0.0659157,-37.6875,6,0.000768489,10,0.0024842,-1.4238,1.97653,0.0298504,-43.9655,-0.0659157,
2,0,0,1,0,11048.3,-0.0763528,-0.0766757,-37.4231,6,9.30886e-05,10,0.00286944,-1.42686,12.1638,0.00485046,-7.09216,-0.0766757,
2,0,0,1,0,11048.3,-0.0871592,-0.0874929,-37.5252,6,-0.000580896,10,0.00328319,-1.42568,-4.06789,-0.0145038,21.2543,-0.0874929,
2,0,0,1,0,11048.3,-0.0979573,-0.0983186,-37.9226,6,-0.00125946,10,0.0037285,-1.4211,-2.34981,-0.0251084,37.0695,-0.0983186,
2,0,0,1,1,11048.3,-0.0955546,-0.0959666,-27.8446,6,-0.00163534,10,0.00267215,-1.55526,-0.0334994,-1.76123,1922.48,-0.0959666,
2,0,0,1,1,11048.4,-0.0847538,-0.0851876,-12.2075,6,-0.00198356,10,0.00103993,-1.91337,-0.0233623,-2.52543,1165.83,-0.0851876,
2,0,0,1,1,11048.4,-0.0739557,-0.0743788,-1.66467,6,-0.00210233,10,0.000123816,-2.77867,-0.0207357,-2.84534,831.669,-0.0743788,
2,1,0,1,1,11048.4,-0.0631604,-0.0635913,6.04725,6,-0.00205879,10,-0.000384553,-2.21844,0.0196816,2.99772,622.78,-0.0635913,
2,1,0,1,1,11048.4,-0.0523512,-0.0527921,11.9316,6,-0.00189424,10,-0.000629897,-1.9233,0.0563235,1.04752,475.569,-0.0527921,
2,1,0,1,1,11048.4,-0.0415559,-0.0419664,16.444,6,-0.00163664,10,-0.000690097,-1.78399,0.102705,0.574461,364.941,-0.0419664,
2,1,0,1,1,11048.5,-0.0307579,-0.0311492,19.8569,6,-0.00130797,10,-0.000618527,-1.70209,0.165555,0.356376,274.876,-0.0311492,
2,1,0,1,1,11048.5,-0.0199515,-0.0203204,22.4365,6,-0.000925853,10,-0.000455917,-1.64905,0.250819,0.235229,205.257,-0.0203204,
2,1,0,1,1,11048.5,-0.0091534,-0.00952435,24.3536,6,-0.000503707,10,-0.000231952,-1.61344,0.37032,0.159322,151.035,-0.00952435,
2,1,0,0,1,11048.5,-7.54729e-05,-0.000344411,25.4901,6,-0.000126483,10,-8.77906e-06,-1.59363, , , ,-0.000344411,