File: Figure_codes/Fig_3-5/rawdata_trumpetplot_data/after 10th/20221101_1-115_003_TrumpetPlot_ParaChange_from10_every3_10_CV_C01_12.csv
mode,ox/red,error,control changes,counter inc.,time/s,control/V,Ewe/V,<I>/mA,cycle number,(Q-Qo)/C,I Range,P/W,log(|I|),Tafel slope mV/dec,alpha_eff,dI/d(E-IR),E-IR/V,
2,1,0,0,0,24832.1,-2.44065e-05,-0.000325324,5.22038,13,0.0000000E+000,10,-1.69831e-06,-2.2823, , , ,-0.000325324,
2,1,0,1,0,24832.1,0.00977853,0.00945172,8.05845,13,0.000339092,10,7.61662e-05,-2.09375,0.114031,0.517401,161.74,0.00945172,
2,1,0,1,0,24832.2,0.0197755,0.0194257,9.21927,13,0.000773824,10,0.000179091,-2.0353,0.247128,0.238742,85.9189,0.0194257,
2,1,0,1,0,24832.2,0.0297726,0.0293945,9.99025,13,0.00125498,10,0.000293658,-2.00042,0.336629,0.175267,68.2442,0.0293945,
2,1,0,1,0,24832.3,0.0397514,0.0394192,10.6521,13,0.00177028,10,0.000419898,-1.97256,0.342582,0.172222,71.7039,0.0394192,
2,1,0,1,0,24832.3,0.0497393,0.0493893,11.3552,13,0.00231921,10,0.000560826,-1.9448,0.372014,0.158596,70.1613,0.0493893,
2,1,0,1,0,24832.4,0.0597364,0.0594067,12.059,13,0.00290409,10,0.000716384,-1.91869,0.361597,0.163165,76.7879,0.0594067,
2,1,0,1,0,24832.4,0.0697152,0.0693283,12.7894,13,0.00352424,10,0.00088667,-1.89315,0.433265,0.136175,67.9508,0.0693283,
2,1,0,1,0,24832.5,0.0796941,0.079392,13.4987,13,0.00418019,10,0.00107169,-1.86971,0.431119,0.136853,72.1432,0.079392,
2,1,0,1,0,24832.5,0.0896911,0.0893356,14.1608,13,0.00487237,10,0.00126506,-1.84891,0.491833,0.119959,66.3144,0.0893356,
2,1,0,1,0,24832.6,0.099679,0.0993645,14.7957,13,0.00559496,10,0.00147017,-1.82986,0.549998,0.107273,61.9289,0.0993645,
2,1,0,1,0,24832.6,0.109658,0.10935,15.5167,13,0.00635023,10,0.00169675,-1.8092,0.433451,0.136117,82.4139,0.1093504,
2,1,0,1,0,24832.7,0.119655,0.119329,16.4805,13,0.00714913,10,0.0019666,-1.78303,0.362057,0.162958,104.877,0.119329,
2,1,0,1,0,24832.7,0.129652,0.129343,17.6176,13,0.00800165,10,0.0022787,-1.75405,0.353365,0.166966,114.74,0.129343,
2,1,0,1,0,24832.8,0.139631,0.139301,18.6373,13,0.00890758,10,0.00259618,-1.72962,0.473786,0.124529,90.6345,0.139301,
2,1,0,1,0,24832.8,0.149619,0.149292,19.4237,13,0.00985858,10,0.00289981,-1.71167,0.782674,0.0753826,57.048,0.149292,
2,1,0,1,0,24832.9,0.159616,0.159326,19.5892,13,0.0108375,10,0.00312108,-1.70798,-1.19313,-0.0494496,-37.7763,0.159326,
2,1,0,1,0,24832.9,0.169595,0.169283,18.4704,13,0.0117936,10,0.00312673,-1.73352,-0.214557,-0.274985,-197.665,0.169283,
2,1,0,1,0,24833,0.179573,0.179264,15.8659,13,0.012654,10,0.00284418,-1.79954,-0.125173,-0.471347,-291.956,0.179264,
2,1,0,1,0,24833,0.18957,0.18926,13.1618,13,0.013377,10,0.00249101,-1.88068,-0.130753,-0.451233,-231.797,0.18926,
2,1,0,1,0,24833.1,0.199558,0.199286,11.2633,13,0.0139825,10,0.00224461,-1.94834,-0.176683,-0.333932,-146.914,0.199286,
2,1,0,1,0,24833.1,0.209537,0.209256,10.1014,13,0.0145129,10,0.00211378,-1.99562,-0.242812,-0.242986,-95.7642,0.209256,
2,1,0,1,0,24833.2,0.219534,0.219188,9.33117,13,0.0149972,10,0.00204528,-2.03006,-0.367992,-0.160329,-58.4775,0.219188,
2,1,0,1,0,24833.2,0.229531,0.2292,8.82173,13,0.0154505,10,0.00202194,-2.05445,-0.469062,-0.125783,-43.3116,0.2292,
2,1,0,1,0,24833.3,0.23951,0.239192,8.4595,13,0.0158813,10,0.00202344,-2.07266,-0.63911,-0.0923159,-30.5195,0.239192,
2,1,0,1,0,24833.3,0.249498,0.249168,8.19117,13,0.0162965,10,0.00204098,-2.08665,-0.801419,-0.0736194,-23.5213,0.249168,
2,1,0,1,0,24833.4,0.259495,0.259232,7.9776,13,0.0167004,10,0.00206805,-2.09813,-0.872429,-0.0676273,-21.0554,0.259232,
2,1,0,1,0,24833.4,0.269474,0.269154,7.80771,13,0.017094,10,0.00210148,-2.10748,-1.05946,-0.0556885,-16.9514,0.269154,
2,1,0,1,0,24833.5,0.279453,0.279097,7.64937,13,0.0174796,10,0.00213491,-2.11637,-1.23388,-0.0478168,-14.2876,0.279097,
2,1,0,1,0,24833.5,0.28945,0.28913,7.51654,13,0.0178587,10,0.00217326,-2.12398,-1.49044,-0.0395856,-11.6063,0.28913,
2,1,0,1,0,24833.6,0.299438,0.29912,7.39311,13,0.0182306,10,0.00221143,-2.13117,-0.0589873,-1.00021,-276.33,0.29912,
2,1,0,1,0,24833.6,0.291747,0.291417,0.0472113,13,0.018362,10,1.37582e-05,-4.32595,0.0229695,2.56862,401.433,0.291417,
2,0,0,1,0,24833.7,0.28175,0.281429,-2.24456,13,0.0182967,10,-0.000631682,-2.64887,-0.0370023,-1.5945,138.056,0.281429,
2,0,0,1,0,24833.7,0.27178,0.271442,-3.22588,13,0.0181577,10,-0.000875641,-2.49135,-0.0992983,-0.594169,74.3197,0.271442,
2,0,0,1,0,24833.8,0.261783,0.261461,-3.80836,13,0.017981,10,-0.000995736,-2.41926,-0.1886,-0.312831,46.469,0.261461,
2,0,0,1,0,24833.8,0.251786,0.251478,-4.23456,13,0.0177794,10,-0.0010649,-2.37319,-0.267865,-0.22026,36.3703,0.251478,
2,0,0,1,0,24833.9,0.241807,0.241494,-4.57145,13,0.0175591,10,-0.00110398,-2.33995,-0.326368,-0.180777,32.3634,0.241494,
2,0,0,1,0,24833.9,0.231824,0.231539,-4.88895,13,0.017323,10,-0.00113198,-2.31078,-0.391836,-0.150573,28.6338,0.231539,
2,0,0,1,0,24834,0.221822,0.221533,-5.14352,13,0.0170723,10,-0.00113946,-2.28874,-0.431985,-0.136579,27.4313,0.221533,
2,0,0,1,0,24834,0.211843,0.211544,-5.41019,13,0.016809,10,-0.00114449,-2.26679,-0.523382,-0.112728,23.7468,0.2115439,
2,0,0,1,0,24834.1,0.201865,0.201591,-5.65357,13,0.0165329,10,-0.00113971,-2.24768,-0.55379,-0.106539,23.5506,0.201591,
2,0,0,1,0,24834.1,0.191868,0.191546,-5.92786,13,0.0162432,10,-0.00113546,-2.2271,-0.502466,-0.117421,27.1631,0.191546,
2,0,0,1,0,24834.2,0.18188,0.181524,-6.2317,13,0.0159402,10,-0.0011312,-2.20539,-0.408787,-0.144329,35.0803,0.181524,
2,0,0,1,0,24834.2,0.171901,0.171569,-6.59481,13,0.0156208,10,-0.00113147,-2.1808,-0.381564,-0.154627,39.7101,0.171569,
2,0,0,1,0,24834.3,0.161904,0.161576,-7.06397,13,0.0152802,10,-0.00114137,-2.15095,-0.289718,-0.203646,56.2321,0.161576,
2,0,0,1,0,24834.3,0.151907,0.15155,-7.78775,13,0.0149099,10,-0.00118023,-2.10859,-0.195993,-0.301031,91.5893,0.15155,
2,0,0,1,0,24834.4,0.141928,0.141592,-8.98322,13,0.0144937,10,-0.00127195,-2.04657,-0.132807,-0.444254,156.058,0.141592,
2,0,0,1,0,24834.4,0.13194,0.131599,-10.8627,13,0.0140013,10,-0.00142953,-1.96406,-0.115421,-0.511172,216.508,0.131599,
2,0,0,1,0,24834.5,0.121943,0.121684,-13.1097,13,0.0134018,10,-0.00159524,-1.88241,-0.134625,-0.438255,224.571,0.121684,
2,0,0,1,0,24834.5,0.111964,0.111674,-15.2962,13,0.0126911,10,-0.00170819,-1.81542,-0.183647,-0.321269,191.394,0.111674,
2,0,0,1,0,24834.6,0.101985,0.101697,-16.9512,13,0.0118842,10,-0.00172389,-1.7708,-0.282969,-0.208503,137.887,0.101697,
2,0,0,1,0,24834.6,0.0919883,0.0916712,-18.0569,13,0.011006,10,-0.0016553,-1.74336,-0.522277,-0.112967,79.5316,0.0916712,
2,0,0,1,0,24834.7,0.0820004,0.0816809,-18.4226,13,0.0100924,10,-0.00150477,-1.73465,50.1607,0.00117622,-0.845281,0.0816809,
2,0,0,1,0,24834.7,0.0720215,0.0716703,-18.1164,13,0.00917877,10,-0.0012984,-1.74193,0.776825,0.0759502,-53.6626,0.0716703,
2,0,0,1,0,24834.8,0.0620245,0.0616972,-17.5191,13,0.00828789,10,-0.00108088,-1.75649,0.654188,0.0901881,-61.6845,0.0616972,
2,0,0,1,0,24834.8,0.0520275,0.0516807,-17.0003,13,0.00742546,10,-0.000878586,-1.76954,0.773983,0.0762291,-50.543,0.0516807,
2,0,0,1,0,24834.9,0.0420486,0.0417113,-16.5249,13,0.00658918,10,-0.000689274,-1.78186,0.875151,0.0674169,-43.5232,0.0417113,
2,0,0,1,0,24834.9,0.0320607,0.0317431,-16.0692,13,0.00577561,10,-0.000510086,-1.79401,0.742139,0.0794999,-49.8072,0.0317431,
2,0,0,1,0,24835,0.0220637,0.0217561,-15.5056,13,0.00498594,10,-0.000337341,-1.80951,0.579966,0.10173,-61.5787,0.0217561,
2,0,0,1,0,24835,0.0120848,0.0117609,-14.8256,13,0.00422871,10,-0.000174362,-1.82899,0.429488,0.137373,-79.412,0.0117609,
2,0,0,1,0,24835.1,0.00210598,0.00171268,-14.0952,13,0.00350862,10,-2.41406e-05,-1.85093,0.487458,0.121036,-66.4423,0.00171268,
2,0,0,1,0,24835.1,-0.00789103,-0.00825003,-13.3747,13,0.00282273,10,0.000110342,-1.87372,0.524924,0.112397,-58.7013,-0.00825003,
2,0,0,1,0,24835.2,-0.017879,-0.0182531,-12.9174,13,0.00216776,10,0.000235782,-1.88883,0.914437,0.0645205,-32.5252,-0.0182531,
2,0,0,1,0,24835.2,-0.0278578,-0.0282301,-12.6703,13,0.00153041,10,0.000357685,-1.89721,1.77858,0.0331725,-16.4069,-0.0282301,
2,0,0,1,0,24835.3,-0.0378549,-0.0382466,-12.6283,13,0.000898647,10,0.000482989,-1.89866,-23.8086,-0.0024781,1.22173,-0.0382466,
2,0,0,1,0,24835.3,-0.0478519,-0.048166,-12.7405,13,0.000264859,10,0.000613657,-1.89481,-1.31892,-0.0447336,22.2429,-0.04816597,
2,0,0,1,0,24835.4,-0.0578126,-0.0582007,-12.9651,13,-0.000374934,10,0.000754577,-1.88722,-1.03086,-0.0572336,28.9857,-0.0582007,
2,0,0,1,0,24835.4,-0.0678187,-0.0681747,-13.3016,13,-0.00103133,10,0.000906834,-1.8761,-0.785627,-0.0750992,38.9639,-0.0681747,
2,0,0,1,0,24835.5,-0.0778157,-0.0782077,-13.7162,13,-0.00170662,10,0.00107271,-1.86277,-0.698016,-0.0845252,45.2927,-0.0782077,
2,0,0,1,0,24835.5,-0.0877945,-0.088158,-14.271,13,-0.00240455,10,0.0012581,-1.84555,-0.546234,-0.108012,60.1047,-0.088158,
2,0,0,1,0,24835.6,-0.0977734,-0.0981418,-14.8774,13,-0.00313165,10,0.0014601,-1.82747,-0.491515,-0.120037,69.7935,-0.0981418,
2,0,0,1,1,24835.6,-0.0936874,-0.0940536,-6.47597,13,-0.0036137,10,0.000609089,-2.1887,-0.0166244,-3.549,893.665,-0.0940536,
2,0,0,1,1,24835.7,-0.0837086,-0.0840796,-0.0087595,13,-0.00375795,10,7.36495e-07,-5.05752,-0.0737131,-0.800401,483.511,-0.0840796,
2,1,0,1,1,24835.7,-0.0737025,-0.0741291,3.76391,13,-0.00365634,10,-0.000279015,-2.42436,0.0285061,2.06974,298.955,-0.0741291,
2,1,0,1,1,24835.8,-0.0637236,-0.0641287,6.17991,13,-0.00340384,10,-0.000396309,-2.20902,0.0731402,0.80667,193.812,-0.0641287,
2,1,0,1,1,24835.8,-0.0537448,-0.05409,7.76362,13,-0.00305287,10,-0.000419934,-2.10994,0.141517,0.416912,126.042,-0.05409,
2,1,0,1,1,24835.9,-0.0437477,-0.0441542,8.78656,13,-0.00263715,10,-0.000387963,-2.05618,0.251276,0.234801,80.4233,-0.0441542,
2,1,0,1,1,24835.9,-0.0337507,-0.0341168,9.43104,13,-0.00218012,10,-0.000321757,-2.02544,0.428749,0.13761,50.6764,-0.0341168,
2,1,0,1,1,24836,-0.0237809,-0.0241524,9.82184,13,-0.0016999,10,-0.000237221,-2.00781,0.743617,0.0793419,30.3704,-0.0241524,
2,1,0,1,1,24836,-0.0137839,-0.0141558,10.0131,13,-0.00120355,10,-0.000141744,-1.99943,2.18141,0.0270467,10.5706,-0.0141558,
2,1,0,1,1,24836.1,-0.0037869,-0.00414366,10.1088,13,-0.000700201,10,-4.18873e-05,-1.9953,3.05082,0.019339,7.62581,-0.00414366,
2,1,0,1,1,24836.1,-2.55332e-05,-0.000401673,10.1191,13,-0.000510973,10,-4.06457e-06,-1.99486, , , ,-0.000401673,