File: Figure_codes/Fig_3-5/rawdata_trumpetplot_data/after 10th/20221101_1-115_003_TrumpetPlot_ParaChange_from10_every3_13_CV_C01_30.csv
mode,ox/red,error,control changes,counter inc.,time/s,control/V,Ewe/V,<I>/mA,cycle number,(Q-Qo)/C,I Range,P/W,log(|I|),Tafel slope mV/dec,alpha_eff,dI/d(E-IR),E-IR/V,
2,1,0,1,0,60301.8,2.44065e-05,-0.000497109,14.2177,31,0.0000000E+000,10,-7.06774e-06,-1.84717, , , ,-0.000497109,
2,1,0,1,0,60301.8,0.0122624,0.0118566,18.0304,31,0.000247994,10,0.000213779,-1.744,0.169107,0.348892,243.348,0.0118566,
2,1,0,1,0,60301.8,0.0250636,0.0246918,20.7902,31,0.000559516,10,0.000513346,-1.68214,0.240627,0.245192,198.184,0.0246918,
2,1,0,1,0,60301.8,0.0378704,0.0374697,23.1522,31,0.000911703,10,0.000867506,-1.63541,0.306063,0.192771,173.822,0.0374697,
2,1,0,1,0,60301.8,0.0506632,0.0503101,25.2703,31,0.00129963,10,0.00127135,-1.59739,0.36405,0.162066,159.673,0.0503101,
2,1,0,1,0,60301.8,0.0634672,0.0630838,27.253,31,0.00172024,10,0.00171922,-1.56459,0.417304,0.141384,150.259,0.0630838,
2,1,0,1,0,60301.9,0.0762629,0.0758744,29.1619,31,0.00217185,10,0.00221264,-1.53518,0.452905,0.13027,148.175,0.0758744,
2,1,0,1,0,60301.9,0.0890668,0.0887096,31.0525,31,0.00265374,10,0.00275465,-1.5079,0.485268,0.121582,147.272,0.0887096,
2,1,0,1,0,60301.9,0.10186,0.101451,32.9162,31,0.00316573,10,0.00333939,-1.48259,0.514622,0.114647,147.292,0.101451,
2,1,0,1,0,60301.9,0.114666,0.114289,34.8066,31,0.00370787,10,0.003978,-1.45834,0.541595,0.108938,147.987,0.114289,
2,1,0,1,0,60301.9,0.127462,0.127037,36.7233,31,0.00428028,10,0.00466521,-1.43506,0.553654,0.106565,152.769,0.127037,
2,1,0,1,0,60301.9,0.140263,0.139875,38.7701,31,0.00488427,10,0.00542297,-1.4115,0.542235,0.108809,164.604,0.139875,
2,1,0,1,0,60302,0.153064,0.152587,40.8632,31,0.00552171,10,0.00623521,-1.38867,0.570671,0.103387,164.906,0.1525874,
2,1,0,1,0,60302,0.165866,0.165471,42.9855,31,0.00619268,10,0.00711288,-1.36668,0.622363,0.0948,158.878,0.165471,
2,1,0,1,0,60302,0.178667,0.178265,44.8696,31,0.00689615,10,0.00799869,-1.34805,0.770099,0.0766135,134.012,0.178265,
2,1,0,1,0,60302,0.191463,0.191056,46.3607,31,0.00762696,10,0.00885748,-1.33385,1.12453,0.0524665,94.7749,0.191056,
2,1,0,1,0,60302,0.204269,0.203873,47.245,31,0.00837689,10,0.00963198,-1.32564,2.71478,0.0217329,39.9927,0.203873,
2,1,0,1,0,60302,0.217062,0.216726,47.3984,31,0.00913504,10,0.0102725,-1.32424,-6.32988,-0.00932087,-17.2054,0.216726,
2,1,0,1,0,60302.1,0.229866,0.229538,46.8077,31,0.00988961,10,0.0107441,-1.32968,-1.48163,-0.0398211,-72.6086,0.229538,
2,1,0,1,0,60302.1,0.242662,0.242284,45.5239,31,0.0106291,10,0.0110297,-1.34176,-0.846322,-0.0697135,-123.685,0.242284,
2,1,0,1,0,60302.1,0.255466,0.255093,43.6872,31,0.0113433,10,0.0111443,-1.35965,-0.62607,-0.0942387,-160.504,0.255093,
2,1,0,1,0,60302.1,0.268259,0.267893,41.5059,31,0.012025,10,0.0111191,-1.38189,-0.542174,-0.108821,-176.172,0.267893,
2,1,0,1,0,60302.1,0.281065,0.280715,39.2235,31,0.0126707,10,0.0110106,-1.40645,-0.511845,-0.115269,-176.447,0.280715,
2,1,0,1,0,60302.1,0.293861,0.293486,37.0167,31,0.0132802,10,0.0108639,-1.4316,-0.519303,-0.113614,-164.463,0.293486,
2,1,0,1,0,60302.1,0.298983,0.298753,34.1612,31,0.0136063,10,0.0102058,-1.46647,0.0522576,1.12902,1366.74,0.298753,
2,1,0,1,0,60302.2,0.286187,0.285897,20.8704,31,0.0140334,10,0.0059668,-1.68047,0.0605955,0.97367,795.891,0.285897,
2,1,0,1,0,60302.2,0.273386,0.27306,12.3579,31,0.0142947,10,0.00337444,-1.90806,0.0494461,1.19322,570.684,0.27306,
2,1,0,1,0,60302.2,0.260585,0.260298,5.98616,31,0.0144386,10,0.00155819,-2.22285,0.0301583,1.95634,436.011,0.260298,
2,1,0,1,0,60302.2,0.247783,0.247477,1.01914,31,0.0144925,10,0.000252213,-2.99177,0.0259073,2.27735,347.385,0.247477,
2,0,0,1,0,60302.2,0.234982,0.234665,-2.95546,31,0.0144755,10,-0.000693543,-2.52937,-0.0201152,-2.93311,279.955,0.234665,
2,0,0,1,0,60302.2,0.222187,0.221831,-6.19802,31,0.014401,10,-0.00137491,-2.20775,-0.059892,-0.985106,231.287,0.221831,
2,0,0,1,0,60302.3,0.20938,0.209036,-8.92826,31,0.0142791,10,-0.00186633,-2.04923,-0.104259,-0.565898,194.57,0.209036,
2,0,0,1,0,60302.3,0.196587,0.196259,-11.2417,31,0.0141171,10,-0.00220628,-1.94917,-0.15196,-0.38826,169.155,0.196259,
2,0,0,1,0,60302.3,0.183783,0.183469,-13.2677,31,0.0139205,10,-0.00243421,-1.8772,-0.20217,-0.291834,150.563,0.183469,
2,0,0,1,0,60302.3,0.170987,0.170693,-15.095,31,0.0136932,10,-0.0025766,-1.82117,-0.249987,-0.236013,138.892,0.1706928,
2,0,0,1,0,60302.3,0.158183,0.157832,-16.8608,31,0.0134372,10,-0.00266117,-1.77312,-0.279561,-0.211045,138.886,0.157832,
2,0,0,1,0,60302.3,0.145385,0.145032,-18.7011,31,0.0131527,10,-0.00271226,-1.72813,-0.283625,-0.208021,151.97,0.145032,
2,0,0,1,0,60302.4,0.132584,0.132245,-20.8388,31,0.0128367,10,-0.00275581,-1.68113,-0.257204,-0.22939,186.947,0.132245,
2,0,0,1,0,60302.4,0.119783,0.119442,-23.545,31,0.0124822,10,-0.00281227,-1.6281,-0.229336,-0.257265,236.756,0.1194423,
2,0,0,1,0,60302.4,0.106987,0.106681,-26.8264,31,0.0120795,10,-0.00286188,-1.57144,-0.227251,-0.259625,271.79,0.106681,
2,0,0,1,0,60302.4,0.0941801,0.0938897,-30.382,31,0.0116215,10,-0.00285255,-1.51738,-0.254859,-0.2315,273.981,0.0938897,
2,0,0,1,0,60302.4,0.0813844,0.0810715,-33.7946,31,0.0111073,10,-0.00273978,-1.47115,-0.306032,-0.19279,253.563,0.0810715,
2,0,0,1,0,60302.4,0.0685832,0.0682681,-36.8596,31,0.0105415,10,-0.00251634,-1.43345,-0.3782,-0.156002,223.801,0.0682681,
2,0,0,1,0,60302.4,0.0557876,0.0555125,-39.4278,31,0.0099301,10,-0.00218874,-1.4042,-0.504943,-0.116845,179.46,0.0555125,
2,0,0,1,0,60302.5,0.0429808,0.0426975,-41.4802,31,0.00928197,10,-0.0017711,-1.38216,-0.662104,-0.0891099,144.083,0.0426975,
2,0,0,1,0,60302.5,0.030188,0.0298963,-43.1241,31,0.00860438,10,-0.00128925,-1.36528,-0.886767,-0.0665338,111.843,0.0298963,
2,0,0,1,0,60302.5,0.017384,0.0170473,-44.3495,31,0.00790384,10,-0.00075604,-1.35311,-1.27144,-0.046404,80.2351,0.0170473,
2,0,0,1,0,60302.5,0.00458834,0.00427684,-45.2003,31,0.00718683,10,-0.000193315,-1.34486,-1.89993,-0.0310538,54.745,0.00427684,
2,0,0,1,0,60302.5,-0.00821564,-0.00859226,-45.7313,31,0.00645862,10,0.000392935,-1.33979,-4.08005,-0.0144606,25.7844,-0.00859226,
2,0,0,1,0,60302.5,-0.0210196,-0.0213977,-45.8969,31,0.00572509,10,0.00098209,-1.33822,-260.553,-0.000226441,0.405244,-0.0213977,
2,0,0,1,0,60302.6,-0.0338153,-0.0342117,-45.7511,31,0.0049915,10,0.00156522,-1.3396,5.34072,0.0110472,-19.7168,-0.0342117,
2,0,0,1,0,60302.6,-0.0466193,-0.0470309,-45.4066,31,0.00426199,10,0.00213552,-1.34288,3.16789,0.0186244,-32.9946,-0.0470309,
2,0,0,1,0,60302.6,-0.0594121,-0.0597919,-44.9497,31,0.00353906,10,0.00268763,-1.34727,2.81331,0.0209717,-36.7883,-0.0597919,
2,0,0,1,0,60302.6,-0.0722189,-0.0725899,-44.5034,31,0.00282354,10,0.0032305,-1.35161,3.17072,0.0186077,-32.3205,-0.0725899,
2,0,0,1,0,60302.6,-0.0850146,-0.0853816,-44.1186,31,0.00211475,10,0.00376691,-1.35538,4.1274,0.0142947,-24.6253,-0.0853816,
2,0,0,1,0,60302.6,-0.0978158,-0.0981871,-43.871,31,0.00141097,10,0.00430757,-1.35782,7.7613,0.00760182,-13.0241,-0.0981871,
2,0,0,1,0,60302.7,-0.110611,-0.111001,-43.7817,31,0.000709886,10,0.00485982,-1.35871,76.6273,0.000769961,-1.31641,-0.111001,
2,0,0,1,0,60302.7,-0.123418,-0.123773,-43.866,31,8.87951e-06,10,0.00542941,-1.35787,-8.06717,-0.00731359,12.5245,-0.1237726,
2,0,0,1,0,60302.7,-0.136214,-0.136607,-44.1079,31,-0.000694707,10,0.00602544,-1.35548,-4.03618,-0.0146178,25.1704,-0.136607,
2,0,0,1,0,60302.7,-0.149015,-0.149381,-44.4858,31,-0.00140343,10,0.00664535,-1.35178,-2.96692,-0.019886,34.5383,-0.149381,
2,0,0,1,0,60302.7,-0.161816,-0.162172,-44.9569,31,-0.00211909,10,0.00729076,-1.3472,-2.73206,-0.0215954,37.8974,-0.162172,
2,0,0,1,0,60302.7,-0.174615,-0.174984,-45.4331,31,-0.00284245,10,0.00795007,-1.34263,-2.97108,-0.0198581,35.2112,-0.174984,
2,0,0,1,0,60302.8,-0.187419,-0.187749,-45.8727,31,-0.00357308,10,0.00861256,-1.33845,-3.55497,-0.0165965,29.6974,-0.187749,
2,0,0,1,0,60302.8,-0.199647,-0.20006,-46.1896,31,-0.00427761,10,0.00924069,-1.33546,0.258784,0.227989,-400.194,-0.20006,
2,0,0,1,1,60302.8,-0.192535,-0.192966,-35.8042,31,-0.00468759,10,0.006909,-1.44607,-0.0788082,-0.748653,1069.25,-0.192966,
2,0,0,1,1,60302.8,-0.179739,-0.180148,-25.5045,31,-0.00517143,10,0.00459459,-1.59338,-0.0872852,-0.675945,674.503,-0.180148,
2,0,0,1,1,60302.8,-0.166932,-0.167345,-17.9451,31,-0.00551582,10,0.00300302,-1.74605,-0.0778092,-0.758265,529.525,-0.167345,
2,0,0,1,1,60302.8,-0.154139,-0.154559,-11.7695,31,-0.00575153,10,0.00181908,-1.92924,-0.0600091,-0.983185,446.543,-0.154559,
2,0,0,1,1,60302.8,-0.141335,-0.141797,-6.43335,31,-0.00589568,10,0.000912233,-2.19156,-0.0363505,-1.62309,391.098,-0.141797,
2,0,0,1,1,60302.9,-0.12854,-0.128994,-1.70368,31,-0.00595961,10,0.000219764,-2.76861,-0.0139208,-4.23827,352.193,-0.128994,
2,1,0,1,1,60302.9,-0.115736,-0.116167,2.57851,31,-0.00595158,10,-0.000299539,-2.58863,0.0131334,4.49238,320.84,-0.116167,
2,1,0,1,1,60302.9,-0.102932,-0.103376,6.52127,31,-0.00587789,10,-0.000674141,-2.18567,0.0488753,1.20715,297.031,-0.103376,
2,1,0,1,1,60302.9,-0.0901362,-0.0906094,10.1894,31,-0.00574344,10,-0.000923254,-1.99185,0.0839321,0.702949,275.831,-0.0906094,
2,1,0,1,1,60302.9,-0.0773322,-0.0777499,13.6083,31,-0.00555244,10,-0.00105804,-1.8662,0.121638,0.485047,255.599,-0.0777499,
2,1,0,1,1,60302.9,-0.0645393,-0.06499,16.7602,31,-0.00530884,10,-0.00108925,-1.77572,0.161363,0.365636,238.129,-0.06499,
2,1,0,1,1,60303,-0.0517325,-0.0521559,19.6821,31,-0.00501659,10,-0.00102654,-1.70593,0.20562,0.286937,219.781,-0.0521559,
2,1,0,1,1,60303,-0.0389369,-0.0393409,22.3763,31,-0.00467945,10,-0.000880305,-1.65021,0.255823,0.230628,200.998,-0.0393409,
2,1,0,1,1,60303,-0.0261357,-0.0265545,24.8546,31,-0.00430097,10,-0.000660001,-1.60459,0.311127,0.189633,183.582,-0.0265545,
2,1,0,1,1,60303,-0.01334,-0.013767,27.0895,31,-0.00388487,10,-0.000372943,-1.5672,0.374075,0.157722,166.503,-0.013767,
2,1,0,1,1,60303,-0.000774628,-0.00123038,29.0724,31,-0.00344352,10,-3.57701e-05,-1.53652, , , ,-0.00123038,
2,1,0,0,1,60303,-0.000125413,-0.000535284,29.1803,31,-0.00342023,10,-1.56198e-05,-1.53491, , , ,-0.000535284,