File: Figure_codes/Fig_3-5/rawdata_trumpetplot_data/after 10th/20221101_1-115_003_TrumpetPlot_ParaChange_from10_every3_02_CV_C01_24.csv
mode,ox/red,error,control changes,counter inc.,time/s,control/V,Ewe/V,<I>/mA,cycle number,(Q-Qo)/C,I Range,P/W,log(|I|),Tafel slope mV/dec,alpha_eff,dI/d(E-IR),E-IR/V,
2,0,0,1,0,47623.2,2.44065e-05,-0.000382585,-0.390061,25,0.0000000E+000,10,1.49232e-07,-3.40887, , , ,-0.000382585,
2,0,0,1,0,47630.4,0.00729061,0.00695116,-0.0962423,25,-0.000977568,10,-6.68995e-07,-4.01663,-0.0308823,-1.91048,7.23713,0.00695116,
2,0,0,1,0,47637.9,0.0147815,0.0144757,-0.0597891,25,-0.00147216,10,-8.65491e-07,-4.22338,-0.0382194,-1.54372,3.60312,0.0144757,
2,0,0,1,0,47645.4,0.0222725,0.0219845,-0.0385894,25,-0.00176522,10,-8.4837e-07,-4.41353,-0.0403861,-1.4609,2.22895,0.0219845,
2,0,0,1,0,47652.9,0.0297635,0.0294509,-0.0238688,25,-0.00192885,10,-7.02958e-07,-4.62217,-0.0274206,-2.15166,1.97125,0.0294509,
2,0,0,1,0,47660.4,0.0372544,0.0369246,-0.0110503,25,-0.00198439,10,-4.0803e-07,-4.95662,-0.0148467,-3.97394,1.58034,0.0369246,
2,0,0,1,0,47667.9,0.0447454,0.0444175,0.000801388,25,-0.00194799,10,3.55957e-08,-6.09616,0.0204485,2.8853,1.6593,0.0444175,
2,1,0,1,0,47675.4,0.0522363,0.0518668,0.0104241,25,-0.00182977,10,5.40663e-07,-4.98196,0.0161385,3.65586,1.43599,0.0518668,
2,1,0,1,0,47682.9,0.0597273,0.0594148,0.0201636,25,-0.00163974,10,1.19802e-06,-4.69543,0.0370192,1.59377,1.2142,0.0594148,
2,1,0,1,0,47690.4,0.0672183,0.0669417,0.0285439,25,-0.00138088,10,1.91077e-06,-4.54449,0.0950016,0.621042,0.683023,0.0669417,
2,1,0,1,0,47697.8,0.0747092,0.0743665,0.0352948,25,-0.00106492,10,2.62475e-06,-4.45229,0.0732236,0.805752,1.13618,0.0743665,
2,1,0,1,0,47705.3,0.0822001,0.0818795,0.0432701,25,-0.00068947,10,3.54293e-06,-4.36381,0.0872227,0.676429,1.15047,0.0818795,
2,1,0,1,0,47712.8,0.0896911,0.089383,0.0520865,25,-0.000255246,10,4.65564e-06,-4.28327,0.0896842,0.657864,1.34195,0.089383,
2,1,0,1,0,47720.3,0.0971821,0.0968621,0.0624365,25,0.000250964,10,6.04772e-06,-4.20456,0.0877647,0.672252,1.62211,0.0968621,
2,1,0,1,0,47727.8,0.104673,0.104369,0.0730262,25,0.000831667,10,7.62165e-06,-4.13652,0.1092,0.540295,1.5199,0.104369,
2,1,0,1,0,47735.3,0.112164,0.111838,0.0814887,25,0.00148801,10,9.11354e-06,-4.0889,0.222076,0.265674,0.842244,0.111838,
2,1,0,1,0,47742.8,0.119655,0.119317,0.0894539,25,0.0022072,10,1.06734e-05,-4.0484,0.24341,0.242389,0.848175,0.119317,
2,1,0,1,0,47750.3,0.127146,0.126826,0.0949801,25,0.00298291,10,1.20459e-05,-4.02237,0.660846,0.0892795,0.331308,0.126826,
2,1,0,1,0,47757.8,0.134637,0.13431,0.0934316,25,0.00377856,10,1.25488e-05,-4.02951,-0.17613,-0.334979,-1.22707,0.13431,
2,1,0,1,0,47765.3,0.142128,0.141793,0.0790737,25,0.00451065,10,1.12121e-05,-4.10197,-0.077873,-0.757644,-2.33238,0.141793,
2,1,0,1,0,47772.8,0.149619,0.14927,0.0627671,25,0.00511323,10,9.36928e-06,-4.20227,-0.0838723,-0.70345,-1.72707,0.14927,
2,1,0,1,0,47780.2,0.15711,0.156826,0.0544175,25,0.00561926,10,8.53408e-06,-4.26426,-0.164847,-0.357908,-0.757033,0.156826,
2,1,0,1,0,47787.7,0.164601,0.164256,0.0516968,25,0.00608604,10,8.49151e-06,-4.28654,-1.16927,-0.0504589,-0.101541,0.164256,
2,1,0,1,0,47795.2,0.172091,0.171778,0.0515753,25,0.0065427,10,8.85947e-06,-4.28756,-2.11132,-0.0279446,-0.0560547,0.171778,
2,1,0,1,0,47802.7,0.179582,0.179217,0.0515787,25,0.00699652,10,9.24381e-06,-4.28753,-2.24244,-0.0263106,-0.0529537,0.179217,
2,1,0,1,0,47810.2,0.187073,0.186728,0.0519813,25,0.00745335,10,9.70638e-06,-4.28415,1.14638,0.0514663,0.104227,0.186728,
2,1,0,1,0,47817.7,0.194564,0.19424,0.0526159,25,0.00791311,10,1.02201e-05,-4.27888,1.25677,0.0469458,0.0967745,0.19424,
2,1,0,1,0,47825.2,0.202055,0.201754,0.0535576,25,0.00837757,10,1.08055e-05,-4.27118,0.586741,0.100555,0.209828,0.201754,
2,1,0,1,0,47832.7,0.209546,0.209249,0.0541872,25,0.00884795,10,1.13386e-05,-4.2661,-4.27495,-0.0138013,-0.0291947,0.209249,
2,1,0,1,0,47840.2,0.217037,0.216747,0.0549106,25,0.00932286,10,1.19017e-05,-4.26034,2.37005,0.024894,0.0537398,0.216747,
2,1,0,1,0,47847.7,0.224528,0.224192,0.0562158,25,0.00980567,10,1.26031e-05,-4.25014,1.42402,0.0414319,0.0907866,0.2241925,
2,1,0,1,0,47855.2,0.232019,0.23167,0.0575697,25,0.0102956,10,1.33372e-05,-4.23981,1.02768,0.0574108,0.129563,0.23167,
2,1,0,1,0,47862.6,0.23951,0.23919,0.0583043,25,0.0107921,10,1.39458e-05,-4.2343,1.04205,0.0566189,0.127721,0.2391897,
2,1,0,1,0,47870.1,0.247001,0.246706,0.0593877,25,0.0112952,10,1.46513e-05,-4.2263,0.823445,0.0716502,0.16609,0.2467059,
2,1,0,1,0,47877.6,0.254492,0.254209,0.0600744,25,0.0118056,10,1.52715e-05,-4.22131,0.72577,0.081293,0.192108,0.254209,
2,1,0,1,0,47885.1,0.261983,0.26171,0.0612639,25,0.0123239,10,1.60334e-05,-4.2128,1.16202,0.0507739,0.121819,0.26171,
2,1,0,1,0,47892.6,0.269474,0.269188,0.0616257,25,0.0128467,10,1.65889e-05,-4.21024,0.83079,0.0710168,0.171423,0.2691876,
2,1,0,1,0,47900.1,0.276965,0.276675,0.0629191,25,0.0133744,10,1.74081e-05,-4.20122,1.76028,0.0335173,0.0825316,0.276675,
2,1,0,1,0,47907.6,0.284456,0.284113,0.0641011,25,0.0139094,10,1.8212e-05,-4.19313,2.60121,0.0226818,0.0564052,0.284113,
2,1,0,1,0,47915.1,0.291947,0.291659,0.0649124,25,0.0144497,10,1.89323e-05,-4.18767,0.793559,0.0743486,0.188376,0.291659,
2,1,0,1,0,47922.6,0.299438,0.299127,0.0654776,25,0.0149961,10,1.95861e-05,-4.18391,-0.00441773,-13.3553,-21.888,0.2991271,
2,1,0,1,0,47929.4,0.293745,0.293385,0.00929285,25,0.0150972,10,2.72638e-06,-5.03185,0.0138802,4.25066,1.51853,0.293385,
2,1,0,1,0,47936.9,0.286254,0.285931,0.000417816,25,0.0150717,10,1.19467e-07,-6.37902,0.0153072,3.8544,0.943669,0.285931,
2,0,0,1,0,47944.4,0.278763,0.278486,-0.00556439,25,0.0149937,10,-1.54961e-06,-5.25458,-0.0164751,-3.58116,0.722491,0.278486,
2,0,0,1,0,47951.9,0.271272,0.270974,-0.0102637,25,0.0148755,10,-2.78119e-06,-4.9887,-0.0414363,-1.42387,0.558192,0.270974,
2,0,0,1,0,47959.4,0.263781,0.263477,-0.0141012,25,0.0147251,10,-3.71534e-06,-4.85074,-0.0726802,-0.811775,0.446343,0.263477,
2,0,0,1,0,47966.9,0.25629,0.255996,-0.0176294,25,0.0145447,10,-4.51306e-06,-4.75376,-0.118516,-0.497824,0.343992,0.255996,
2,0,0,1,0,47974.4,0.248799,0.248477,-0.0210443,25,0.014339,10,-5.22901e-06,-4.67687,-0.106588,-0.553531,0.455748,0.248477,
2,0,0,1,0,47981.9,0.241308,0.240998,-0.0239486,25,0.0141079,10,-5.77155e-06,-4.62072,-0.129994,-0.453865,0.426125,0.240998,
2,0,0,1,0,47989.3,0.233817,0.233539,-0.0267623,25,0.0138548,10,-6.25003e-06,-4.57248,-0.130217,-0.45309,0.475019,0.233539,
2,0,0,1,0,47996.8,0.226326,0.226029,-0.0296905,25,0.013579,10,-6.71091e-06,-4.52738,-0.173193,-0.340661,0.401673,0.226029,
2,0,0,1,0,48004.3,0.218835,0.218561,-0.0325187,25,0.0132815,10,-7.10732e-06,-4.48787,-0.14698,-0.401416,0.511092,0.218561,
2,0,0,1,0,48011.8,0.211344,0.211002,-0.0354299,25,0.0129612,10,-7.47579e-06,-4.45063,-0.360667,-0.163586,0.225703,0.211002,
2,0,0,1,0,48019.3,0.203853,0.203575,-0.0381721,25,0.012621,10,-7.77088e-06,-4.41825,-0.232559,-0.253699,0.376888,0.203575,
2,0,0,1,0,48026.8,0.196362,0.196033,-0.0409442,25,0.0122582,10,-8.02642e-06,-4.38781,-0.239794,-0.246045,0.391465,0.196033,
2,0,0,1,0,48034.3,0.188871,0.188547,-0.0448648,25,0.0118705,10,-8.45912e-06,-4.34809,-0.189828,-0.310807,0.539361,0.188547,
2,0,0,1,0,48041.8,0.18138,0.181043,-0.0479483,25,0.0114562,10,-8.68071e-06,-4.31923,-0.169345,-0.348401,0.647257,0.181043,
2,0,0,1,0,48049.3,0.173889,0.173562,-0.0519772,25,0.011014,10,-9.02128e-06,-4.28419,-0.209298,-0.281895,0.569604,0.173562,
2,0,0,1,0,48056.8,0.166398,0.166065,-0.0567084,25,0.0105374,10,-9.41728e-06,-4.24635,-0.194011,-0.304107,0.67517,0.166065,
2,0,0,1,0,48064.3,0.158907,0.158537,-0.0625864,25,0.010019,10,-9.92227e-06,-4.20352,-0.138628,-0.425599,1.04472,0.158537,
2,0,0,1,0,48071.7,0.151417,0.151059,-0.0718087,25,0.00944078,10,-1.08474e-05,-4.14382,-0.108961,-0.541476,1.52009,0.151059,
2,0,0,1,0,48079.2,0.143926,0.143593,-0.0855212,25,0.0087771,10,-1.22803e-05,-4.06793,-0.0787807,-0.748914,2.49559,0.143593,
2,0,0,1,0,48086.7,0.136435,0.136117,-0.106658,25,0.00798132,10,-1.4518e-05,-3.97201,-0.0801125,-0.736464,3.06124,0.136117,
2,0,0,1,0,48094.2,0.128944,0.1286,-0.127549,25,0.00701839,10,-1.64028e-05,-3.89432,-0.142689,-0.413488,2.05631,0.1286,
2,0,0,1,0,48101.7,0.121453,0.12113,-0.13923,25,0.0059319,10,-1.6865e-05,-3.85627,-0.486192,-0.121351,0.655713,0.12113,
2,0,0,1,0,48109.2,0.113962,0.113632,-0.140044,25,0.00479971,10,-1.59135e-05,-3.85374,10.7528,0.00548693,-0.0301617,0.113632,
2,0,0,1,0,48116.7,0.106471,0.106152,-0.14072,25,0.00366335,10,-1.49377e-05,-3.85164,-44.1808,-0.00133542,0.00733988,0.1061522,
2,0,0,1,0,48124.2,0.0989798,0.0987124,-0.138953,25,0.00253326,10,-1.37163e-05,-3.85713,0.78651,0.0750149,-0.405994,0.0987124,
2,0,0,1,0,48131.7,0.0914889,0.0911538,-0.135831,25,0.00142498,10,-1.23815e-05,-3.867,0.670468,0.0879982,-0.465462,0.09115383,
2,0,0,1,0,48139.2,0.083998,0.083677,-0.130299,25,0.000348945,10,-1.09031e-05,-3.88506,0.362664,0.162685,-0.827633,0.083677,
2,0,0,1,0,48146.7,0.076507,0.0761968,-0.126389,25,-0.00069287,10,-9.63044e-06,-3.89829,0.868171,0.067959,-0.335327,0.0761968,
2,0,0,1,0,48154.1,0.069016,0.0687029,-0.123,25,-0.00170668,10,-8.45046e-06,-3.91009,0.7656,0.0770637,-0.370493,0.0687029,
2,0,0,1,0,48161.6,0.0615251,0.0611984,-0.119969,25,-0.00269643,10,-7.34194e-06,-3.92093,0.551829,0.106917,-0.500258,0.0611984,
2,0,0,1,0,48169.1,0.0540342,0.0537353,-0.116536,25,-0.00366038,10,-6.26208e-06,-3.93354,0.829777,0.0711034,-0.324395,0.0537353,
2,0,0,1,0,48176.6,0.0465432,0.0462054,-0.113535,25,-0.00460215,10,-5.24595e-06,-3.94487,0.578441,0.101998,-0.454034,0.04620539,
2,0,0,1,0,48184.1,0.0390522,0.0387644,-0.111216,25,-0.0055203,10,-4.31123e-06,-3.95383,0.508803,0.115958,-0.501275,0.0387644,
2,0,0,1,0,48191.6,0.0315613,0.0312716,-0.108509,25,-0.00641996,10,-3.39324e-06,-3.96454,0.72408,0.0814827,-0.345965,0.0312716,
2,0,0,1,0,48199.1,0.0240703,0.0237618,-0.106148,25,-0.0073012,10,-2.52227e-06,-3.97409,3.31964,0.017773,-0.0740748,0.0237618,
2,0,0,1,0,48206.6,0.0165794,0.0162659,-0.106481,25,-0.008172,10,-1.73201e-06,-3.97273,-3.50727,-0.0168222,0.069543,0.0162659,
2,0,0,1,0,48214.1,0.00908843,0.00879414,-0.10706,25,-0.00904352,10,-9.41502e-07,-3.97037,-1.11411,-0.0529569,0.221737,0.00879414,
2,0,0,1,0,48221.6,0.00159744,0.0012143,-0.110856,25,-0.00993153,10,-1.34612e-07,-3.95524, , , ,0.0012143,
2,0,0,1,0,48223,0.000199235,-0.000206971,-0.11015,25,-0.0100995,10,2.27979e-08,-3.95802, , , ,-0.000206971,