File: Figure_codes/Fig_3-5/rawdata_trumpetplot_data/after 10th/20221101_1-115_003_TrumpetPlot_ParaChange_from10_every3_06_CV_C01_20.csv
mode,ox/red,error,control changes,counter inc.,time/s,control/V,Ewe/V,<I>/mA,cycle number,(Q-Qo)/C,I Range,P/W,log(|I|),Tafel slope mV/dec,alpha_eff,dI/d(E-IR),E-IR/V,
2,0,0,0,0,40552.6,2.44065e-05,-0.000248974,-1.42488,21,0.0000000E+000,10,3.5476e-07,-2.84622, , , ,-0.000248974,
2,1,0,1,0,40552.8,0.00729063,0.0069783,1.04164,21,5.55358e-05,10,7.26886e-06,-2.98228,0.0216626,2.72359,104.975,0.0069783,
2,1,0,1,0,40553,0.014778,0.0144208,1.48262,21,0.00030199,10,2.13805e-05,-2.82897,0.0895602,0.658775,38.0881,0.0144208,
2,1,0,1,0,40553.2,0.0222743,0.0219731,1.71235,21,0.000605494,10,3.76256e-05,-2.76641,0.152501,0.386884,25.7008,0.0219731,
2,1,0,1,0,40553.4,0.0297626,0.0294177,1.88878,21,0.000945253,10,5.55635e-05,-2.72382,0.178622,0.330306,24.3326,0.0294177,
2,1,0,1,0,40553.6,0.0372544,0.0369241,2.06084,21,0.00131789,10,7.60945e-05,-2.68596,0.210976,0.279652,22.5021,0.0369241,
2,1,0,1,0,40553.7,0.0447472,0.044431,2.23227,21,0.00172244,10,9.91821e-05,-2.65125,0.22247,0.265204,23.0589,0.044431,
2,1,0,1,0,40553.9,0.0522345,0.0518891,2.39224,21,0.00215819,10,0.000124131,-2.6212,0.24649,0.239361,22.3964,0.0518891,
2,1,0,1,0,40554.1,0.0597309,0.0594103,2.54786,21,0.00262442,10,0.000151369,-2.59382,0.265839,0.221939,22.0854,0.0594103,
2,1,0,1,0,40554.3,0.0672182,0.0668602,2.69412,21,0.00311791,10,0.000180129,-2.56958,0.353749,0.166785,17.4947,0.0668602,
2,1,0,1,0,40554.5,0.0747074,0.0744271,2.81466,21,0.00363651,10,0.000209487,-2.55057,0.452187,0.130477,14.3488,0.0744271,
2,1,0,1,0,40554.7,0.0822019,0.0818633,2.92012,21,0.00417701,10,0.00023905,-2.5346,0.552909,0.106708,12.1444,0.0818633,
2,1,0,1,0,40554.9,0.0896911,0.0893639,3.01842,21,0.00473522,10,0.000269738,-2.52022,0.463432,0.127311,15.0014,0.0893639,
2,1,0,1,0,40555.1,0.097182,0.0968912,3.14468,21,0.00531477,10,0.000304692,-2.50242,0.304551,0.193728,23.8488,0.0968912,
2,1,0,1,0,40555.2,0.104675,0.104326,3.36352,21,0.005926,10,0.000350904,-2.47321,0.225339,0.261827,34.3471,0.104326,
2,1,0,1,0,40555.4,0.112162,0.111857,3.63226,21,0.00658282,10,0.000406295,-2.43982,0.230959,0.255456,36.1756,0.111857,
2,1,0,1,0,40555.6,0.119655,0.119332,3.88407,21,0.00729051,10,0.000463496,-2.41071,0.328449,0.179632,27.215,0.1193324,
2,1,0,1,0,40555.8,0.127146,0.126772,4.05423,21,0.00803788,10,0.000513962,-2.39209,0.539382,0.109384,17.2852,0.126772,
2,1,0,1,0,40556,0.134635,0.134312,4.15608,21,0.00881024,10,0.00055821,-2.38132,1.00453,0.0587337,9.54199,0.134312,
2,1,0,1,0,40556.2,0.14213,0.141814,4.17036,21,0.00959596,10,0.000591414,-2.37983,-0.78025,-0.0756168,-12.2655,0.1418135,
2,1,0,1,0,40556.4,0.149619,0.14932,3.87451,21,0.0103573,10,0.000578543,-2.41178,-0.135189,-0.436427,-65.6637,0.14932,
2,1,0,1,0,40556.6,0.157106,0.156765,3.24747,21,0.0110293,10,0.00050909,-2.48845,-0.0833751,-0.707645,-89.7401,0.156765,
2,1,0,1,0,40556.7,0.164602,0.164255,2.6688,21,0.0115832,10,0.000438363,-2.57368,-0.0964772,-0.611544,-63.7441,0.164255,
2,1,0,1,0,40556.9,0.172091,0.171767,2.29481,21,0.0120472,10,0.000394172,-2.63925,-0.14432,-0.408813,-36.7244,0.171767,
2,1,0,1,0,40557.1,0.179582,0.17929,2.07732,21,0.0124579,10,0.000372443,-2.6825,-0.216727,-0.272232,-22.1644,0.17929,
2,1,0,1,0,40557.3,0.187074,0.186766,1.95983,21,0.0128374,10,0.00036603,-2.70778,-0.374437,-0.15757,-11.9989,0.186766,
2,1,0,1,0,40557.5,0.194563,0.194231,1.87545,21,0.0131981,10,0.00036427,-2.7269,-0.564392,-0.104537,-7.66979,0.194231,
2,1,0,1,0,40557.7,0.202059,0.201745,1.82368,21,0.0135473,10,0.000367919,-2.73905,-0.681532,-0.0865697,-6.16303,0.201745,
2,1,0,1,0,40557.9,0.209546,0.209204,1.79228,21,0.0138881,10,0.000374951,-2.74659,-0.775963,-0.0760345,-5.31187,0.209204,
2,1,0,1,0,40558.1,0.217035,0.216723,1.75518,21,0.0142229,10,0.000380389,-2.75568,-1.35127,-0.0436626,-3.0083,0.216723,
2,1,0,1,0,40558.2,0.22453,0.224222,1.73606,21,0.0145535,10,0.000389263,-2.76044,-1.82967,-0.0322462,-2.1895,0.224222,
2,1,0,1,0,40558.4,0.232019,0.231681,1.72188,21,0.01488,10,0.000398926,-2.764,-2.22121,-0.0265621,-1.78188,0.231681,
2,1,0,1,0,40558.6,0.23951,0.239214,1.70288,21,0.0152037,10,0.000407353,-2.76882,-1.55664,-0.0379022,-2.52509,0.239214,
2,1,0,1,0,40558.8,0.247003,0.246718,1.6941,21,0.0155247,10,0.000417965,-2.77106,-1.77249,-0.0332865,-2.19422,0.2467179,
2,1,0,1,0,40559,0.25449,0.254154,1.67977,21,0.0158429,10,0.000426921,-2.77475,-1.58334,-0.037263,-2.44547,0.254154,
2,1,0,1,0,40559.2,0.261983,0.261665,1.66566,21,0.016159,10,0.000435845,-2.77841,-2.10507,-0.0280276,-1.82807,0.261665,
2,1,0,1,0,40559.4,0.269474,0.269159,1.65619,21,0.0164728,10,0.000445779,-2.78089,-6.28878,-0.00938179,-0.60561,0.269159,
2,1,0,1,0,40559.5,0.276963,0.276661,1.64326,21,0.0167844,10,0.000454626,-2.78429,-2.69984,-0.0218531,-1.40417,0.276661,
2,1,0,1,0,40559.7,0.284458,0.28412,1.63019,21,0.0170937,10,0.000463169,-2.78776,-3.33651,-0.0176832,-1.12553,0.28412,
2,1,0,1,0,40559.9,0.291947,0.291588,1.61652,21,0.0174002,10,0.000471358,-2.79142,-1.48364,-0.0397672,-2.50429,0.291588,
2,1,0,1,0,40560.1,0.299434,0.299113,1.59946,21,0.0177039,10,0.000478418,-2.79603,-0.0178567,-3.30407,-180.625,0.299113,
2,0,0,1,0,40560.3,0.294196,0.293844,-0.27285,21,0.0177573,10,-8.01753e-05,-3.56408,-0.005476,-10.7743,78.0822,0.293844,
2,0,0,1,0,40560.5,0.286701,0.286389,-0.561708,21,0.0176712,10,-0.000160867,-3.25049,-0.0555073,-1.06292,23.1167,0.286389,
2,0,0,1,0,40560.6,0.279212,0.278894,-0.698016,21,0.0175491,10,-0.000194672,-3.15613,-0.109209,-0.540248,14.7318,0.278894,
2,0,0,1,0,40560.8,0.271725,0.271425,-0.794582,21,0.0174058,10,-0.000215669,-3.09986,-0.143953,-0.409856,12.6802,0.271425,
2,0,0,1,0,40561,0.264228,0.263871,-0.872859,21,0.0172464,10,-0.000230322,-3.05906,-0.227953,-0.258826,8.80488,0.263871,
2,0,0,1,0,40561.2,0.256741,0.256434,-0.93492,21,0.0170743,10,-0.000239745,-3.02923,-0.274914,-0.214613,7.82515,0.256434,
2,0,0,1,0,40561.4,0.249248,0.248911,-0.992497,21,0.0168907,10,-0.000247044,-3.00327,-0.313176,-0.188392,7.27086,0.248911,
2,0,0,1,0,40561.6,0.241756,0.241437,-1.03723,21,0.016697,10,-0.000250424,-2.98413,-0.390113,-0.151238,6.1777,0.241437,
2,0,0,1,0,40561.8,0.234268,0.233932,-1.09438,21,0.016494,10,-0.00025601,-2.96083,-0.35329,-0.167002,7.12374,0.233932,
2,0,0,1,0,40562,0.226772,0.226457,-1.14153,21,0.0162818,10,-0.000258507,-2.94251,-0.387092,-0.152418,6.76158,0.226457,
2,0,0,1,0,40562.1,0.219284,0.219008,-1.18275,21,0.0160615,10,-0.000259031,-2.92711,-0.437744,-0.134782,6.23167,0.219008,
2,0,0,1,0,40562.3,0.211796,0.211437,-1.23224,21,0.0158326,10,-0.000260541,-2.9093,-0.571047,-0.103319,4.93206,0.211437,
2,0,0,1,0,40562.5,0.204301,0.204028,-1.27261,21,0.0155952,10,-0.000259648,-2.8953,-0.649549,-0.0908323,4.52285,0.204028,
2,0,0,1,0,40562.7,0.196812,0.196473,-1.31962,21,0.0153495,10,-0.00025927,-2.87955,-0.421347,-0.140027,7.21267,0.1964726,
2,0,0,1,0,40562.9,0.189321,0.188982,-1.37108,21,0.0150946,10,-0.00025911,-2.86294,-0.448461,-0.131561,7.02851,0.188982,
2,0,0,1,0,40563.1,0.181828,0.181479,-1.42463,21,0.01483,10,-0.00025854,-2.8463,-0.407716,-0.144709,8.0623,0.181479,
2,0,0,1,0,40563.3,0.174341,0.173993,-1.49376,21,0.0145542,10,-0.000259903,-2.82572,-0.328906,-0.179382,10.4286,0.173993,
2,0,0,1,0,40563.5,0.166848,0.166541,-1.57668,21,0.0142644,10,-0.000262581,-2.80226,-0.301133,-0.195927,12.0149,0.166541,
2,0,0,1,0,40563.6,0.159357,0.159007,-1.68512,21,0.0139564,10,-0.000267947,-2.77337,-0.218657,-0.269829,17.8253,0.159007,
2,0,0,1,0,40563.8,0.151868,0.15155,-1.85841,21,0.0136224,10,-0.000281643,-2.73086,-0.152438,-0.387042,28.1429,0.15155,
2,0,0,1,0,40564,0.144373,0.144087,-2.13719,21,0.0132468,10,-0.000307942,-2.67016,-0.104552,-0.564312,47.2469,0.144087,
2,0,0,1,0,40564.2,0.136884,0.136537,-2.57407,21,0.0128047,10,-0.000351456,-2.58938,-0.0889921,-0.66298,66.6576,0.136537,
2,0,0,1,0,40564.4,0.129393,0.129036,-3.10411,21,0.0122705,10,-0.000400542,-2.50806,-0.0997356,-0.591564,71.4625,0.129036,
2,0,0,1,0,40564.6,0.1219,0.12159,-3.58372,21,0.0116398,10,-0.000435746,-2.44567,-0.144151,-0.409292,57.1116,0.12159,
2,0,0,1,0,40564.8,0.114413,0.114079,-3.95071,21,0.0109292,10,-0.000450693,-2.40332,-0.234052,-0.252081,38.8195,0.114079,
2,0,0,1,0,40565,0.10692,0.106588,-4.1569,21,0.010164,10,-0.000443077,-2.38123,-0.618211,-0.0954367,15.4532,0.106588,
2,0,0,1,0,40565.1,0.0994284,0.0990824,-4.18181,21,0.00937692,10,-0.000414344,-2.37864,1.43291,0.0411749,-6.72441,0.0990824,
2,0,0,1,0,40565.3,0.0919401,0.0916026,-4.08152,21,0.00859877,10,-0.000373878,-2.38918,0.541766,0.108903,-17.3442,0.0916026,
2,0,0,1,0,40565.5,0.0844447,0.0841705,-3.94208,21,0.00784399,10,-0.000331807,-2.40427,0.550232,0.107228,-16.4958,0.0841705,
2,0,0,1,0,40565.7,0.0769565,0.0766526,-3.82295,21,0.00711451,10,-0.000293039,-2.4176,0.627736,0.0939885,-14.0378,0.0766526,
2,0,0,1,0,40565.9,0.0694682,0.0691196,-3.73328,21,0.00640428,10,-0.000258043,-2.42791,0.692181,0.0852378,-12.4043,0.0691196,
2,0,0,1,0,40566.1,0.0619728,0.0616943,-3.63513,21,0.00571065,10,-0.000224267,-2.43948,0.622772,0.0947377,-13.4535,0.0616943,
2,0,0,1,0,40566.3,0.0544836,0.0541356,-3.53346,21,0.00503594,10,-0.000191286,-2.4518,0.684533,0.0861901,-11.9014,0.0541356,
2,0,0,1,0,40566.5,0.0469927,0.0466573,-3.43367,21,0.0043801,10,-0.000160205,-2.46424,0.567667,0.103934,-13.9078,0.0466573,
2,0,0,1,0,40566.6,0.0394999,0.0391776,-3.3206,21,0.00374498,10,-0.000130093,-2.47878,0.496693,0.118786,-15.3781,0.0391776,
2,0,0,1,0,40566.8,0.0320125,0.0316916,-3.19004,21,0.00313275,10,-0.000101097,-2.4962,0.425091,0.138794,-17.2758,0.0316916,
2,0,0,1,0,40567,0.0245198,0.0241989,-3.05729,21,0.00254445,10,-7.39829e-05,-2.51466,0.403007,0.146399,-17.4733,0.0241989,
2,0,0,1,0,40567.2,0.0170289,0.016712,-2.94015,21,0.00197964,10,-4.91358e-05,-2.53163,0.504004,0.117063,-13.47,0.01671198,
2,0,0,1,0,40567.4,0.0095397,0.00917624,-2.85357,21,0.0014347,10,-2.61851e-05,-2.54461,0.756036,0.0780387,-8.68023,0.00917624,
2,0,0,1,0,40567.6,0.00204518,0.00168345,-2.82396,21,0.000903231,10,-4.75399e-06,-2.54914,1.72144,0.0342737,-3.74236,0.00168345,
2,0,0,1,0,40567.6,0.000177222,-0.000185223,-2.79052,21,0.000771407,10,5.16868e-07,-2.55431, , , ,-0.0001852226,