File: Figure_codes/Fig_3-5/rawdata_trumpetplot_data/after 10th/20221101_1-115_003_TrumpetPlot_ParaChange_from10_every3_14_CV_C01_32.csv
mode,ox/red,error,control changes,counter inc.,time/s,control/V,Ewe/V,<I>/mA,cycle number,(Q-Qo)/C,I Range,P/W,log(|I|),Tafel slope mV/dec,alpha_eff,dI/d(E-IR),E-IR/V,
2,1,0,1,0,64243.3,2.44065e-05,-0.000248974,29.4748,33,0.0000000E+000,10,-7.33847e-06,-1.53055, , , ,-0.000248974,
2,1,0,1,0,64243.3,0.0133084,0.0129404,33.0974,33,0.000414114,10,0.000428292,-1.48021,0.359104,0.164298,211.395,0.0129404,
2,1,0,1,0,64243.3,0.0273414,0.0269653,35.7402,33,0.000896911,10,0.000963744,-1.44684,0.471647,0.125094,174.061,0.0269653,
2,1,0,1,0,64243.3,0.0413245,0.0409298,37.994,33,0.00141359,10,0.00155509,-1.42028,0.579225,0.10186,150.787,0.0409298,
2,1,0,1,0,64243.3,0.0553076,0.05496,39.9915,33,0.0019598,10,0.00219793,-1.39803,0.663634,0.0889044,138.685,0.05496,
2,1,0,1,0,64243.3,0.0693407,0.0689638,41.8488,33,0.00253307,10,0.00288605,-1.37832,0.75101,0.0785608,128.179,0.0689638,
2,1,0,1,0,64243.4,0.0833238,0.0829367,43.5702,33,0.00313131,10,0.00361357,-1.36081,0.831074,0.0709925,120.68,0.0829367,
2,1,0,1,0,64243.4,0.0973069,0.0969352,45.2528,33,0.00375324,10,0.00438659,-1.34435,0.843186,0.0699727,123.623,0.09693516,
2,1,0,1,0,64243.4,0.11134,0.110981,46.9788,33,0.00439912,10,0.00521377,-1.3281,0.876107,0.0673434,123.445,0.110981,
2,1,0,1,0,64243.4,0.125323,0.124885,48.6605,33,0.00506889,10,0.00607698,-1.31282,0.898406,0.0656719,124.806,0.124885,
2,1,0,1,0,64243.4,0.139306,0.138886,50.5247,33,0.00576293,10,0.00701717,-1.2965,0.837183,0.0704744,138.996,0.1388859,
2,1,0,1,0,64243.4,0.153339,0.152983,52.5125,33,0.00648431,10,0.00803351,-1.27974,0.841328,0.0701272,143.745,0.152983,
2,1,0,1,0,64243.4,0.167322,0.166943,54.5486,33,0.00723402,10,0.00910651,-1.26322,0.874446,0.0674713,143.591,0.166943,
2,1,0,1,0,64243.5,0.181305,0.180914,56.4859,33,0.00801171,10,0.0102191,-1.24806,0.993673,0.0593757,130.804,0.180914,
2,1,0,1,0,64243.5,0.195338,0.19497,58.1542,33,0.00881485,10,0.0113383,-1.23542,1.3433,0.0439217,99.5285,0.19497,
2,1,0,1,0,64243.5,0.209322,0.208945,59.2604,33,0.00963754,10,0.0123821,-1.22724,2.46151,0.023969,55.323,0.208945,
2,1,0,1,0,64243.5,0.223305,0.22295,59.6866,33,0.010471,10,0.0133071,-1.22412,19.3233,0.00305331,7.10095,0.22295,
2,1,0,1,0,64243.5,0.237338,0.237042,59.4409,33,0.0113059,10,0.01409,-1.22591,-3.00318,-0.0196458,-45.4895,0.237042,
2,1,0,1,0,64243.5,0.251321,0.250985,58.4632,33,0.0121319,10,0.0146734,-1.23312,-1.43231,-0.0411923,-93.8112,0.250985,
2,1,0,1,0,64243.5,0.265304,0.264937,56.8235,33,0.0129395,10,0.0150547,-1.24547,-0.959531,-0.0614884,-136.163,0.264937,
2,1,0,1,0,64243.6,0.279337,0.279001,54.6444,33,0.0137202,10,0.0152458,-1.26245,-0.72059,-0.0818774,-174.377,0.279001,
2,1,0,1,0,64243.6,0.29332,0.29298,52.0549,33,0.0144671,10,0.015251,-1.28354,-0.62638,-0.094192,-191.761,0.2929799,
2,1,0,1,0,64243.6,0.298714,0.298514,48.2328,33,0.0148748,10,0.0143982,-1.31666,0.0640473,0.921195,1586.51,0.298514,
2,1,0,1,0,64243.6,0.28473,0.284513,32.169,33,0.0154246,10,0.0091525,-1.49256,0.082449,0.715594,903.141,0.284513,
2,1,0,1,0,64243.6,0.270747,0.270466,21.37,33,0.0157949,10,0.00577988,-1.67019,0.0722571,0.816529,678.396,0.270466,
2,1,0,1,0,64243.6,0.256714,0.256409,12.9554,33,0.016032,10,0.00332188,-1.88755,0.0545953,1.08068,537.724,0.256409,
2,1,0,1,0,64243.6,0.242731,0.242448,6.21407,33,0.0161639,10,0.00150659,-2.20662,0.0302107,1.95295,435.918,0.242448,
2,1,0,1,0,64243.7,0.228748,0.228481,0.679286,33,0.0162104,10,0.000155204,-3.16795,0.0636532,0.926898,360.118,0.228481,
2,0,0,1,0,64243.7,0.214715,0.214441,-3.95869,33,0.0161859,10,-0.000848906,-2.40245,-0.0247998,-2.37906,303.1,0.214441,
2,0,0,1,0,64243.7,0.200732,0.200435,-7.86556,33,0.016102,10,-0.00157653,-2.10427,-0.0674023,-0.875341,259.446,0.200435,
2,0,0,1,0,64243.7,0.186735,0.186439,-11.2731,33,0.0159672,10,-0.00210174,-1.94796,-0.11223,-0.525704,227.98,0.186439,
2,0,0,1,0,64243.7,0.172716,0.172441,-14.3071,33,0.0157874,10,-0.00246714,-1.84445,-0.158494,-0.372255,206.397,0.172441,
2,0,0,1,0,64243.7,0.158733,0.158432,-17.122,33,0.0155671,10,-0.00271269,-1.76644,-0.195697,-0.301487,200.985,0.158432,
2,0,0,1,0,64243.7,0.144719,0.144428,-19.994,33,0.0153073,10,-0.00288769,-1.6991,-0.215965,-0.273192,213.155,0.144428,
2,0,0,1,0,64243.7,0.130717,0.130371,-23.1619,33,0.0150053,10,-0.00301964,-1.63523,-0.217618,-0.271117,245.513,0.130371,
2,0,0,1,0,64243.8,0.116733,0.116416,-26.9209,33,0.0146552,10,-0.00313402,-1.56991,-0.213044,-0.276938,291.154,0.116416,
2,0,0,1,0,64243.8,0.102703,0.102423,-31.2581,33,0.0142482,10,-0.00320154,-1.50504,-0.228531,-0.25817,314.029,0.102423,
2,0,0,1,0,64243.8,0.0887172,0.0884668,-35.59,33,0.0137797,10,-0.00314853,-1.44867,-0.270118,-0.218423,302.552,0.0884668,
2,0,0,1,0,64243.8,0.0747341,0.0744789,-39.6492,33,0.0132521,10,-0.00295303,-1.40177,-0.335644,-0.175781,271.127,0.0744789,
2,0,0,1,0,64243.8,0.0607011,0.0604148,-43.188,33,0.0126713,10,-0.00260919,-1.36464,-0.43296,-0.136271,228.868,0.0604148,
2,0,0,1,0,64243.8,0.046718,0.0464397,-46.0392,33,0.012046,10,-0.00213805,-1.33687,-0.565637,-0.104307,186.959,0.0464397,
2,0,0,1,0,64243.8,0.0327349,0.0324784,-48.3651,33,0.0113843,10,-0.00157082,-1.31547,-0.748348,-0.0788403,148.538,0.0324784,
2,0,0,1,0,64243.9,0.0187018,0.0184704,-50.2696,33,0.0106935,10,-0.000928498,-1.29869,-0.950684,-0.0620605,121.527,0.01847038,
2,0,0,1,0,64243.9,0.00471873,0.00442424,-51.7025,33,0.00997884,10,-0.000228744,-1.28649,-1.3644,-0.0432423,87.1727,0.00442424,
2,0,0,1,0,64243.9,-0.00926438,-0.00962403,-52.7131,33,0.0092471,10,0.000507312,-1.27808,-2.27235,-0.0259643,53.3372,-0.00962403,
2,0,0,1,0,64243.9,-0.0232974,-0.0236564,-53.2877,33,0.00850475,10,0.0012606,-1.27337,-4.63823,-0.0127204,26.4082,-0.0236564,
2,0,0,1,0,64243.9,-0.0372805,-0.0376538,-53.4195,33,0.00775739,10,0.00201144,-1.2723,128.984,0.000457423,-0.953005,-0.0376538,
2,0,0,1,0,64243.9,-0.0512637,-0.051596,-53.3024,33,0.00701017,10,0.00275019,-1.27325,7.49682,0.00787,-16.3594,-0.051596,
2,0,0,1,0,64243.9,-0.0652967,-0.0656475,-53.055,33,0.00626585,10,0.00348293,-1.27527,5.74196,0.0102752,-21.2568,-0.0656475,
2,0,0,1,0,64244,-0.0792798,-0.0796565,-52.6849,33,0.00552574,10,0.00419669,-1.27831,4.85448,0.0121537,-24.9947,-0.0796565,
2,0,0,1,0,64244,-0.0932629,-0.093639,-52.3616,33,0.00479046,10,0.00490309,-1.28099,5.74206,0.0102751,-21.0021,-0.093639,
2,0,0,1,0,64244,-0.107296,-0.10766,-52.1465,33,0.00405916,10,0.00561408,-1.28277,9.70621,0.00607858,-12.3671,-0.10766,
2,0,0,1,0,64244,-0.121279,-0.121634,-51.9765,33,0.0033305,10,0.0063221,-1.28419,16.4448,0.00358776,-7.28116,-0.121634,
2,0,0,1,0,64244,-0.135262,-0.135635,-51.9402,33,0.0026032,10,0.00704493,-1.2845,-69.4859,-0.000849094,1.72207,-0.135635,
2,0,0,1,0,64244,-0.149295,-0.149682,-52.066,33,0.00187532,10,0.00779332,-1.28345,-9.89587,-0.00596208,12.1135,-0.149682,
2,0,0,1,0,64244,-0.163278,-0.163618,-52.2469,33,0.00114521,10,0.00854856,-1.28194,-7.14474,-0.00825782,16.843,-0.163618,
2,0,0,1,0,64244.1,-0.177261,-0.177618,-52.5031,33,0.000411949,10,0.0093255,-1.27981,-6.18337,-0.00954172,19.5533,-0.177618,
2,0,0,1,0,64244.1,-0.191295,-0.191677,-52.8206,33,-0.000325297,10,0.0101245,-1.2772,-5.85143,-0.010083,20.7728,-0.191677,
2,0,0,0,1,64244.1,-0.199984,-0.200685,-52.6277,33,-0.000817076,10,0.0105616,-1.27879,-0.0425409,-1.3869,2542.93,-0.200685,
2,0,0,1,1,64244.1,-0.186686,-0.187136,-35.5492,33,-0.00137341,10,0.00665253,-1.44917,-0.0909755,-0.648527,912.386,-0.187136,
2,0,0,1,1,64244.1,-0.172667,-0.173071,-25.1831,33,-0.00179346,10,0.00435846,-1.59889,-0.0905768,-0.651381,640.581,-0.173071,
2,0,0,1,1,64244.1,-0.158684,-0.159104,-17.1856,33,-0.00208736,10,0.00273431,-1.76483,-0.0752235,-0.78433,522.119,-0.1591043,
2,0,0,1,1,64244.1,-0.14467,-0.145131,-10.4352,33,-0.00227915,10,0.00151447,-1.9815,-0.0522262,-1.1297,448.556,-0.1451313,
2,0,0,1,1,64244.1,-0.130668,-0.13111,-4.57169,33,-0.00238278,10,0.000599392,-2.33992,-0.0221037,-2.66924,397.727,-0.13111,
2,1,0,1,1,64244.2,-0.116685,-0.117111,0.706317,33,-0.00240865,10,-8.27176e-05,-3.151,0.0814896,0.724019,360.396,-0.117111,
2,1,0,1,1,64244.2,-0.102654,-0.103169,5.58878,33,-0.00236392,10,-0.000576588,-2.25268,0.0348359,1.69366,332.962,-0.1031689,
2,1,0,1,1,64244.2,-0.0886685,-0.0891376,10.052,33,-0.00225375,10,-0.000896013,-1.99775,0.0727889,0.810564,309.855,-0.0891376,
2,1,0,1,1,64244.2,-0.0746854,-0.0751381,14.2236,33,-0.002083,10,-0.00106873,-1.84699,0.112712,0.523458,287.229,-0.0751381,
2,1,0,1,1,64244.2,-0.0606523,-0.0610527,18.1762,33,-0.00185576,10,-0.00110971,-1.7405,0.155049,0.380526,267.217,-0.0610527,
2,1,0,1,1,64244.2,-0.0466692,-0.0471147,21.7425,33,-0.00157589,10,-0.00102439,-1.66269,0.202128,0.291894,246.412,-0.0471147,
2,1,0,1,1,64244.2,-0.0326861,-0.0331089,25.0572,33,-0.00124767,10,-0.000829615,-1.60107,0.252795,0.233391,227.488,-0.0331089,
2,1,0,1,1,64244.3,-0.018653,-0.0190691,28.1603,33,-0.000874697,10,-0.000536992,-1.55036,0.30779,0.191689,209.851,-0.0190691,
2,1,0,1,1,64244.3,-0.00466992,-0.00508125,30.9362,33,-0.000460535,10,-0.000157195,-1.50953, , , ,-0.00508125,
2,1,0,0,1,64244.3,-0.000175352,-0.000554371,31.7728,33,-0.000319406,10,-1.76139e-05,-1.49794, , , ,-0.000554371,