File: Figure_codes/Fig_3-5/rawdata_trumpetplot_data/after 10th/20221101_1-115_003_TrumpetPlot_ParaChange_from10_every3_09_CV_C01_32.csv
mode,ox/red,error,control changes,counter inc.,time/s,control/V,Ewe/V,<I>/mA,cycle number,(Q-Qo)/C,I Range,P/W,log(|I|),Tafel slope mV/dec,alpha_eff,dI/d(E-IR),E-IR/V,
2,0,0,0,0,64226.7,2.44065e-05,-0.00042076,-5.22517,33,0.0000000E+000,10,2.19855e-06,-2.2819, , , ,-0.00042076,
2,1,0,1,0,64226.8,0.00978761,0.0094964,0.614689,33,-0.000148087,10,5.83733e-06,-3.21134,0.00217038,27.1841,285.68,0.0094964,
2,1,0,1,0,64226.9,0.0197755,0.0194425,2.4838,33,1.99119e-05,10,4.82913e-05,-2.60488,0.0456761,1.2917,124.097,0.0194425,
2,1,0,1,0,64227,0.0297635,0.0294153,3.43507,33,0.0003197,10,0.000101044,-2.46406,0.107514,0.548767,73.2752,0.0294153,
2,1,0,1,0,64227.1,0.0397514,0.0394103,4.07268,33,0.00069616,10,0.000160506,-2.39012,0.153738,0.38377,60.9581,0.0394103,
2,1,0,1,0,64227.2,0.0497484,0.0494236,4.61233,33,0.00113058,10,0.000227958,-2.33608,0.211541,0.278905,50.0907,0.0494236,
2,1,0,1,0,64227.3,0.0597273,0.0593729,5.0843,33,0.00161469,10,0.00030187,-2.29377,0.252146,0.233991,46.4123,0.0593729,
2,1,0,1,0,64227.4,0.0697152,0.0693633,5.51587,33,0.00214505,10,0.000382599,-2.25839,0.326513,0.180697,38.9242,0.0693633,
2,1,0,1,0,64227.5,0.0797031,0.0793868,5.90858,33,0.00271656,10,0.000469064,-2.22852,0.396332,0.148865,34.3136,0.0793868,
2,1,0,1,0,64227.6,0.0896911,0.0893581,6.23701,33,0.00332396,10,0.000557327,-2.20502,0.432027,0.136566,33.279,0.0893581,
2,1,0,1,0,64227.7,0.099679,0.0993337,6.58638,33,0.0039635,10,0.000654249,-2.18135,0.385131,0.153195,39.3477,0.0993337,
2,1,0,1,0,64227.8,0.109667,0.10934,7.06029,33,0.00464364,10,0.000771969,-2.15118,0.286389,0.206014,56.7757,0.10934,
2,1,0,1,0,64227.9,0.119655,0.119325,7.68335,33,0.00537993,10,0.000916818,-2.11445,0.29013,0.203357,60.9831,0.119325,
2,1,0,1,0,64228,0.129643,0.129299,8.25433,33,0.00617755,10,0.00106728,-2.08332,0.39482,0.149435,48.097,0.129299,
2,1,0,1,0,64228.1,0.139631,0.139304,8.61959,33,0.00702283,10,0.00120075,-2.06451,0.73328,0.0804604,27.0641,0.139304,
2,1,0,1,0,64228.2,0.149619,0.149284,8.70273,33,0.00789142,10,0.00129918,-2.06034,-1.06806,-0.0552402,-18.7168,0.149284,
2,1,0,1,0,64228.3,0.159607,0.159285,8.07772,33,0.00873671,10,0.00128666,-2.09271,-0.177502,-0.33239,-104.649,0.159285,
2,1,0,1,0,64228.4,0.169595,0.169301,6.8385,33,0.00948386,10,0.00115777,-2.16504,-0.122839,-0.480305,-128.12,0.169301,
2,1,0,1,0,64228.5,0.179582,0.179245,5.72236,33,0.0101082,10,0.0010257,-2.24243,-0.145918,-0.404337,-90.4656,0.179245,
2,1,0,1,0,64228.6,0.18957,0.189228,5.00502,33,0.0106416,10,0.000947092,-2.30059,-0.201429,-0.292908,-57.2141,0.189228,
2,1,0,1,0,64228.7,0.199558,0.199244,4.55198,33,0.0111171,10,0.000906954,-2.3418,-0.302537,-0.195017,-34.641,0.199244,
2,1,0,1,0,64228.8,0.209546,0.209214,4.26176,33,0.0115567,10,0.000891622,-2.37041,-0.394054,-0.149726,-24.9288,0.209214,
2,1,0,1,0,64228.9,0.219534,0.219198,4.06223,33,0.0119722,10,0.000890434,-2.39124,-0.567786,-0.103912,-16.4843,0.219198,
2,1,0,1,0,64229,0.229522,0.229223,3.92271,33,0.0123714,10,0.000899175,-2.40641,-0.764291,-0.0771957,-11.8288,0.229223,
2,1,0,1,0,64229.1,0.23951,0.239201,3.82756,33,0.0127591,10,0.000915555,-2.41708,-1.08943,-0.0541566,-8.09303,0.239201,
2,1,0,1,0,64229.2,0.249498,0.249153,3.75712,33,0.013138,10,0.000936097,-2.42515,-1.59153,-0.0370712,-5.43364,0.249153,
2,1,0,1,0,64229.3,0.259486,0.259178,3.70001,33,0.0135108,10,0.000958962,-2.4318,-1.20947,-0.0487819,-7.04079,0.259178,
2,1,0,1,0,64229.4,0.269474,0.269149,3.64683,33,0.0138781,10,0.00098154,-2.43808,-1.87043,-0.0315436,-4.48847,0.269149,
2,1,0,1,0,64229.5,0.279462,0.279133,3.60155,33,0.0142408,10,0.00100531,-2.44351,-1.86161,-0.0316929,-4.45369,0.279133,
2,1,0,1,0,64229.6,0.28945,0.289142,3.55464,33,0.0145991,10,0.0010278,-2.4492,-1.90856,-0.0309134,-4.29,0.289142,
2,1,0,1,0,64229.7,0.299438,0.299106,3.51223,33,0.0149527,10,0.00105053,-2.45442,-0.040556,-1.45478,-187.631,0.299106,
2,0,0,1,0,64229.8,0.291747,0.291411,-0.316329,33,0.0150522,10,-9.21817e-05,-3.49986,-0.00491777,-11.9973,181.134,0.291411,
2,0,0,1,0,64229.9,0.281759,0.281421,-1.36436,33,0.0149582,10,-0.000383959,-2.86507,-0.050903,-1.15907,61.0832,0.281421,
2,0,0,1,0,64230,0.271771,0.271447,-1.8108,33,0.0147971,10,-0.000491535,-2.74213,-0.119907,-0.492048,34.6887,0.271447,
2,0,0,1,0,64230.1,0.261783,0.261446,-2.09003,33,0.0146011,10,-0.000546429,-2.67985,-0.21664,-0.272342,22.1666,0.261446,
2,0,0,1,0,64230.2,0.251795,0.251478,-2.2902,33,0.0143816,10,-0.000575934,-2.64013,-0.300601,-0.196274,17.5392,0.251478,
2,0,0,1,0,64230.3,0.241807,0.24143,-2.45291,33,0.0141438,10,-0.000592204,-2.61032,-0.367869,-0.160383,15.3767,0.24143,
2,0,0,1,0,64230.4,0.231815,0.231444,-2.59807,33,0.0138909,10,-0.000601309,-2.58535,-0.431398,-0.136765,13.8669,0.231444,
2,0,0,1,0,64230.5,0.221831,0.221494,-2.72554,33,0.0136249,10,-0.000603692,-2.56455,-0.507231,-0.116318,12.3672,0.221494,
2,0,0,1,0,64230.6,0.211843,0.211459,-2.84713,33,0.013346,10,-0.00060205,-2.54559,-0.657459,-0.0897394,9.96402,0.211459,
2,0,0,1,0,64230.7,0.201856,0.201512,-2.96527,33,0.0130551,10,-0.000597538,-2.52794,-0.651368,-0.0905786,10.4833,0.201512,
2,0,0,1,0,64230.8,0.191868,0.191525,-3.09188,33,0.0127522,10,-0.00059217,-2.50978,-0.526309,-0.112101,13.531,0.1915246,
2,0,0,1,0,64230.9,0.18188,0.181596,-3.22909,33,0.0124368,10,-0.000586389,-2.49092,-0.461567,-0.127825,16.0855,0.181596,
2,0,0,1,0,64231,0.171892,0.171536,-3.3845,33,0.0121066,10,-0.000580565,-2.47051,-0.473614,-0.124574,16.4479,0.171536,
2,0,0,1,0,64231.1,0.161904,0.161541,-3.58728,33,0.0117586,10,-0.000579493,-2.44523,-0.360632,-0.163602,22.9117,0.161541,
2,0,0,1,0,64231.2,0.151916,0.151582,-3.88552,33,0.011386,10,-0.000588973,-2.41055,-0.235748,-0.250267,38.0134,0.151582,
2,0,0,1,0,64231.3,0.141928,0.141588,-4.40832,33,0.0109737,10,-0.000624164,-2.35573,-0.144579,-0.408081,70.3495,0.141588,
2,0,0,1,0,64231.4,0.13194,0.131632,-5.31587,33,0.0104914,10,-0.000699738,-2.27443,-0.113736,-0.518747,107.653,0.131632,
2,0,0,1,0,64231.5,0.121952,0.121612,-6.45803,33,0.00990331,10,-0.000785376,-2.1899,-0.134248,-0.439485,110.593,0.121612,
2,0,0,1,0,64231.6,0.111964,0.111624,-7.4953,33,0.00920431,10,-0.000836654,-2.12521,-0.183544,-0.32145,93.9682,0.111624,
2,0,0,1,0,64231.7,0.101976,0.101636,-8.28965,33,0.00841279,10,-0.000842524,-2.08146,-0.319345,-0.184753,59.6824,0.101636,
2,0,0,1,0,64231.8,0.0919883,0.0916506,-8.68416,33,0.00756091,10,-0.000795909,-2.06127,-1.00177,-0.0588955,19.9566,0.0916506,
2,0,0,1,0,64231.9,0.0820004,0.0816514,-8.67068,33,0.0066914,10,-0.000707973,-2.06195,1.16597,0.0506018,-17.1145,0.0816514,
2,0,0,1,0,64232,0.0720124,0.0716586,-8.45213,33,0.00583533,10,-0.000605667,-2.07303,0.790002,0.0746833,-24.6468,0.0716586,
2,0,0,1,0,64232.1,0.0620245,0.0616661,-8.24989,33,0.00500117,10,-0.000508739,-2.08355,0.907804,0.064992,-20.9311,0.0616661,
2,0,0,1,0,64232.2,0.0520366,0.0516889,-8.07261,33,0.00418553,10,-0.000417265,-2.09299,0.95257,0.0619377,-19.5017,0.0516889,
2,0,0,1,0,64232.3,0.0420486,0.0416966,-7.86437,33,0.00338888,10,-0.000327918,-2.10434,0.88181,0.0669078,-20.5453,0.0416966,
2,0,0,1,0,64232.4,0.0320607,0.0317161,-7.62532,33,0.00261534,10,-0.000241845,-2.11774,0.597648,0.0987202,-29.343,0.0317161,
2,0,0,1,0,64232.5,0.0220728,0.0217509,-7.31095,33,0.00186898,10,-0.00015902,-2.13603,0.513046,0.114999,-32.7984,0.0217509,
2,0,0,1,0,64232.6,0.0120848,0.0117652,-6.9829,33,0.00115493,10,-8.21555e-05,-2.15596,0.476644,0.123782,-33.7348,0.0117652,
2,0,0,1,0,64232.7,0.0020969,0.0017283,-6.73671,33,0.00047211,10,-1.1643e-05,-2.17155,0.811768,0.0726809,-19.026,0.0017283,
2,0,0,1,0,64232.8,-0.00789103,-0.00827893,-6.50759,33,-0.000188265,10,5.38759e-05,-2.18658,1.21196,0.0486814,-12.3916,-0.00827893,
2,0,0,1,0,64232.9,-0.017879,-0.0182678,-6.44406,33,-0.000834041,10,0.000117719,-2.19084,13.67,0.00431601,-1.08463,-0.0182678,
2,0,0,1,0,64233,-0.0278669,-0.0282536,-6.46313,33,-0.00147786,10,0.000182606,-2.18956,-2.70572,-0.0218056,5.50375,-0.0282536,
2,0,0,1,0,64233.1,-0.0378548,-0.0382713,-6.57453,33,-0.00212865,10,0.000251616,-2.18214,-1.21967,-0.0483737,12.4039,-0.0382713,
2,0,0,1,0,64233.2,-0.0478428,-0.0482297,-6.74432,33,-0.00279366,10,0.000325277,-2.17106,-0.641187,-0.0920168,24.229,-0.0482297,
2,0,0,1,0,64233.3,-0.0578216,-0.0582029,-6.97218,33,-0.003478,10,0.000405801,-2.15663,-0.597485,-0.0987472,26.8727,-0.0582029,
2,0,0,1,0,64233.4,-0.0678187,-0.0681853,-7.25668,33,-0.00418828,10,0.000494799,-2.13926,-0.510478,-0.115578,32.713,-0.0681853,
2,0,0,1,0,64233.5,-0.0778066,-0.0781964,-7.5851,33,-0.00492927,10,0.000593128,-2.12004,-0.506999,-0.116371,34.4745,-0.0781964,
2,0,0,1,0,64233.6,-0.0877945,-0.0881764,-7.98026,33,-0.00570665,10,0.000703671,-2.09798,-0.440558,-0.133921,41.7257,-0.0881764,
2,0,0,1,0,64233.7,-0.0977825,-0.0981544,-8.40556,33,-0.00652534,10,0.000825042,-2.07543,-0.431955,-0.136588,44.8327,-0.0981544,
2,0,0,1,1,64233.8,-0.0927386,-0.0930741,-2.99349,33,-0.00708658,10,0.000278617,-2.52382,-0.0147427,-4.00199,464.417,-0.0930741,
2,1,0,1,1,64233.9,-0.0827529,-0.0831257,0.318978,33,-0.00720171,10,-2.65152e-05,-3.49624,0.0065399,9.02155,242.805,-0.0831257,
2,1,0,1,1,64234,-0.0727627,-0.0731339,2.21081,33,-0.00706708,10,-0.000161685,-2.65545,0.0333918,1.7669,150.223,-0.0731339,
2,1,0,1,1,64234.1,-0.0627748,-0.0631283,3.39035,33,-0.00678204,10,-0.000214027,-2.46976,0.0810996,0.7275,95.9845,-0.0631283,
2,1,0,1,1,64234.2,-0.0527868,-0.0531516,4.14643,33,-0.00640152,10,-0.000220389,-2.38233,0.160488,0.367628,59.3935,-0.0531516,
2,1,0,1,1,64234.3,-0.0427989,-0.043159,4.61957,33,-0.00596085,10,-0.000199376,-2.3354,0.271327,0.21745,39.1906,-0.043159,
2,1,0,1,1,64234.4,-0.0328109,-0.0331616,4.90314,33,-0.00548373,10,-0.000162596,-2.30953,0.55717,0.105892,20.2389,-0.0331616,
2,1,0,1,1,64234.5,-0.022823,-0.0231895,5.04449,33,-0.00498551,10,-0.000116979,-2.29718,1.28441,0.0459356,9.04155,-0.02318945,
2,1,0,1,1,64234.6,-0.0128351,-0.0131893,5.09814,33,-0.00447746,10,-6.72409e-05,-2.29259,9.21383,0.00640342,1.2746,-0.0131893,
2,1,0,1,1,64234.7,-0.00284713,-0.00321,5.11248,33,-0.00396629,10,-1.64111e-05,-2.29137,-18.4228,-0.00320255,-0.638749,-0.00321,
2,1,0,1,1,64234.7,-2.55332e-05,-0.000325324,5.12116,33,-0.00382247,10,-1.66603e-06,-2.29063, , , ,-0.000325324,