File: Figure_codes/Fig_3-5/rawdata_trumpetplot_data/after 10th/20221101_1-115_003_TrumpetPlot_ParaChange_from10_every3_02_CV_C01_3.csv
mode,ox/red,error,control changes,counter inc.,time/s,control/V,Ewe/V,<I>/mA,cycle number,(Q-Qo)/C,I Range,P/W,log(|I|),Tafel slope mV/dec,alpha_eff,dI/d(E-IR),E-IR/V,
2,0,0,1,0,6250.42,2.44065e-05,-0.000191712,-0.342994,4,0.0000000E+000,10,6.57562e-08,-3.46471, , , ,-0.000191712,
2,0,0,1,0,6257.69,0.00729061,0.00696601,-0.0938589,4,-0.00088304,10,-6.53821e-07,-4.02752,-0.0320821,-1.83903,6.87171,0.00696601,
2,0,0,1,0,6265.18,0.0147815,0.0144492,-0.0603828,4,-0.00132754,10,-8.72486e-07,-4.21909,-0.0425543,-1.38646,3.24529,0.0144492,
2,0,0,1,0,6272.67,0.0222725,0.0219739,-0.0396929,4,-0.00158215,10,-8.72209e-07,-4.40129,-0.0459394,-1.2843,2.02479,0.02197394,
2,0,0,1,0,6280.16,0.0297635,0.0294541,-0.0251425,4,-0.00170855,10,-7.40552e-07,-4.59959,-0.0365074,-1.61611,1.58702,0.0294541,
2,0,0,1,0,6287.65,0.0372544,0.0369585,-0.0121735,4,-0.00173003,10,-4.49915e-07,-4.91458,-0.0163572,-3.60697,1.65704,0.0369585,
2,0,0,1,0,6295.14,0.0447454,0.0444408,-0.000820541,4,-0.0016559,10,-3.64656e-08,-6.0859,-0.0171604,-3.43815,1.46497,0.0444408,
2,0,0,1,0,6302.63,0.0522363,0.0518552,0.0099652,4,-0.00149703,10,5.16747e-07,-5.00151,0.0147751,3.99321,1.57956,0.0518552,
2,1,0,1,0,6310.12,0.0597273,0.0594276,0.0207662,4,-0.00125812,10,1.23409e-06,-4.68264,0.0437017,1.35006,1.05412,0.0594276,
2,1,0,1,0,6317.62,0.0672183,0.0669247,0.0295244,4,-0.000948734,10,1.97591e-06,-4.52982,0.0598316,0.986101,1.11614,0.0669247,
2,1,0,1,0,6325.11,0.0747092,0.0744058,0.0370633,4,-0.000573672,10,2.75773e-06,-4.43106,0.0705726,0.836019,1.23481,0.0744058,
2,1,0,1,0,6332.6,0.0822001,0.0818647,0.0456866,4,-0.000138681,10,3.74012e-06,-4.34021,0.0774349,0.76193,1.34835,0.0818647,
2,1,0,1,0,6340.09,0.0896911,0.0893628,0.0538676,4,0.000358363,10,4.81376e-06,-4.26867,0.107382,0.549443,1.1702,0.0893628,
2,1,0,1,0,6347.58,0.0971821,0.0968812,0.0645242,4,0.000928743,10,6.25118e-06,-4.19028,0.073661,0.800967,2.03038,0.0968812,
2,1,0,1,0,6355.07,0.104673,0.104358,0.0786938,4,0.00159187,10,8.21233e-06,-4.10406,0.107326,0.549725,1.66452,0.104358,
2,1,0,1,0,6362.56,0.112164,0.111865,0.0894782,4,0.00235207,10,1.00094e-05,-4.04828,0.156504,0.376987,1.32665,0.111865,
2,1,0,1,0,6370.05,0.119655,0.119339,0.101364,4,0.00319959,10,1.20968e-05,-3.99411,0.197258,0.2991,1.17796,0.119339,
2,1,0,1,0,6377.54,0.127146,0.126815,0.110546,4,0.00412897,10,1.40189e-05,-3.95646,0.182884,0.322609,1.40563,0.126815,
2,1,0,1,0,6385.03,0.134637,0.134308,0.116626,4,0.00512911,10,1.56638e-05,-3.9332,-0.776958,-0.0759372,-0.345567,0.134308,
2,1,0,1,0,6392.52,0.142128,0.141819,0.104377,4,0.00609962,10,1.48027e-05,-3.98139,-0.0932559,-0.632668,-2.55432,0.141819,
2,1,0,1,0,6400.02,0.149619,0.149298,0.0799199,4,0.00691649,10,1.19319e-05,-4.09734,-0.0617214,-0.955908,-3.00521,0.149298,
2,1,0,1,0,6407.51,0.15711,0.156774,0.0633722,4,0.00757012,10,9.9351e-06,-4.1981,-0.0779994,-0.756417,-1.87242,0.156774,
2,1,0,1,0,6415,0.164601,0.164257,0.0549332,4,0.00812922,10,9.02317e-06,-4.26017,-0.141371,-0.417341,-0.89816,0.164257,
2,1,0,1,0,6422.49,0.172091,0.17179,0.0505325,4,0.00863894,10,8.681e-06,-4.29643,-0.279633,-0.21099,-0.41796,0.17179,
2,1,0,1,0,6429.98,0.179582,0.179275,0.0487198,4,0.00912449,10,8.73422e-06,-4.31229,-2.13209,-0.0276724,-0.0526344,0.179275,
2,1,0,1,0,6437.47,0.187073,0.186799,0.0481538,4,0.00959921,10,8.9951e-06,-4.31737,-2.51794,-0.0234319,-0.0442276,0.186799,
2,1,0,1,0,6444.96,0.194564,0.194234,0.0483834,4,0.0100707,10,9.3977e-06,-4.3153,-1.66627,-0.0354085,-0.066977,0.1942338,
2,1,0,1,0,6452.45,0.202055,0.201768,0.0485139,4,0.0105401,10,9.78855e-06,-4.31413,1.75126,0.0336901,0.0638398,0.201768,
2,1,0,1,0,6459.94,0.209546,0.20924,0.0489331,4,0.0110136,10,1.02387e-05,-4.3104,-1.05962,-0.0556802,-0.105761,0.20924,
2,1,0,1,0,6467.43,0.217037,0.216738,0.0490672,4,0.0114879,10,1.06347e-05,-4.30921,0.612683,0.0962977,0.18773,0.216738,
2,1,0,1,0,6474.93,0.224528,0.224274,0.0510118,4,0.0119683,10,1.14406e-05,-4.29233,0.774671,0.0761614,0.150684,0.224274,
2,1,0,1,0,6482.42,0.232019,0.231694,0.0510782,4,0.0124549,10,1.18345e-05,-4.29176,0.653939,0.0902225,0.181685,0.231694,
2,1,0,1,0,6489.91,0.23951,0.239267,0.0522226,4,0.0129497,10,1.24951e-05,-4.28214,1.30943,0.0450578,0.0927474,0.239267,
2,1,0,1,0,6497.4,0.247001,0.246663,0.0534483,4,0.0134504,10,1.31837e-05,-4.27207,0.53537,0.110204,0.229632,0.246663,
2,1,0,1,0,6504.89,0.254492,0.254163,0.0544929,4,0.0139605,10,1.38501e-05,-4.26366,1.13838,0.051828,0.110116,0.254163,
2,1,0,1,0,6512.38,0.261983,0.26166,0.0550055,4,0.0144755,10,1.43927e-05,-4.25959,4.84089,0.0121878,0.0261738,0.26166,
2,1,0,1,0,6519.87,0.269474,0.269185,0.0554564,4,0.0149959,10,1.49281e-05,-4.25605,0.663909,0.0888676,0.194341,0.269185,
2,1,0,1,0,6527.36,0.276965,0.276689,0.0569958,4,0.0155206,10,1.57701e-05,-4.24416,0.499914,0.11802,0.262634,0.276689,
2,1,0,1,0,6534.85,0.284456,0.284129,0.0578346,4,0.0160546,10,1.64325e-05,-4.23781,-2.04054,-0.028914,-0.0655688,0.284129,
2,1,0,1,0,6542.34,0.291947,0.291649,0.0592182,4,0.0165933,10,1.72709e-05,-4.22754,0.483006,0.122152,0.28208,0.291649,
2,1,0,1,0,6549.83,0.299438,0.299137,0.0600968,4,0.0171395,10,1.79772e-05,-4.22115,-0.00566716,-10.4109,-17.1447,0.299137,
2,1,0,1,0,6556.68,0.293745,0.293454,0.0130949,4,0.0172291,10,3.84275e-06,-4.8829,0.022146,2.66413,1.41257,0.293454,
2,1,0,1,0,6564.17,0.286254,0.285933,0.00502473,4,0.0171984,10,1.43674e-06,-5.29889,0.0123525,4.77635,0.922978,0.285933,
2,1,0,1,0,6571.66,0.278763,0.278471,-0.000421251,4,0.0171159,10,-1.17306e-07,-6.37546,-0.0278256,-2.12035,0.595967,0.278471,
2,0,0,1,0,6579.15,0.271272,0.270967,-0.00527926,4,0.0169966,10,-1.43051e-06,-5.27743,-0.0161251,-3.65889,0.662457,0.270967,
2,0,0,1,0,6586.64,0.263781,0.263468,-0.008386,4,0.0168441,10,-2.20944e-06,-5.07645,-0.0525008,-1.12379,0.373064,0.263468,
2,0,0,1,0,6594.13,0.25629,0.255957,-0.0122243,4,0.0166646,10,-3.1289e-06,-4.91278,-0.0652232,-0.904586,0.41725,0.255957,
2,0,0,1,0,6601.62,0.248799,0.248521,-0.0151538,4,0.0164597,10,-3.76605e-06,-4.81948,-0.0720582,-0.818783,0.491281,0.248521,
2,0,0,1,0,6609.11,0.241308,0.241036,-0.0182826,4,0.0162315,10,-4.40676e-06,-4.73796,-0.164461,-0.358747,0.250616,0.241036,
2,0,0,1,0,6616.6,0.233817,0.233502,-0.0211517,4,0.0159828,10,-4.93897e-06,-4.67465,-0.0946454,-0.623379,0.509543,0.233502,
2,0,0,1,0,6624.1,0.226326,0.226046,-0.0239214,4,0.0157084,10,-5.40734e-06,-4.62121,-0.191413,-0.308234,0.290664,0.226046,
2,0,0,1,0,6631.59,0.218835,0.218501,-0.0268131,4,0.0154132,10,-5.8587e-06,-4.57165,-0.14409,-0.409466,0.426898,0.218501,
2,0,0,1,0,6639.08,0.211344,0.211036,-0.0300902,4,0.0150948,10,-6.35012e-06,-4.52157,-0.236973,-0.248973,0.288873,0.211036,
2,0,0,1,0,6646.57,0.203853,0.203542,-0.0333467,4,0.0147525,10,-6.78745e-06,-4.47695,-0.281998,-0.209222,0.268961,0.203542,
2,0,0,1,0,6654.06,0.196362,0.196032,-0.0365603,4,0.0143861,10,-7.16699e-06,-4.43699,-0.169918,-0.347226,0.492024,0.196032,
2,0,0,1,0,6661.55,0.188871,0.188552,-0.0397097,4,0.0139941,10,-7.48734e-06,-4.4011,-0.166537,-0.354276,0.547198,0.188552,
2,0,0,1,0,6669.04,0.18138,0.181073,-0.0448531,4,0.0135704,10,-8.1217e-06,-4.34821,-0.142855,-0.413005,0.71652,0.181073,
2,0,0,1,0,6676.53,0.173889,0.173588,-0.0493412,4,0.013109,10,-8.56503e-06,-4.30679,-0.131145,-0.449883,0.87844,0.173588,
2,0,0,1,0,6684.02,0.166398,0.166097,-0.0573252,4,0.0125967,10,-9.52155e-06,-4.24165,-0.12458,-0.47359,1.06425,0.166097,
2,0,0,1,0,6691.51,0.158907,0.158597,-0.067823,4,0.0120155,10,-1.07565e-05,-4.16862,-0.0935317,-0.630803,1.66635,0.158597,
2,0,0,1,0,6699.01,0.151417,0.151084,-0.0842327,4,0.0113279,10,-1.27262e-05,-4.07452,-0.070394,-0.838139,2.78435,0.151084,
2,0,0,1,0,6706.5,0.143926,0.143638,-0.11051,4,0.010479,10,-1.58734e-05,-3.9566,-0.0623147,-0.946807,4.0684,0.143638,
2,0,0,1,0,6713.99,0.136435,0.136137,-0.140265,4,0.00941272,10,-1.90953e-05,-3.85305,-0.0921157,-0.640499,3.47939,0.136137,
2,0,0,1,0,6721.48,0.128944,0.128654,-0.157953,4,0.00815804,10,-2.03212e-05,-3.80147,-0.3729,-0.158219,0.967238,0.128654,
2,0,0,1,0,6728.97,0.121453,0.121127,-0.159374,4,0.00683166,10,-1.93046e-05,-3.79758,0.73112,0.0806981,-0.502432,0.121127,
2,0,0,1,0,6736.46,0.113962,0.113645,-0.154956,4,0.00552117,10,-1.761e-05,-3.80979,0.456244,0.129317,-0.784855,0.113645,
2,0,0,1,0,6743.95,0.106471,0.106151,-0.14999,4,0.00424737,10,-1.59216e-05,-3.82394,0.525728,0.112225,-0.659399,0.106151,
2,0,0,1,0,6751.44,0.0989798,0.0986625,-0.143482,4,0.00302057,10,-1.41563e-05,-3.8432,0.314186,0.187787,-1.04898,0.0986625,
2,0,0,1,0,6758.93,0.0914889,0.0911357,-0.135785,4,0.00185348,10,-1.23749e-05,-3.86715,0.341311,0.172863,-0.914519,0.0911357,
2,0,0,1,0,6766.42,0.083998,0.0837099,-0.128908,4,0.00074316,10,-1.07909e-05,-3.88972,0.299074,0.197275,-0.987953,0.0837099,
2,0,0,1,0,6773.91,0.076507,0.0761925,-0.124792,4,-0.000326647,10,-9.50819e-06,-3.90381,0.675283,0.0873708,-0.423208,0.0761925,
2,0,0,1,0,6781.41,0.069016,0.0687177,-0.119603,4,-0.00136381,10,-8.21882e-06,-3.92226,0.732831,0.0805097,-0.378151,0.0687177,
2,0,0,1,0,6788.9,0.0615251,0.061209,-0.117419,4,-0.0023747,10,-7.18708e-06,-3.93026,0.684807,0.0861557,-0.393686,0.061209,
2,0,0,1,0,6796.39,0.0540342,0.0537004,-0.113538,4,-0.00335856,10,-6.09706e-06,-3.94486,0.51237,0.115151,-0.507571,0.0537004,
2,0,0,1,0,6803.88,0.0465432,0.0462159,-0.109322,4,-0.00431408,10,-5.0524e-06,-3.96129,0.375003,0.157332,-0.675278,0.0462159,
2,0,0,1,0,6811.37,0.0390522,0.0386817,-0.106786,4,-0.0052424,10,-4.13065e-06,-3.97149,0.359886,0.163941,-0.679434,0.0386817,
2,0,0,1,0,6818.86,0.0315613,0.03126,-0.103649,4,-0.00614704,10,-3.24007e-06,-3.98443,0.95971,0.0614769,-0.24919,0.03126,
2,0,0,1,0,6826.35,0.0240703,0.0237416,-0.101667,4,-0.00703433,10,-2.41374e-06,-3.99282,2.75359,0.0214266,-0.0853973,0.0237416,
2,0,0,1,0,6833.84,0.0165794,0.0162287,-0.100816,4,-0.00791078,10,-1.63611e-06,-3.99647,-2.2904,-0.0257597,0.10157,0.0162287,
2,0,0,1,0,6841.33,0.00908843,0.00880581,-0.101678,4,-0.00878845,10,-8.95354e-07,-3.99277,-0.981348,-0.0601214,0.240132,0.00880581,
2,0,0,1,0,6848.82,0.00159744,0.00122063,-0.105418,4,-0.00968377,10,-1.28677e-07,-3.97709, , , ,0.00122063,
2,0,0,1,0,6850.22,0.000199235,-0.000157358,-0.106105,4,-0.00985372,10,1.66966e-08,-3.97426, , , ,-0.000157358,