File: Figure_codes/Fig_3-5/rawdata_trumpetplot_data/after 10th/20221101_1-115_003_TrumpetPlot_ParaChange_from10_every3_14_CV_C01.mpt
EC-Lab ASCII FILE
Nb header lines : 94

Cyclic Voltammetry

Run on channel : 1 (SN 65296)
User :
CE vs. WE compliance from -10 V to 10 V
Electrode connection : standard
Potential control : Ewe
Ewe ctrl range : min = -1.00 V, max = 1.00 V
Safety Limits :
	Do not start on E overload
Acquisition started on : 11/08/2022 20:18:53.442
Loaded Setting File :  NONE
Saved on :
	File : 20221101_1-115_003_TrumpetPlot_ParaChange_from10_every3_14_CV_C01.mpr
	Directory : C:\Users\NakamuraT\Documents\EC-Lab\Data\Yatsuzuka\20221108_1-115_001_TrumpetPlot\
	Host : 192.109.209.100
Device : SP-50e (SN .003219)
Address : 192.109.209.128
EC-Lab for windows v11.43 (software)
Internet server v11.40 (firmware)
Command interpretor v11.40 (firmware)
Electrode material :
Initial state :
Electrolyte :
Comments :
Electrode surface area : 0.000 cm2
Characteristic mass : 0.001 g
Equivalent Weight : 0.000 g/eq.
Density : 0.000 g/cm3
Volume (V) : 0.001 cm3
Cycle Definition : Charge/Discharge alternance
Ei (V)              0.000
vs.                 Ref
dE/dt               1000.000
dE/dt unit          mV/s
E1 (V)              0.300
vs.                 Ref
Step percent        50
N                   10
E range min (V)     -1.000
E range max (V)     1.000
I Range             100 mA
I Range min         Unset
I Range max         Unset
I Range init        Unset
Bandwidth           5
E2 (V)              -0.200
vs.                 Ref
nc cycles           0
Reverse Scan        1
Ef (V)              0.000
vs.                 Ref

Number of loops : 35
Loop 0 from point number 0 to 508
Loop 1 from point number 509 to 1017
Loop 2 from point number 1018 to 1526
Loop 3 from point number 1527 to 2035
Loop 4 from point number 2036 to 2544
Loop 5 from point number 2545 to 3053
Loop 6 from point number 3054 to 3562
Loop 7 from point number 3563 to 4071
Loop 8 from point number 4072 to 4580
Loop 9 from point number 4581 to 5089
Loop 10 from point number 5090 to 5598
Loop 11 from point number 5599 to 6107
Loop 12 from point number 6108 to 6616
Loop 13 from point number 6617 to 7125
Loop 14 from point number 7126 to 7634
Loop 15 from point number 7635 to 8143
Loop 16 from point number 8144 to 8652
Loop 17 from point number 8653 to 9161
Loop 18 from point number 9162 to 9670
Loop 19 from point number 9671 to 10179
Loop 20 from point number 10180 to 10688
Loop 21 from point number 10689 to 11197
Loop 22 from point number 11198 to 11706
Loop 23 from point number 11707 to 12215
Loop 24 from point number 12216 to 12724
Loop 25 from point number 12725 to 13233
Loop 26 from point number 13234 to 13742
Loop 27 from point number 13743 to 14251
Loop 28 from point number 14252 to 14760
Loop 29 from point number 14761 to 15269
Loop 30 from point number 15270 to 15778
Loop 31 from point number 15779 to 16287
Loop 32 from point number 16288 to 16796
Loop 33 from point number 16797 to 17305
Loop 34 from point number 17306 to 17814

mode	ox/red	error	control changes	counter inc.	time/s	control/V	Ewe/V	<I>/mA	cycle number	(Q-Qo)/C	I Range	P/W
2	1	0	0	0	1199.11	2.44065e-05	-0.000248974	48.7097	1	0.0000000E+000	10	-1.21275e-05
2	1	0	1	0	1199.37	0.261309	0.261107	73.1291	1	0.0186041	10	0.0190945
2	0	0	1	0	1199.62	0.0827245	0.0826069	-71.6632	1	0.015092	10	-0.00591987
2	0	0	1	0	1199.89	-0.179259	-0.179563	-69.9105	1	-0.00432962	10	0.0125533
2	1	0	1	0	3169.27	0.029339	0.0289726	53.082	2	0.00147905	10	0.00153793
2	1	0	1	0	3169.53	0.291322	0.291067	50.5009	2	0.0198403	10	0.0146991
2	0	0	1	0	3169.78	0.0527107	0.052467	-78.7392	2	0.0128182	10	-0.00413121
2	0	0	1	1	3170.04	-0.196688	-0.197167	-61.3908	2	-0.00546171	10	0.0121042
2	1	0	1	0	5139.43	0.0593028	0.0589291	54.4504	3	0.00303042	10	0.00320872
2	1	0	1	0	5139.68	0.28473	0.284606	15.6816	3	0.0201555	10	0.00446307
2	0	0	1	0	5139.95	0.022747	0.0224533	-78.3879	3	0.0105012	10	-0.00176007
2	0	0	1	1	5140.2	-0.166674	-0.167109	-16.2733	3	-0.00608769	10	0.00271941
2	1	0	1	0	7109.59	0.0893165	0.0889673	58.9013	4	0.00476992	10	0.00524028
2	0	0	1	0	7109.84	0.254717	0.254445	-8.25509	4	0.0202734	10	-0.00210046
2	0	0	1	0	7110.11	-0.00726679	-0.00758805	-76.9828	4	0.0083562	10	0.000584149
2	1	0	1	1	7110.36	-0.136661	-0.137142	8.15252	4	-0.00607751	10	-0.00111805
2	1	0	1	0	9079.75	0.11933	0.119017	63.6818	5	0.00652231	10	0.00757922
2	0	0	1	0	9080	0.224703	0.224443	-17.3552	5	0.0194527	10	-0.00389525
2	0	0	1	0	9080.27	-0.0372805	-0.0376251	-71.1622	5	0.00605051	10	0.00267749
2	1	0	1	1	9080.52	-0.106697	-0.107073	23.991	5	-0.00537918	10	-0.0025688
2	1	0	1	0	11049.9	0.149344	0.148957	69.1016	6	0.00841319	10	0.0102931
2	0	0	1	0	11050.2	0.194739	0.194412	-21.8929	6	0.0190056	10	-0.00425623
2	0	0	1	0	11050.4	-0.0672943	-0.0676315	-66.4848	6	0.0045405	10	0.00449647
2	1	0	1	1	11050.7	-0.076683	-0.0770945	32.6954	6	-0.00417144	10	-0.00252064
2	1	0	1	0	13020.1	0.179308	0.178932	72.6458	7	0.0100551	10	0.0129987
2	0	0	1	0	13020.3	0.164725	0.164437	-24.6555	7	0.0177339	10	-0.00405429
2	0	0	1	0	13020.6	-0.0972581	-0.0976155	-61.2933	7	0.00293972	10	0.00598317
2	1	0	1	1	13020.8	-0.0466692	-0.0470352	38.4666	7	-0.00284357	10	-0.00180928
2	1	0	1	0	14990.2	0.209322	0.208968	79.8049	8	0.012798	10	0.0166767
2	0	0	1	0	14990.5	0.134712	0.134415	-33.1491	8	0.0168201	10	-0.00445574
2	0	0	1	0	14990.7	-0.127272	-0.127592	-60.8521	8	0.000663865	10	0.00776425
2	1	0	1	1	14991	-0.0166554	-0.0170564	47.5433	8	-0.00168322	10	-0.000810918
2	1	0	1	0	16960.4	0.239335	0.239067	74.6857	9	0.0153962	10	0.0178549
2	0	0	1	0	16960.6	0.104748	0.104505	-46.5937	9	0.0159007	10	-0.00486929
2	0	0	1	0	16960.9	-0.157286	-0.157615	-62.7275	9	-0.00115124	10	0.00988682
2	1	0	1	0	18930.3	0.0073156	0.00696815	42.4219	10	0.00029434	10	0.000295602
2	1	0	1	0	18930.5	0.26933	0.269024	62.137	10	0.0163616	10	0.0167164
2	0	0	1	0	18930.8	0.0747342	0.0745203	-53.9461	10	0.0143212	10	-0.00402008
2	0	0	1	0	18931.1	-0.187299	-0.18759	-62.2903	10	-0.00213711	10	0.011685
2	1	0	1	0	20900.4	0.0373293	0.0370073	46.3306	11	0.0016007	10	0.00171457
2	1	0	1	0	20900.7	0.299013	0.298751	50.2104	11	0.0175275	10	0.0150004
2	0	0	1	0	20901	0.0447204	0.0445341	-60.4684	11	0.0123188	10	-0.00269291
2	0	0	1	1	20901.2	-0.188698	-0.189162	-41.2776	11	-0.00327795	10	0.00780813
2	1	0	1	0	22870.6	0.0673431	0.0669903	52.6456	12	0.00321385	10	0.00352675
2	1	0	1	0	22870.9	0.27674	0.276497	14.1976	12	0.0189184	10	0.00392561
2	0	0	1	0	22871.1	0.0147067	0.0143984	-67.3105	12	0.0104421	10	-0.000969165
2	0	0	1	1	22871.4	-0.158684	-0.159144	-12.6219	12	-0.00444243	10	0.00200869
2	1	0	1	0	24840.8	0.0973069	0.0968885	54.4805	13	0.00466332	10	0.00527853
2	0	0	1	0	24841	0.246726	0.246469	-3.19076	13	0.0185323	10	-0.000786424
2	0	0	1	0	24841.3	-0.0152571	-0.0156132	-65.2007	13	0.00848081	10	0.00101799
2	1	0	1	1	24841.5	-0.12867	-0.12911	3.83786	13	-0.00419226	10	-0.000495504
2	1	0	1	0	26810.9	0.127321	0.126957	59.4766	14	0.00640645	10	0.007551
2	0	0	1	0	26811.2	0.216713	0.21642	-13.0699	14	0.0184823	10	-0.00282858
2	0	0	1	0	26811.4	-0.0452709	-0.0456185	-64.0818	14	0.00671977	10	0.00292331
2	1	0	1	1	26811.7	-0.0986564	-0.0991107	16.4904	14	-0.0038004	10	-0.00163438
2	1	0	1	0	28781.1	0.157334	0.156999	59.6621	15	0.00757018	10	0.00936687
2	0	0	1	0	28781.3	0.186735	0.186442	-16.5563	15	0.0171355	10	-0.00308679
2	0	0	1	0	28781.6	-0.0752846	-0.0756747	-58.2238	15	0.00515304	10	0.00440607
2	1	0	1	1	28781.9	-0.0686926	-0.069168	22.8477	15	-0.00277538	10	-0.00158033
2	1	0	1	0	30751.3	0.187348	0.187004	65.9435	16	0.0095619	10	0.0123317
2	0	0	1	0	30751.5	0.156735	0.156432	-22.0994	16	0.0167947	10	-0.00345706
2	0	0	1	0	30751.8	-0.105298	-0.105654	-57.2958	16	0.00354054	10	0.00605356
2	1	0	1	1	30752	-0.0386789	-0.0390418	31.069	16	-0.00194245	10	-0.00121299
2	1	0	1	0	32721.4	0.217312	0.216952	71.8693	17	0.0123622	10	0.0155922
2	0	0	1	0	32721.7	0.126721	0.12642	-32.3064	17	0.0162405	10	-0.00408416
2	0	0	1	0	32721.9	-0.135262	-0.135656	-58.1311	17	0.0013043	10	0.0078858
2	1	0	1	1	32722.2	-0.0086651	-0.00903869	41.3948	17	-0.00102476	10	-0.000374154
2	1	0	1	0	34691.6	0.247326	0.246995	64.7862	18	0.013423	10	0.0160019
2	0	0	1	0	34691.8	0.0967076	0.0964325	-39.286	18	0.0146499	10	-0.00378844
2	0	0	1	0	34692.1	-0.165276	-0.165624	-56.4933	18	7.31558e-05	10	0.00935662
2	1	0	1	0	36661.5	0.0153059	0.01497	37.9877	19	0.000547677	10	0.000568675
2	1	0	1	0	36661.7	0.277339	0.277011	58.9078	19	0.0150779	10	0.0163181
2	0	0	1	0	36662	0.0667438	0.066475	-47.7758	19	0.0135621	10	-0.00317589
2	0	0	1	0	36662.2	-0.19529	-0.195609	-57.1798	19	-0.00128182	10	0.0111849
2	1	0	1	0	38631.6	0.0453197	0.0449583	44.4941	20	0.00183218	10	0.00200038
2	1	0	1	0	38631.9	0.298714	0.29857	48.8233	20	0.0167394	10	0.0145772
2	0	0	1	0	38632.1	0.0367301	0.0364761	-56.2995	20	0.0119373	10	-0.00205358
2	0	0	1	1	38632.4	-0.180657	-0.181094	-31.7471	20	-0.00266246	10	0.00574921
2	1	0	1	0	40601.8	0.0753334	0.0749614	45.5489	21	0.00301413	10	0.00341441
2	1	0	1	0	40602	0.268714	0.268433	18.3768	21	0.0169592	10	0.00493294
2	0	0	1	0	40602.3	0.00671632	0.00640614	-56.385	21	0.0104027	10	-0.00036121
2	0	0	1	1	40602.6	-0.150694	-0.151125	-13.0401	21	-0.00276626	10	0.00197068
2	1	0	1	0	42572	0.105347	0.104965	50.6707	22	0.00457569	10	0.00531863
2	1	0	1	0	42572.2	0.238736	0.238449	0.270282	22	0.0174311	10	6.44483e-05
2	0	0	1	0	42572.5	-0.0232974	-0.0237052	-58.8616	22	0.00849883	10	0.00139532
2	1	0	1	1	42572.7	-0.12068	-0.121142	2.04714	22	-0.00311406	10	-0.000247994
2	1	0	1	0	44542.1	0.135311	0.134938	55.4034	23	0.00624129	10	0.00747602
2	0	0	1	0	44542.4	0.208722	0.208464	-10.4747	23	0.017339	10	-0.0021836
2	0	0	1	0	44542.6	-0.0532612	-0.0536118	-58.2855	23	0.00664344	10	0.00312479
2	1	0	1	1	44542.9	-0.0906661	-0.0911121	13.8654	23	-0.00295244	10	-0.00126331
2	1	0	1	0	46512.3	0.165325	0.164952	58.9219	24	0.00777154	10	0.00971927
2	0	0	1	0	46512.5	0.178709	0.178405	-16.3556	24	0.0166738	10	-0.00291792
2	0	0	1	0	46512.8	-0.083275	-0.0836574	-55.8205	24	0.00499043	10	0.0046698
2	1	0	1	1	46513	-0.0606523	-0.0610676	22.2132	24	-0.00228849	10	-0.0013565
2	1	0	1	0	48482.4	0.195338	0.194941	62.0014	25	0.00938543	10	0.0120866
2	0	0	1	0	48482.7	0.148745	0.148424	-21.1878	25	0.0160877	10	-0.00314479
2	0	0	1	0	48482.9	-0.113289	-0.113658	-54.6894	25	0.00359898	10	0.00621591
2	1	0	1	1	48483.2	-0.0306885	-0.0311005	28.4301	25	-0.00138854	10	-0.000884188
2	1	0	1	0	50452.6	0.225302	0.224986	63.5587	26	0.0112908	10	0.0142998
2	0	0	1	0	50452.8	0.118731	0.118447	-28.6769	26	0.0152533	10	-0.00339668
2	0	0	1	0	50453.1	-0.143253	-0.143651	-54.2261	26	0.00191514	10	0.00778964
2	1	0	1	1	50453.4	-0.000974387	-0.00141012	34.7467	26	-0.000446208	10	-4.8997e-05
2	1	0	1	0	52422.8	0.255316	0.25498	60.6972	27	0.0129012	10	0.0154766
2	0	0	1	0	52423	0.0887173	0.0884053	-37.6343	27	0.0141311	10	-0.00332707
2	0	0	1	0	52423.3	-0.173266	-0.173607	-54.2779	27	0.000393412	10	0.00942304
2	1	0	1	0	54392.7	0.0233462	0.0229654	37.8738	28	0.000818928	10	0.000869789
2	1	0	1	0	54392.9	0.28533	0.284965	53.8761	28	0.0148425	10	0.0153528
2	0	0	1	0	54393.2	0.0587035	0.0584901	-47.472	28	0.0127024	10	-0.00277664
2	0	0	1	0	54393.4	-0.200184	-0.200532	-54.8675	28	-0.00133811	10	0.0110027
2	1	0	1	0	56362.8	0.05331	0.052923	39.2395	29	0.00185851	10	0.00207667
2	1	0	1	0	56363.1	0.290723	0.290454	38.2978	29	0.0151492	10	0.0111238
2	0	0	1	0	56363.3	0.0287397	0.02847	-48.6268	29	0.011196	10	-0.00138441
2	0	0	1	1	56363.6	-0.172667	-0.173085	-25.7245	29	-0.00179723	10	0.00445251
2	1	0	1	0	58333	0.0833238	0.0829007	44.0424	30	0.00317071	10	0.00365114
2	1	0	1	0	58333.2	0.260709	0.260432	15.0123	30	0.0161892	10	0.00390967
2	0	0	1	0	58333.5	-0.00127403	-0.00168583	-53.0666	30	0.00978116	10	8.94611e-05
2	0	0	1	1	58333.7	-0.142653	-0.1431	-9.64574	30	-0.00239525	10	0.0013803
2	1	0	1	0	60303.1	0.113338	0.112955	46.3576	31	0.00439094	10	0.00523631
2	1	0	1	0	60303.4	0.230746	0.230451	2.66003	31	0.016143	10	0.000613006
2	0	0	1	0	60303.7	-0.0312878	-0.0316593	-53.1348	31	0.00827509	10	0.00168221
2	1	0	1	1	60303.9	-0.112689	-0.113138	1.19454	31	-0.00228787	10	-0.000135148
2	1	0	1	0	62273.3	0.143301	0.142869	49.3068	32	0.00573414	10	0.00704441
2	0	0	1	0	62273.5	0.200732	0.200412	-6.48932	32	0.0158345	10	-0.00130054
2	0	0	1	0	62273.8	-0.0612544	-0.0616624	-52.2557	32	0.00661315	10	0.00322221
2	1	0	1	1	62274.1	-0.0826757	-0.0831601	10.4878	32	-0.00207084	10	-0.000872167
2	1	0	1	0	64243.5	0.173315	0.172916	55.4036	33	0.00756399	10	0.00958019
2	0	0	1	0	64243.7	0.170718	0.170416	-14.7137	33	0.0157584	10	-0.00250746
2	0	0	1	0	64244	-0.0912653	-0.0916073	-52.4088	33	0.00489523	10	0.00480103
2	1	0	1	1	64244.2	-0.052662	-0.0530742	20.2277	33	-0.00170195	10	-0.00107357
2	1	0	1	0	66213.6	0.203329	0.202969	58.9308	34	0.00927203	10	0.0119612
2	0	0	1	0	66213.9	0.140704	0.140455	-20.5885	34	0.0154007	10	-0.00289176
2	0	0	1	0	66214.1	-0.121279	-0.121611	-52.567	34	0.00349884	10	0.00639276
2	1	0	1	1	66214.4	-0.0226981	-0.0231029	26.9492	34	-0.000996731	10	-0.000622605
2	1	0	1	0	68183.8	0.233343	0.233033	60.9423	35	0.0114576	10	0.0142016
2	0	0	1	0	68184	0.110741	0.110419	-30.1596	35	0.0147123	10	-0.0033302
2	0	0	1	0	68184.3	-0.151293	-0.151637	-53.2858	35	0.00159323	10	0.00808009
2	1	0	1	1	68184.5	2.44065e-05	-0.000382585	33.4716	35	-0.000398271	10	-1.28058e-05