File: Figure_codes/Fig_3-5/rawdata_trumpetplot_data/after 10th/20221101_1-115_003_TrumpetPlot_ParaChange_from10_every3_07_CV_C01_5.csv
mode,ox/red,error,control changes,counter inc.,time/s,control/V,Ewe/V,<I>/mA,cycle number,(Q-Qo)/C,I Range,P/W,log(|I|),Tafel slope mV/dec,alpha_eff,dI/d(E-IR),E-IR/V,
2,0,0,0,0,11015.7,2.44065e-05,-0.0002108,-2.72621,6,0.0000000E+000,10,5.74683e-07,-2.56444, , , ,-0.0002108,
2,1,0,1,0,11015.8,0.007288,0.00697784,1.67136,6,4.43006e-05,10,1.16625e-05,-2.77693,0.0209603,2.81485,172.409,0.00697784,
2,1,0,1,0,11015.9,0.0147816,0.0144761,2.34215,6,0.000305339,10,3.39053e-05,-2.63039,0.094163,0.626573,57.2897,0.0144761,
2,1,0,1,0,11016,0.0222712,0.0219694,2.67992,6,0.000622759,10,5.88763e-05,-2.57188,0.161029,0.366394,38.3571,0.0219694,
2,1,0,1,0,11016.2,0.0297648,0.0294891,2.97274,6,0.000977739,10,8.76633e-05,-2.52684,0.191342,0.308349,35.6165,0.0294891,
2,1,0,1,0,11016.3,0.0372518,0.0369093,3.24181,6,0.00136671,10,0.000119653,-2.48921,0.199569,0.295637,37.3163,0.03690926,
2,1,0,1,0,11016.4,0.0447467,0.0444442,3.50052,6,0.00179008,10,0.000155578,-2.45587,0.219596,0.268676,36.7957,0.0444442,
2,1,0,1,0,11016.5,0.052235,0.0519458,3.76635,6,0.00224614,10,0.000195646,-2.42408,0.252664,0.233512,34.3415,0.0519458,
2,1,0,1,0,11016.7,0.0597299,0.059419,4.01969,6,0.00273455,10,0.000238846,-2.39581,0.282552,0.208811,32.6892,0.059419,
2,1,0,1,0,11016.8,0.0672156,0.0668836,4.25526,6,0.00325253,10,0.000284607,-2.37107,0.312064,0.189064,31.3491,0.0668836,
2,1,0,1,0,11016.9,0.0747105,0.0744023,4.45859,6,0.00379876,10,0.000331729,-2.3508,0.389658,0.151415,26.3564,0.0744023,
2,1,0,1,0,11017,0.0821988,0.081899,4.64241,6,0.00436918,10,0.000380208,-2.33326,0.48046,0.122799,22.2883,0.081899,
2,1,0,1,0,11017.2,0.0896937,0.0893841,4.84215,6,0.00496353,10,0.000432811,-2.31496,0.44183,0.133535,25.2283,0.0893841,
2,1,0,1,0,11017.3,0.0971794,0.0968309,5.09413,6,0.00558393,10,0.000493269,-2.29293,0.263857,0.223606,44.424,0.0968309,
2,1,0,1,0,11017.4,0.104674,0.104369,5.45294,6,0.00624327,10,0.000569118,-2.26337,0.210671,0.280057,59.6274,0.104369,
2,1,0,1,0,11017.5,0.112163,0.111852,5.90845,6,0.00695419,10,0.000660873,-2.22853,0.219652,0.268607,61.9795,0.111852,
2,1,0,1,0,11017.7,0.119657,0.119327,6.34385,6,0.00772225,10,0.000756993,-2.19765,0.329755,0.178921,44.2098,0.119327,
2,1,0,1,0,11017.8,0.127143,0.126837,6.64712,6,0.00853584,10,0.0008431,-2.17737,0.409915,0.143932,37.3431,0.1268369,
2,1,0,1,0,11017.9,0.134638,0.134324,6.90265,6,0.00938509,10,0.000927188,-2.16098,0.495252,0.119131,32.1322,0.134324,
2,1,0,1,0,11018,0.142126,0.141837,7.05001,6,0.0102609,10,0.000999951,-2.15181,9.73695,0.00605939,1.66507,0.141837,
2,1,0,1,0,11018.2,0.149621,0.149284,6.73859,6,0.0111316,10,0.00100596,-2.17143,-0.157408,-0.374821,-97.9622,0.149284,
2,1,0,1,0,11018.3,0.157107,0.156834,5.68599,6,0.011914,10,0.000891757,-2.24519,-0.0767716,-0.768514,-169.986,0.156834,
2,1,0,1,0,11018.4,0.164602,0.164304,4.49764,6,0.0125485,10,0.00073898,-2.34702,-0.0804446,-0.733424,-129.186,0.164304,
2,1,0,1,0,11018.5,0.17209,0.171767,3.7406,6,0.0130606,10,0.000642512,-2.42706,-0.114622,-0.514735,-75.5177,0.1717672,
2,1,0,1,0,11018.7,0.179585,0.179302,3.3154,6,0.0135015,10,0.000594456,-2.47946,-0.169789,-0.34749,-45.0919,0.179302,
2,1,0,1,0,11018.8,0.187072,0.186725,3.05844,6,0.0138998,10,0.000571088,-2.5145,-0.273187,-0.215969,-25.7459,0.186725,
2,1,0,1,0,11018.9,0.194566,0.194256,2.89131,6,0.0142723,10,0.000561653,-2.53891,-0.405937,-0.145343,-16.4099,0.194256,
2,1,0,1,0,11019,0.202055,0.201753,2.77436,6,0.0146275,10,0.000559736,-2.55684,-0.516797,-0.114165,-12.3812,0.201753,
2,1,0,1,0,11019.2,0.209549,0.209264,2.70359,6,0.0149715,10,0.000565763,-2.56806,-0.46707,-0.126319,-13.3048,0.209264,
2,1,0,1,0,11019.3,0.217036,0.216693,2.63987,6,0.0153066,10,0.000572041,-2.57842,-0.915185,-0.0644679,-6.64893,0.216693,
2,1,0,1,0,11019.4,0.224529,0.224215,2.59433,6,0.0156358,10,0.000581686,-2.58598,-1.47461,-0.0400106,-4.0644,0.224215,
2,1,0,1,0,11019.5,0.232019,0.231725,2.55869,6,0.0159596,10,0.000592912,-2.59198,-2.52551,-0.0233617,-2.33486,0.231725,
2,1,0,1,0,11019.7,0.239513,0.239205,2.52945,6,0.0162796,10,0.000605057,-2.59697,-1.18039,-0.0499834,-4.93791,0.239205,
2,1,0,1,0,11019.8,0.247001,0.246662,2.50757,6,0.0165957,10,0.000618523,-2.60075,-1.25819,-0.0468927,-4.57257,0.246662,
2,1,0,1,0,11019.9,0.254493,0.254194,2.47553,6,0.0169087,10,0.000629265,-2.60633,-1.83271,-0.0321928,-3.11939,0.254194,
2,1,0,1,0,11020,0.261983,0.261687,2.44474,6,0.0172182,10,0.000639756,-2.61177,-1.45103,-0.0406606,-3.89502,0.261687,
2,1,0,1,0,11020.2,0.269477,0.26918,2.42584,6,0.0175248,10,0.000652988,-2.61514,-1.38192,-0.0426943,-4.0437,0.26918,
2,1,0,1,0,11020.3,0.276965,0.276676,2.40481,6,0.0178283,10,0.000665352,-2.61892,-1.85695,-0.0317726,-2.97854,0.276676,
2,1,0,1,0,11020.4,0.284457,0.284158,2.38049,6,0.0181287,10,0.000676436,-2.62333,9.40354,0.00627424,0.582173,0.2841582,
2,1,0,1,0,11020.5,0.291947,0.291651,2.34605,6,0.0184256,10,0.000684228,-2.62966,-1.82732,-0.0322878,-2.96345,0.291651,
2,1,0,1,0,11020.7,0.29944,0.299112,2.32696,6,0.0187197,10,0.000696023,-2.63321,-0.00528193,-11.1702,-704.147,0.299112,
2,0,0,1,0,11020.8,0.293742,0.293405,-0.681125,6,0.0187424,10,-0.000199845,-3.16677,-0.0176769,-3.33768,79.9826,0.293405,
2,0,0,1,0,11020.9,0.286254,0.285958,-0.993098,6,0.0186329,10,-0.000283984,-3.00301,-0.0746446,-0.790412,30.4681,0.285958,
2,0,0,1,0,11021,0.278761,0.278427,-1.1569,6,0.0184953,10,-0.000322114,-2.9367,-0.134365,-0.439102,20.0155,0.278427,
2,0,0,1,0,11021.1,0.271272,0.270942,-1.28871,6,0.0183395,10,-0.000349167,-2.88984,-0.196143,-0.300801,15.1833,0.270942,
2,0,0,1,0,11021.3,0.263778,0.263452,-1.39624,6,0.0181692,10,-0.000367842,-2.85504,-0.294419,-0.200395,10.8812,0.263452,
2,0,0,1,0,11021.4,0.25629,0.255964,-1.48846,6,0.0179873,10,-0.000380992,-2.82726,-0.31352,-0.188186,10.8695,0.255964,
2,0,0,1,0,11021.5,0.248797,0.248465,-1.56036,6,0.0177948,10,-0.000387695,-2.80678,-0.369092,-0.159852,9.75654,0.248465,
2,0,0,1,0,11021.6,0.241308,0.240989,-1.62846,6,0.0175932,10,-0.000392442,-2.78822,-0.716971,-0.0822907,5.26185,0.240989,
2,0,0,1,0,11021.8,0.233814,0.233513,-1.70429,6,0.0173827,10,-0.000397974,-2.76846,-0.457398,-0.128991,8.56654,0.233513,
2,0,0,1,0,11021.9,0.226326,0.226049,-1.77005,6,0.0171639,10,-0.000400118,-2.75201,-0.428871,-0.137571,9.49807,0.226049,
2,0,0,1,0,11022,0.218834,0.218534,-1.83059,6,0.0169368,10,-0.000400045,-2.73741,-0.391218,-0.150811,10.8096,0.218534,
2,0,0,1,0,11022.1,0.211344,0.211022,-1.89532,6,0.0167018,10,-0.000399956,-2.72232,-0.69494,-0.0848994,6.2936,0.211022,
2,0,0,1,0,11022.3,0.203856,0.203547,-1.9721,6,0.0164581,10,-0.000401415,-2.70507,-0.907501,-0.0650137,4.99487,0.203547,
2,0,0,1,0,11022.4,0.196362,0.196016,-2.05042,6,0.0162057,10,-0.000401915,-2.68816,-0.405837,-0.145379,11.5716,0.196016,
2,0,0,1,0,11022.5,0.18887,0.188501,-2.12755,6,0.015943,10,-0.000401045,-2.67212,-0.314242,-0.187753,15.6163,0.188501,
2,0,0,1,0,11022.6,0.18138,0.181051,-2.22451,6,0.0156691,10,-0.000402749,-2.65277,-0.332938,-0.17721,15.462,0.181051,
2,0,0,1,0,11022.8,0.173892,0.173584,-2.36079,6,0.0153808,10,-0.000409795,-2.62694,-0.281611,-0.209508,19.2758,0.1735841,
2,0,0,1,0,11022.9,0.166398,0.166122,-2.54264,6,0.0150735,10,-0.00042239,-2.59471,-0.213587,-0.276233,27.3339,0.166122,
2,0,0,1,0,11023,0.158905,0.15857,-2.79412,6,0.0147395,10,-0.000443063,-2.55375,-0.148703,-0.396765,43.3467,0.15857,
2,0,0,1,0,11023.1,0.151417,0.151092,-3.18918,6,0.0143654,10,-0.000481861,-2.49632,-0.112097,-0.526332,65.8233,0.151092,
2,0,0,1,0,11023.3,0.143927,0.143597,-3.82841,6,0.0139277,10,-0.00054975,-2.41698,-0.0831642,-0.70944,106.235,0.143597,
2,0,0,1,0,11023.4,0.136435,0.136113,-4.7363,6,0.0133926,10,-0.000644672,-2.32456,-0.083412,-0.707332,130.599,0.136113,
2,0,0,1,0,11023.5,0.128941,0.128643,-5.71894,6,0.012737,10,-0.0007357,-2.24268,-0.104401,-0.565128,125.886,0.128643,
2,0,0,1,0,11023.6,0.121453,0.12116,-6.52273,6,0.0119674,10,-0.000790295,-2.18557,-0.176875,-0.333569,84.8295,0.12116,
2,0,0,1,0,11023.8,0.113963,0.113673,-7.01184,6,0.0111164,10,-0.000797056,-2.15417,-0.395884,-0.149034,40.7588,0.1136729,
2,0,0,1,0,11023.9,0.106471,0.106168,-7.19977,6,0.0102233,10,-0.000764386,-2.14268,-3.97397,-0.0148466,4.1649,0.106168,
2,0,0,1,0,11024,0.0989825,0.098664,-7.08849,6,0.00932685,10,-0.000699379,-2.14945,0.573103,0.102948,-28.4306,0.098664,
2,0,0,1,0,11024.1,0.0914889,0.0911976,-6.74343,6,0.00845923,10,-0.000614984,-2.17112,0.295941,0.199364,-52.4773,0.09119758,
2,0,0,1,0,11024.3,0.0839993,0.0836777,-6.32707,6,0.00764163,10,-0.000529434,-2.1988,0.26249,0.224771,-55.5302,0.0836777,
2,0,0,1,0,11024.4,0.076507,0.0761636,-6.01803,6,0.00687056,10,-0.000458354,-2.22055,0.372652,0.158325,-37.1031,0.0761636,
2,0,0,1,0,11024.5,0.0690187,0.0686726,-5.78785,6,0.00613326,10,-0.000397467,-2.23748,0.576492,0.102343,-23.1282,0.06867256,
2,0,0,1,0,11024.6,0.0615251,0.0612382,-5.6116,6,0.00541864,10,-0.000343645,-2.25091,0.591317,0.0997773,-21.898,0.0612382,
2,0,0,1,0,11024.8,0.0540355,0.0536882,-5.45391,6,0.00472525,10,-0.00029281,-2.26329,0.552303,0.106825,-22.7482,0.0536882,
2,0,0,1,0,11024.9,0.0465432,0.0462392,-5.2884,6,0.00405199,10,-0.000244531,-2.27668,0.509679,0.115759,-23.8616,0.0462392,
2,0,0,1,0,11025,0.0390549,0.0387434,-5.09822,6,0.00340195,10,-0.000197522,-2.29258,0.451347,0.13072,-25.9771,0.0387434,
2,0,0,1,0,11025.1,0.0315613,0.0312242,-4.87686,6,0.00277672,10,-0.000152276,-2.31186,0.370468,0.159258,-30.3044,0.0312242,
2,0,0,1,0,11025.3,0.0240717,0.023782,-4.64034,6,0.00218058,10,-0.000110356,-2.33345,0.318169,0.185436,-33.6028,0.023782,
2,0,0,1,0,11025.4,0.0165781,0.0162779,-4.42785,6,0.00161247,10,-7.2076e-05,-2.35381,0.385668,0.152981,-26.4408,0.0162779,
2,0,0,1,0,11025.5,0.00909108,0.00876476,-4.25508,6,0.00106908,10,-3.72947e-05,-2.37109,0.574269,0.102739,-17.0705,0.00876476,
2,0,0,1,0,11025.6,0.00159616,0.00119702,-4.17804,6,0.000542188,10,-5.0012e-06,-2.37903, , , ,0.00119702,
2,0,0,1,0,11025.7,0.000199195,-0.00016499,-4.14974,6,0.000444667,10,6.84666e-07,-2.38198, , , ,-0.00016499,