File: Figure_codes/Fig_3-5/rawdata_trumpetplot_data/after 10th/20221101_1-115_003_TrumpetPlot_ParaChange_from10_every3_05_CV_C01_12.csv
mode,ox/red,error,control changes,counter inc.,time/s,control/V,Ewe/V,<I>/mA,cycle number,(Q-Qo)/C,I Range,P/W,log(|I|),Tafel slope mV/dec,alpha_eff,dI/d(E-IR),E-IR/V,
2,0,0,1,0,24761.6,2.44065e-05,-0.00042076,-0.73479,13,0.0000000E+000,10,3.0917e-07,-3.13384, , , ,-0.00042076,
2,1,0,1,0,24761.9,0.00729063,0.00698098,0.711453,13,0.000159306,10,4.96664e-06,-3.14785,0.0530539,1.11208,30.2826,0.00698098,
2,1,0,1,0,24762.3,0.0147802,0.0144492,0.859433,13,0.00046252,10,1.24181e-05,-3.06579,0.125048,0.471818,15.766,0.0144492,
2,1,0,1,0,24762.7,0.0222725,0.0219399,0.96338,13,0.000810644,10,2.11365e-05,-3.0162,0.17989,0.327978,12.3051,0.0219399,
2,1,0,1,0,24763.1,0.0297644,0.0294488,1.06101,13,0.00119622,10,3.12453e-05,-2.97428,0.194103,0.303962,12.5653,0.0294488,
2,1,0,1,0,24763.4,0.0372544,0.0369806,1.15777,13,0.00161839,10,4.28148e-05,-2.93638,0.215567,0.273696,12.3662,0.0369806,
2,1,0,1,0,24763.8,0.0447449,0.0444568,1.2546,13,0.00207699,10,5.57756e-05,-2.90149,0.235139,0.250916,12.2728,0.0444568,
2,1,0,1,0,24764.2,0.0522363,0.0518782,1.34385,13,0.00257069,10,6.97166e-05,-2.87165,0.256311,0.230189,12.076,0.0518782,
2,1,0,1,0,24764.6,0.0597291,0.0593847,1.42705,13,0.00309698,10,8.4745e-05,-2.84556,0.293839,0.20079,11.1694,0.0593847,
2,1,0,1,0,24764.9,0.0672182,0.0669183,1.50324,13,0.00365227,10,0.000100594,-2.82297,0.38984,0.151344,8.85409,0.0669183,
2,1,0,1,0,24765.3,0.0747092,0.074397,1.56603,13,0.00423327,10,0.000116508,-2.8052,0.564731,0.104474,6.37998,0.074397,
2,1,0,1,0,24765.7,0.0822001,0.0819069,1.61757,13,0.00483594,10,0.00013249,-2.79114,0.577405,0.102181,6.45734,0.08190693,
2,1,0,1,0,24766.1,0.0896911,0.0893743,1.68113,13,0.00545987,10,0.00015025,-2.7744,0.389557,0.151454,9.93947,0.0893743,
2,1,0,1,0,24766.4,0.097182,0.0968684,1.78249,13,0.00611442,10,0.000172667,-2.74897,0.21259,0.277529,19.3133,0.0968684,
2,1,0,1,0,24766.8,0.104673,0.104406,1.94199,13,0.00681677,10,0.000202755,-2.71175,0.201063,0.293441,22.1977,0.104406,
2,1,0,1,0,24767.2,0.112164,0.111828,2.10029,13,0.00758078,10,0.000234871,-2.67772,0.263163,0.224196,18.3472,0.111828,
2,1,0,1,0,24767.6,0.119655,0.119361,2.21528,13,0.00839758,10,0.000264418,-2.65457,0.50043,0.117899,10.1935,0.119361,
2,1,0,1,0,24767.9,0.127146,0.126833,2.29017,13,0.00924904,10,0.000290469,-2.64013,0.568458,0.10379,9.28267,0.126833,
2,1,0,1,0,24768.3,0.134637,0.134319,2.34139,13,0.0101255,10,0.000314493,-2.63053,5.57889,0.0105756,0.965589,0.134319,
2,1,0,1,0,24768.7,0.142128,0.141822,2.24485,13,0.0109993,10,0.000318369,-2.64881,-0.175535,-0.336116,-29.2948,0.141822,
2,1,0,1,0,24769.1,0.149619,0.149252,1.89676,13,0.011788,10,0.000283095,-2.72199,-0.0783938,-0.75261,-55.5755,0.149252,
2,1,0,1,0,24769.4,0.157108,0.156805,1.50401,13,0.0124276,10,0.000235836,-2.82275,-0.0794378,-0.742719,-43.6586,0.156805,
2,1,0,1,0,24769.8,0.164601,0.164297,1.26264,13,0.012947,10,0.000207448,-2.89872,-0.124169,-0.475159,-23.4369,0.164297,
2,1,0,1,0,24770.2,0.172092,0.171766,1.13375,13,0.0134004,10,0.000194739,-2.94548,-0.211856,-0.278491,-12.3944,0.171766,
2,1,0,1,0,24770.6,0.179582,0.179311,1.07015,13,0.0138189,10,0.000191889,-2.97056,-0.365771,-0.161303,-6.74236,0.179311,
2,1,0,1,0,24770.9,0.187073,0.186775,1.03131,13,0.0142182,10,0.000192623,-2.98661,-0.796778,-0.0740482,-2.97799,0.186775,
2,1,0,1,0,24771.3,0.194564,0.194228,1.00536,13,0.0146059,10,0.000195269,-2.99768,-0.802465,-0.0735234,-2.88588,0.194228,
2,1,0,1,0,24771.7,0.202057,0.201753,0.987381,13,0.0149855,10,0.000199207,-3.00552,-0.832526,-0.0708687,-2.7218,0.201753,
2,1,0,1,0,24772.1,0.209546,0.209241,0.972883,13,0.0153591,10,0.000203567,-3.01194,-0.790638,-0.0746233,-2.83793,0.209241,
2,1,0,1,0,24772.4,0.217037,0.21674,0.960171,13,0.0157276,10,0.000208107,-3.01765,-1.99172,-0.0296227,-1.11208,0.21674,
2,1,0,1,0,24772.8,0.224528,0.224245,0.953582,13,0.0160923,10,0.000213836,-3.02064,-1.27438,-0.0462971,-1.71856,0.224245,
2,1,0,1,0,24773.2,0.232019,0.231699,0.943199,13,0.0164534,10,0.000218538,-3.0254,-1.35127,-0.0436626,-1.60583,0.231699,
2,1,0,1,0,24773.6,0.23951,0.239227,0.936754,13,0.0168115,10,0.000224097,-3.02837,-3.29267,-0.0179186,-0.653981,0.239227,
2,1,0,1,0,24773.9,0.247001,0.246696,0.928529,13,0.0171666,10,0.000229064,-3.0322,-1.37808,-0.0428132,-1.54618,0.246696,
2,1,0,1,0,24774.3,0.254492,0.254147,0.919293,13,0.017519,10,0.000233635,-3.03655,-1.33585,-0.0441667,-1.58742,0.254147,
2,1,0,1,0,24774.7,0.261983,0.261687,0.911153,13,0.0178685,10,0.000238437,-3.04041,-1.90106,-0.0310353,-1.10448,0.261687,
2,1,0,1,0,24775.1,0.269474,0.269122,0.903355,13,0.0182153,10,0.000243113,-3.04414,-7.09938,-0.00831058,-0.293249,0.269122,
2,1,0,1,0,24775.4,0.276965,0.276653,0.897181,13,0.0185589,10,0.000248208,-3.04712,-1.84132,-0.0320421,-1.12152,0.276653,
2,1,0,1,0,24775.8,0.284456,0.28413,0.888491,13,0.0188996,10,0.000252447,-3.05135,-1.30433,-0.0452341,-1.56512,0.28413,
2,1,0,1,0,24776.2,0.291947,0.2916,0.878814,13,0.0192368,10,0.000256262,-3.0561,-1.17651,-0.0501484,-1.71795,0.2916,
2,1,0,1,0,24776.6,0.299436,0.299148,0.867813,13,0.0195708,10,0.000259605,-3.06157,-0.00285473,-20.6674,-380.106,0.299148,
2,0,0,1,0,24776.9,0.293745,0.293418,-0.192361,13,0.0195842,10,-5.64422e-05,-3.71588,-0.0198432,-2.97331,21.0338,0.293418,
2,0,0,1,0,24777.3,0.286254,0.285893,-0.293271,13,0.0194842,10,-8.38441e-05,-3.53273,-0.061651,-0.957,10.9508,0.285893,
2,0,0,1,0,24777.6,0.278763,0.278468,-0.359445,13,0.0193542,10,-0.000100094,-3.44437,-0.11397,-0.517679,7.25915,0.278468,
2,0,0,1,0,24778,0.271272,0.270956,-0.410162,13,0.0192035,10,-0.000111136,-3.38704,-0.132617,-0.444889,7.0768,0.270956,
2,0,0,1,0,24778.4,0.263781,0.263465,-0.446212,13,0.0190359,10,-0.000117561,-3.35046,-0.220786,-0.267227,4.66065,0.263465,
2,0,0,1,0,24778.8,0.25629,0.255973,-0.485908,13,0.0188542,10,-0.000124379,-3.31345,-0.253646,-0.232608,4.38335,0.255973,
2,0,0,1,0,24779.1,0.248799,0.248482,-0.516015,13,0.0186599,10,-0.000128221,-3.28734,-0.305711,-0.192993,3.8904,0.2484822,
2,0,0,1,0,24779.5,0.241308,0.240998,-0.544896,13,0.0184545,10,-0.000131319,-3.26369,-0.434274,-0.135859,2.89641,0.240998,
2,0,0,1,0,24779.9,0.233817,0.233501,-0.571048,13,0.0182385,10,-0.00013334,-3.24333,-0.360505,-0.163659,3.6516,0.233501,
2,0,0,1,0,24780.3,0.226326,0.225991,-0.597993,13,0.0180123,10,-0.000135141,-3.2233,-0.430975,-0.136899,3.20018,0.225991,
2,0,0,1,0,24780.6,0.218835,0.218538,-0.625883,13,0.0177762,10,-0.000136779,-3.20351,-0.438827,-0.134449,3.27881,0.218538,
2,0,0,1,0,24781,0.211344,0.211041,-0.652473,13,0.0175307,10,-0.000137699,-3.18544,-0.653142,-0.0903326,2.29416,0.211041,
2,0,0,1,0,24781.4,0.203855,0.203513,-0.675519,13,0.0172751,10,-0.000137477,-3.17036,-0.661293,-0.0892192,2.35981,0.203513,
2,0,0,1,0,24781.8,0.196362,0.196011,-0.704523,13,0.0170094,10,-0.000138095,-3.1521,-0.441923,-0.133507,3.66802,0.196011,
2,0,0,1,0,24782.1,0.188871,0.188523,-0.737238,13,0.0167326,10,-0.000138986,-3.13239,-0.280321,-0.210473,6.04892,0.188523,
2,0,0,1,0,24782.5,0.18138,0.181053,-0.772628,13,0.0164432,10,-0.000139886,-3.11203,-0.343498,-0.171762,5.18422,0.181053,
2,0,0,1,0,24782.9,0.173891,0.173524,-0.816111,13,0.0161392,10,-0.000141615,-3.08825,-0.279273,-0.211263,6.72725,0.173524,
2,0,0,1,0,24783.3,0.166398,0.166028,-0.875234,13,0.015816,10,-0.000145313,-3.05788,-0.273548,-0.215685,7.3815,0.166028,
2,0,0,1,0,24783.6,0.158906,0.158584,-0.952156,13,0.0154674,10,-0.000150996,-3.02129,-0.160065,-0.3686,13.7722,0.158584,
2,0,0,1,0,24784,0.151417,0.151106,-1.0894,13,0.0150794,10,-0.000164615,-2.96281,-0.110285,-0.534977,22.8205,0.151106,
2,0,0,1,0,24784.4,0.143926,0.143587,-1.31367,13,0.0146256,10,-0.000188626,-2.88152,-0.0758269,-0.778088,39.9336,0.143587,
2,0,0,1,0,24784.8,0.136435,0.136123,-1.64717,13,0.0140662,10,-0.000224217,-2.78326,-0.0786308,-0.750342,48.1377,0.136123,
2,0,0,1,0,24785.1,0.128942,0.128605,-1.99423,13,0.0133758,10,-0.000256469,-2.70022,-0.108769,-0.542433,42.0459,0.128605,
2,0,0,1,0,24785.5,0.121453,0.121166,-2.24853,13,0.0125711,10,-0.000272444,-2.6481,-0.214747,-0.274742,24.0127,0.121166,
2,0,0,1,0,24785.9,0.113962,0.113638,-2.3619,13,0.011696,10,-0.000268401,-2.62674,-1.00214,-0.0588742,5.42532,0.1136378,
2,0,0,1,0,24786.3,0.106471,0.10617,-2.35779,13,0.0108009,10,-0.000250328,-2.62749,0.879587,0.0670769,-6.18288,0.1061704,
2,0,0,1,0,24786.6,0.0989799,0.0986669,-2.28111,13,0.00992305,10,-0.00022507,-2.64185,0.432044,0.13656,-12.1472,0.0986669,
2,0,0,1,0,24787,0.0914889,0.0911699,-2.18284,13,0.00908075,10,-0.000199009,-2.66098,0.394197,0.149671,-12.7301,0.0911699,
2,0,0,1,0,24787.4,0.083998,0.0836759,-2.09975,13,0.00827324,10,-0.000175698,-2.67783,0.45596,0.129397,-10.5853,0.0836759,
2,0,0,1,0,24787.8,0.076507,0.0762139,-2.03379,13,0.00749302,10,-0.000155003,-2.69169,0.56977,0.103551,-8.21404,0.0762139,
2,0,0,1,0,24788.1,0.0690161,0.0686915,-1.97313,13,0.00673624,10,-0.000135537,-2.70484,0.548416,0.107582,-8.29083,0.0686915,
2,0,0,1,0,24788.5,0.0615251,0.0612049,-1.91374,13,0.00600062,10,-0.000117131,-2.71812,0.632692,0.0932523,-6.97572,0.0612049,
2,0,0,1,0,24788.9,0.0540342,0.0537097,-1.85825,13,0.00528707,10,-9.98058e-05,-2.7309,0.596662,0.0988834,-7.16784,0.0537097,
2,0,0,1,0,24789.3,0.0465432,0.046228,-1.79503,13,0.00459547,10,-8.29804e-05,-2.74593,0.503178,0.117255,-8.21504,0.046228,
2,0,0,1,0,24789.6,0.0390523,0.038731,-1.72981,13,0.00392878,10,-6.69974e-05,-2.762,0.380823,0.154928,-10.433,0.038731,
2,0,0,1,0,24790,0.0315626,0.0312524,-1.65725,13,0.00328813,10,-5.17931e-05,-2.78061,0.395655,0.14912,-9.63032,0.0312524,
2,0,0,1,0,24790.4,0.0240704,0.0237461,-1.58398,13,0.00267388,10,-3.76134e-05,-2.80025,0.43205,0.136558,-8.4739,0.0237461,
2,0,0,1,0,24790.8,0.0165785,0.0162928,-1.53236,13,0.00208312,10,-2.49665e-05,-2.81464,0.598223,0.0986255,-5.90286,0.0162928,
2,0,0,1,0,24791.1,0.00908845,0.00877249,-1.49157,13,0.00151072,10,-1.30848e-05,-2.82636,0.954711,0.0617988,-3.59826,0.008772485,
2,0,0,1,0,24791.5,0.0015984,0.0012026,-1.49123,13,0.000948678,10,-1.79336e-06,-2.82645, , , ,0.0012026,
2,0,0,1,0,24791.6,0.000199195,-0.000199717,-1.47252,13,0.000843633,10,2.94087e-07,-2.83194, , , ,-0.000199717,