File: Figure_codes/Fig_3-5/rawdata_trumpetplot_data/after 10th/20221101_1-115_003_TrumpetPlot_ParaChange_from10_every3_04_CV_C01_30.csv
mode,ox/red,error,control changes,counter inc.,time/s,control/V,Ewe/V,<I>/mA,cycle number,(Q-Qo)/C,I Range,P/W,log(|I|),Tafel slope mV/dec,alpha_eff,dI/d(E-IR),E-IR/V,
2,0,0,1,0,60163.9,2.44065e-05,-0.000458935,-0.394513,31,0.0000000E+000,10,1.81056e-07,-3.40394, , , ,-0.000458935,
2,1,0,1,0,60164.7,0.00729063,0.00693528,0.341314,31,0.000157412,10,2.36711e-06,-3.46685,0.0530432,1.1123,14.5665,0.00693528,
2,1,0,1,0,60165.4,0.0147814,0.0144373,0.415608,31,0.000453333,10,6.00027e-06,-3.38132,0.114595,0.514856,8.32835,0.0144373,
2,1,0,1,0,60166.2,0.0222725,0.0218997,0.468644,31,0.000794964,10,1.02632e-05,-3.32916,0.167538,0.352158,6.44439,0.0218997,
2,1,0,1,0,60166.9,0.0297635,0.0294476,0.518606,31,0.00117455,10,1.52717e-05,-3.28516,0.190595,0.309557,6.25308,0.0294476,
2,1,0,1,0,60167.7,0.0372544,0.0368896,0.56636,31,0.00159069,10,2.08928e-05,-3.24691,0.220625,0.267422,5.91249,0.0368896,
2,1,0,1,0,60168.4,0.0447458,0.0443922,0.614134,31,0.00204263,10,2.72627e-05,-3.21174,0.226701,0.260255,6.22912,0.0443922,
2,1,0,1,0,60169.1,0.0522363,0.0518393,0.657133,31,0.00252945,10,3.40653e-05,-3.18235,0.248061,0.237845,6.10074,0.0518393,
2,1,0,1,0,60169.9,0.0597282,0.0593532,0.699243,31,0.00304806,10,4.15023e-05,-3.15537,0.291766,0.202217,5.50749,0.0593532,
2,1,0,1,0,60170.6,0.0672182,0.0668101,0.734444,31,0.00359437,10,4.90682e-05,-3.13404,0.412023,0.143196,4.08723,0.0668101,
2,1,0,1,0,60171.4,0.0747092,0.0743464,0.762081,31,0.00416461,10,5.6658e-05,-3.118,0.500283,0.117933,3.50868,0.0743464,
2,1,0,1,0,60172.1,0.0822001,0.0818509,0.786787,31,0.00475565,10,6.43992e-05,-3.10414,0.651606,0.0905455,2.7885,0.0818509,
2,1,0,1,0,60172.9,0.0896911,0.0893236,0.820859,31,0.00536781,10,7.3322e-05,-3.08573,0.327804,0.179986,5.7799,0.0893236,
2,1,0,1,0,60173.6,0.097182,0.0968365,0.873593,31,0.00601173,10,8.45958e-05,-3.05869,0.205615,0.286944,9.78808,0.0968365,
2,1,0,1,0,60174.4,0.104673,0.104361,0.95096,31,0.00670386,10,9.92433e-05,-3.02184,0.199334,0.295985,10.9485,0.104361,
2,1,0,1,0,60175.1,0.112164,0.111851,1.02439,31,0.00745356,10,0.000114578,-2.98954,0.27943,0.211144,8.40779,0.111851,
2,1,0,1,0,60175.9,0.119655,0.119286,1.07134,31,0.00824963,10,0.000127797,-2.97007,0.698328,0.0844875,3.53122,0.1192864,
2,1,0,1,0,60176.6,0.127146,0.126821,1.09577,31,0.00907267,10,0.000138966,-2.96028,1.26812,0.0465256,1.9905,0.126821,
2,1,0,1,0,60177.4,0.134637,0.134298,1.09461,31,0.00990642,10,0.000147004,-2.96074,-0.488281,-0.120832,-5.14707,0.134298,
2,1,0,1,0,60178.1,0.142127,0.141771,1.00265,31,0.0107093,10,0.000142146,-2.99885,-0.119597,-0.493323,-19.2345,0.141771,
2,1,0,1,0,60178.9,0.149619,0.149247,0.821989,31,0.0114053,10,0.00012268,-3.08513,-0.0788401,-0.74835,-24.0433,0.149247,
2,1,0,1,0,60179.6,0.157109,0.156768,0.67215,31,0.0119701,10,0.000105372,-3.17253,-0.106293,-0.555067,-14.6,0.156768,
2,1,0,1,0,60180.4,0.164601,0.164252,0.598663,31,0.0124522,10,9.83315e-05,-3.22282,-0.206178,-0.28616,-6.69841,0.164252,
2,1,0,1,0,60181.1,0.172091,0.171761,0.560791,31,0.0128949,10,9.63222e-05,-3.2512,-0.386212,-0.152766,-3.35809,0.171761,
2,1,0,1,0,60181.9,0.179582,0.179245,0.543184,31,0.0133178,10,9.73629e-05,-3.26505,-0.738161,-0.0799284,-1.70097,0.179245,
2,1,0,1,0,60182.6,0.187074,0.186764,0.53322,31,0.01373,10,9.95865e-05,-3.27309,-5.08375,-0.0116056,-0.24085,0.1867643,
2,1,0,1,0,60183.4,0.194564,0.194191,0.525548,31,0.0141354,10,0.000102057,-3.27939,-1.03655,-0.0569197,-1.16769,0.1941914,
2,1,0,1,0,60184.1,0.202056,0.201715,0.518783,31,0.0145357,10,0.000104646,-3.28501,-1.98161,-0.0297737,-0.602925,0.201715,
2,1,0,1,0,60184.9,0.209546,0.2092,0.515987,31,0.014933,10,0.000107945,-3.28736,-1.18342,-0.0498553,-1.00428,0.2092,
2,1,0,1,0,60185.6,0.217038,0.216701,0.511682,31,0.0153268,10,0.000110882,-3.291,-5.10134,-0.0115656,-0.231499,0.216701,
2,1,0,1,0,60186.4,0.224528,0.22421,0.507681,31,0.0157183,10,0.000113827,-3.29441,-36.9615,-0.00159625,-0.0316736,0.22421,
2,1,0,1,0,60187.1,0.232019,0.231662,0.507032,31,0.0161077,10,0.00011746,-3.29496,-5.10317,-0.0115615,-0.22861,0.231662,
2,1,0,1,0,60187.9,0.23951,0.239164,0.502622,31,0.016495,10,0.000120209,-3.29876,-2.07672,-0.0284102,-0.556395,0.239164,
2,1,0,1,0,60188.6,0.247001,0.246677,0.501662,31,0.01688,10,0.000123749,-3.29959,-1.48358,-0.0397686,-0.776112,0.246677,
2,1,0,1,0,60189.4,0.254492,0.254152,0.496874,31,0.017263,10,0.000126282,-3.30375,-2.57142,-0.0229445,-0.445394,0.254152,
2,1,0,1,0,60190.1,0.261983,0.261669,0.495446,31,0.0176434,10,0.000129643,-3.305,-2.33932,-0.025221,-0.487224,0.261669,
2,1,0,1,0,60190.9,0.269474,0.269153,0.491114,31,0.0180218,10,0.000132185,-3.30882,8.04003,0.00733828,0.140773,0.269153,
2,1,0,1,0,60191.6,0.276965,0.276598,0.486989,31,0.0183973,10,0.0001347,-3.31248,-11.3372,-0.00520411,-0.0989526,0.276598,
2,1,0,1,0,60192.4,0.284456,0.284131,0.484733,31,0.01877,10,0.000137728,-3.3145,-2.53432,-0.0232804,-0.439035,0.284131,
2,1,0,1,0,60193.1,0.291947,0.291609,0.479092,31,0.0191395,10,0.000139707,-3.31958,-0.879811,-0.0670598,-1.25476,0.291609,
2,1,0,1,0,60193.9,0.299437,0.299104,0.474962,31,0.0195061,10,0.000142063,-3.32334,-0.00336666,-17.5248,-187.25,0.299104,
2,0,0,1,0,60194.6,0.293745,0.293431,-0.0666826,31,0.0195394,10,-1.95667e-05,-4.17599,-0.0120826,-4.88305,11.5499,0.293431,
2,0,0,1,0,60195.3,0.286253,0.285916,-0.124687,31,0.0194558,10,-3.56501e-05,-3.90418,-0.0514929,-1.14579,5.58764,0.285916,
2,0,0,1,0,60196.1,0.278763,0.278462,-0.161584,31,0.0193386,10,-4.49949e-05,-3.7916,-0.0827136,-0.713304,4.49048,0.278462,
2,0,0,1,0,60196.8,0.271272,0.27092,-0.190311,31,0.0191976,10,-5.15592e-05,-3.72054,-0.126463,-0.466539,3.44801,0.27092,
2,0,0,1,0,60197.6,0.263781,0.263468,-0.213629,31,0.0190369,10,-5.62845e-05,-3.67034,-0.170956,-0.345119,2.88124,0.263468,
2,0,0,1,0,60198.3,0.25629,0.255948,-0.235808,31,0.0188594,10,-6.03547e-05,-3.62744,-0.279023,-0.211452,1.93011,0.255948,
2,0,0,1,0,60199,0.248799,0.248469,-0.253087,31,0.0186674,10,-6.28844e-05,-3.59673,-0.262666,-0.22462,2.21921,0.248469,
2,0,0,1,0,60199.8,0.241308,0.240951,-0.268841,31,0.0184624,10,-6.47774e-05,-3.57051,-0.317677,-0.185723,1.95283,0.240951,
2,0,0,1,0,60200.5,0.233817,0.233469,-0.284044,31,0.0182455,10,-6.63153e-05,-3.54662,-0.254974,-0.231396,2.57019,0.233469,
2,0,0,1,0,60201.3,0.226326,0.225993,-0.298846,31,0.0180173,10,-6.75371e-05,-3.52455,-0.315863,-0.18679,2.18485,0.225993,
2,0,0,1,0,60202,0.218835,0.218458,-0.314314,31,0.017778,10,-6.86643e-05,-3.50264,-0.318205,-0.185415,2.27322,0.218458,
2,0,0,1,0,60202.8,0.211344,0.211002,-0.32831,31,0.0175278,10,-6.9274e-05,-3.48372,-0.400582,-0.147286,1.88573,0.211002,
2,0,0,1,0,60203.5,0.203854,0.203491,-0.342398,31,0.0172663,10,-6.96749e-05,-3.46547,-0.435533,-0.135466,1.82154,0.203491,
2,0,0,1,0,60204.3,0.196362,0.196028,-0.358601,31,0.0169939,10,-7.02958e-05,-3.44539,-0.522965,-0.112818,1.57976,0.196028,
2,0,0,1,0,60205,0.188872,0.188494,-0.373886,31,0.0167097,10,-7.04754e-05,-3.42726,-0.322427,-0.182987,2.67081,0.1884944,
2,0,0,1,0,60205.8,0.18138,0.18107,-0.392107,31,0.0164135,10,-7.09988e-05,-3.4066,-0.36521,-0.161551,2.47369,0.18107,
2,0,0,1,0,60206.5,0.17389,0.173544,-0.412755,31,0.0161033,10,-7.1631e-05,-3.38431,-0.326932,-0.180465,2.89866,0.173544,
2,0,0,1,0,60207.3,0.166398,0.16606,-0.435934,31,0.0157766,10,-7.23912e-05,-3.36058,-0.295062,-0.199958,3.40585,0.16606,
2,0,0,1,0,60208,0.158907,0.158579,-0.469277,31,0.0154283,10,-7.44172e-05,-3.32857,-0.201225,-0.293204,5.37771,0.158579,
2,0,0,1,0,60208.8,0.151417,0.15104,-0.518165,31,0.0150495,10,-7.82638e-05,-3.28553,-0.156433,-0.377159,7.64653,0.15104,
2,0,0,1,0,60209.5,0.143925,0.14356,-0.601565,31,0.0146232,10,-8.63603e-05,-3.22072,-0.0953712,-0.618635,14.5216,0.14356,
2,0,0,1,0,60210.3,0.136435,0.136058,-0.728418,31,0.014118,10,-9.91069e-05,-3.13762,-0.0836463,-0.705351,20.0402,0.136058,
2,0,0,1,0,60211,0.128943,0.128607,-0.880985,31,0.013505,10,-0.000113301,-3.05503,-0.101838,-0.579349,19.8686,0.128607,
2,0,0,1,0,60211.8,0.121453,0.121094,-1.01565,31,0.0127822,10,-0.000122989,-2.99326,-0.159835,-0.36913,14.5833,0.121094,
2,0,0,1,0,60212.5,0.113962,0.113584,-1.09265,31,0.0119775,10,-0.000124107,-2.96152,-0.420987,-0.140147,5.97657,0.113584,
2,0,0,1,0,60213.3,0.106471,0.106141,-1.1125,31,0.0111371,10,-0.000118081,-2.9537,7.67353,0.00768877,-0.334296,0.106141,
2,0,0,1,0,60214,0.0989798,0.0986191,-1.09516,31,0.0102985,10,-0.000108003,-2.96052,0.963488,0.0612358,-2.61575,0.0986191,
2,0,0,1,0,60214.8,0.0914889,0.0911231,-1.07249,31,0.00947655,10,-9.77286e-05,-2.96961,0.805518,0.0732448,-3.06241,0.0911231,
2,0,0,1,0,60215.5,0.083998,0.0836133,-1.04769,31,0.00867291,10,-8.76011e-05,-2.97977,0.572224,0.103106,-4.21131,0.0836133,
2,0,0,1,0,60216.3,0.076507,0.0761586,-1.02151,31,0.00788776,10,-7.77968e-05,-2.99076,0.575872,0.102453,-4.08375,0.0761586,
2,0,0,1,0,60217,0.069016,0.0686658,-0.990545,31,0.00712311,10,-6.80166e-05,-3.00413,0.591908,0.0996776,-3.86454,0.0686658,
2,0,0,1,0,60217.8,0.0615251,0.0612132,-0.964159,31,0.00637915,10,-5.90193e-05,-3.01585,0.531615,0.110983,-4.18056,0.06121324,
2,0,0,1,0,60218.5,0.0540342,0.0536759,-0.936957,31,0.00565716,10,-5.0292e-05,-3.02828,0.601778,0.0980428,-3.57698,0.0536759,
2,0,0,1,0,60219.3,0.0465441,0.0462125,-0.903722,31,0.00495755,10,-4.17633e-05,-3.04396,0.589011,0.100168,-3.53628,0.0462125,
2,0,0,1,0,60220,0.0390523,0.0386987,-0.874081,31,0.00428146,10,-3.38258e-05,-3.05845,0.401141,0.147081,-5.00922,0.0386987,
2,0,0,1,0,60220.8,0.0315618,0.0311947,-0.842419,31,0.00362918,10,-2.6279e-05,-3.07447,0.44824,0.131626,-4.32316,0.0311947,
2,0,0,1,0,60221.5,0.0240704,0.0237141,-0.808584,31,0.00300068,10,-1.91748e-05,-3.09227,0.475085,0.124188,-3.93407,0.02371409,
2,0,0,1,0,60222.3,0.0165796,0.0162365,-0.78699,31,0.00239313,10,-1.2778e-05,-3.10403,0.973422,0.0606109,-1.86387,0.0162365,
2,0,0,1,0,60223,0.00908846,0.00872737,-0.770048,31,0.00180005,10,-6.72049e-06,-3.11348,1.68006,0.0351177,-1.05711,0.00872737,
2,0,0,1,0,60223.8,0.00159728,0.00123195,-0.77493,31,0.00121331,10,-9.54679e-07,-3.11074, , , ,0.00123195,
2,0,0,1,0,60223.9,0.000199195,-0.00022607,-0.76727,31,0.00110346,10,1.73456e-07,-3.11505, , , ,-0.00022607,