File: Figure_codes/Fig_3-5/rawdata_trumpetplot_data/after 10th/20221101_1-115_003_TrumpetPlot_ParaChange_from10_every3_04_CV_C01_26.csv
mode,ox/red,error,control changes,counter inc.,time/s,control/V,Ewe/V,<I>/mA,cycle number,(Q-Qo)/C,I Range,P/W,log(|I|),Tafel slope mV/dec,alpha_eff,dI/d(E-IR),E-IR/V,
2,0,0,1,0,52283.4,2.44065e-05,-0.000382585,-0.401509,27,0.0000000E+000,10,1.53612e-07,-3.3963, , , ,-0.000382585,
2,1,0,1,0,52284.1,0.00729063,0.00692998,0.343844,27,0.000165888,10,2.38283e-06,-3.46364,0.0549701,1.07331,14.206,0.00692998,
2,1,0,1,0,52284.9,0.0147814,0.0144601,0.416861,27,0.000464551,10,6.02785e-06,-3.38001,0.114496,0.5153,8.38337,0.0144601,
2,1,0,1,0,52285.6,0.0222725,0.021975,0.469881,27,0.000808289,10,1.03256e-05,-3.32801,0.154748,0.381264,6.97306,0.021975,
2,1,0,1,0,52286.4,0.0297635,0.0294519,0.520413,27,0.00119001,10,1.53271e-05,-3.28365,0.186837,0.315783,6.40863,0.0294519,
2,1,0,1,0,52287.1,0.0372544,0.0368918,0.568198,27,0.00160898,10,2.09618e-05,-3.2455,0.214626,0.274897,6.11201,0.0368918,
2,1,0,1,0,52287.9,0.0447458,0.0444199,0.618623,27,0.0020649,10,2.74792e-05,-3.20857,0.228124,0.258632,6.2444,0.0444199,
2,1,0,1,0,52288.6,0.0522363,0.0519273,0.663859,27,0.00255671,10,3.44724e-05,-3.17792,0.235508,0.250522,6.48939,0.0519273,
2,1,0,1,0,52289.4,0.0597282,0.0594147,0.705992,27,0.00308111,10,4.19463e-05,-3.1512,0.305248,0.193285,5.32193,0.0594147,
2,1,0,1,0,52290.1,0.0672182,0.0668875,0.742744,27,0.00363432,10,4.96803e-05,-3.12916,0.386878,0.152503,4.40733,0.0668875,
2,1,0,1,0,52290.9,0.0747092,0.0744153,0.774,27,0.00421286,10,5.75974e-05,-3.11126,0.467146,0.126299,3.8062,0.0744153,
2,1,0,1,0,52291.6,0.0822001,0.081888,0.79734,27,0.0048128,10,6.52926e-05,-3.09836,0.602817,0.0978738,3.05654,0.081888,
2,1,0,1,0,52292.4,0.0896911,0.089331,0.832292,27,0.00543314,10,7.43495e-05,-3.07972,0.337854,0.174632,5.67059,0.089331,
2,1,0,1,0,52293.1,0.097182,0.0968556,0.884191,27,0.00608527,10,8.56389e-05,-3.05345,0.218774,0.269684,9.30186,0.0968556,
2,1,0,1,0,52293.9,0.104673,0.10433,0.961183,27,0.00678567,10,0.000100281,-3.01719,0.204276,0.288825,10.8101,0.10433,
2,1,0,1,0,52294.6,0.112164,0.111836,1.03624,27,0.00754515,10,0.000115889,-2.98454,0.268954,0.219368,8.86168,0.111836,
2,1,0,1,0,52295.4,0.119655,0.119293,1.08966,27,0.00835368,10,0.000129988,-2.96271,0.526195,0.112126,4.76246,0.119293,
2,1,0,1,0,52296.1,0.127146,0.126792,1.11497,27,0.00919238,10,0.00014137,-2.95274,1.0118,0.0583117,2.54436,0.126792,
2,1,0,1,0,52296.9,0.134637,0.134293,1.12043,27,0.0100452,10,0.000150467,-2.95061,-0.586179,-0.100652,-4.39537,0.134293,
2,1,0,1,0,52297.6,0.142127,0.141805,1.03359,27,0.0108715,10,0.000146569,-2.98565,-0.128083,-0.460639,-18.5025,0.141805,
2,1,0,1,0,52298.4,0.149619,0.14929,0.846459,27,0.0115902,10,0.000126367,-3.07239,-0.0749712,-0.786969,-25.9994,0.14929,
2,1,0,1,0,52299.1,0.157109,0.156779,0.687339,27,0.0121694,10,0.000107761,-3.16283,-0.099802,-0.591171,-15.9027,0.156779,
2,1,0,1,0,52299.9,0.164601,0.16427,0.608244,27,0.0126608,10,9.99162e-05,-3.21592,-0.204599,-0.288369,-6.83695,0.16427,
2,1,0,1,0,52300.6,0.172091,0.171747,0.568266,27,0.0131102,10,9.75977e-05,-3.24545,-0.357525,-0.165023,-3.67246,0.1717466,
2,1,0,1,0,52301.4,0.179582,0.179234,0.548714,27,0.0135385,10,9.83483e-05,-3.26065,-0.795503,-0.0741669,-1.59077,0.179234,
2,1,0,1,0,52302.1,0.187074,0.186744,0.539004,27,0.0139553,10,0.000100656,-3.26841,-1.49906,-0.0393579,-0.825487,0.186744,
2,1,0,1,0,52302.9,0.194564,0.194241,0.530239,27,0.0143649,10,0.000102994,-3.27553,-3.35103,-0.0176065,-0.364171,0.194241,
2,1,0,1,0,52303.6,0.202056,0.20173,0.5245,27,0.0147692,10,0.000105807,-3.28025,-1.20179,-0.0490935,-1.00189,0.20173,
2,1,0,1,0,52304.4,0.209546,0.209228,0.517925,27,0.0151697,10,0.000108364,-3.28573,-0.78396,-0.075259,-1.52451,0.209228,
2,1,0,1,0,52305.1,0.217038,0.216684,0.513199,27,0.0155664,10,0.000111202,-3.28971,-2.24257,-0.0263091,-0.528855,0.216684,
2,1,0,1,0,52305.9,0.224528,0.224183,0.5114,27,0.0159605,10,0.000114647,-3.29124,-3.82362,-0.0154304,-0.307385,0.224183,
2,1,0,1,0,52306.6,0.232019,0.2317,0.507217,27,0.0163521,10,0.000117522,-3.29481,-4.08089,-0.0144576,-0.286246,0.2317,
2,1,0,1,0,52307.4,0.23951,0.239157,0.503806,27,0.0167416,10,0.000120489,-3.29774,-3.32719,-0.0177327,-0.349455,0.239157,
2,1,0,1,0,52308.1,0.247001,0.246696,0.502896,27,0.0171286,10,0.000124063,-3.29852,-1.69625,-0.0347827,-0.680758,0.246696,
2,1,0,1,0,52308.9,0.254492,0.254178,0.49948,27,0.0175135,10,0.000126957,-3.30148,-2.3143,-0.0254936,-0.497404,0.254178,
2,1,0,1,0,52309.6,0.261983,0.261657,0.49574,27,0.0178956,10,0.000129714,-3.30475,-2.39776,-0.0246063,-0.476094,0.261657,
2,1,0,1,0,52310.4,0.269474,0.269147,0.492139,27,0.0182754,10,0.000132458,-3.30791,3.80592,0.0155022,0.297207,0.269147,
2,1,0,1,0,52311.1,0.276965,0.276619,0.487961,27,0.0186525,10,0.000134979,-3.31162,-18.1394,-0.00325258,-0.0620026,0.2766189,
2,1,0,1,0,52311.8,0.284456,0.284137,0.484383,27,0.0190267,10,0.000137631,-3.31481,-1.50309,-0.0392525,-0.742353,0.284137,
2,1,0,1,0,52312.6,0.291947,0.29161,0.480747,27,0.0193977,10,0.00014019,-3.31808,-1.23089,-0.0479326,-0.89941,0.29161,
2,1,0,1,0,52313.3,0.299437,0.299129,0.475684,27,0.0197658,10,0.000142291,-3.32268,-0.00306978,-19.2196,-196.61,0.2991285,
2,0,0,1,0,52314,0.293745,0.293417,-0.0696713,27,0.0197949,10,-2.04427e-05,-4.15695,-0.0129605,-4.5523,11.1552,0.2934168,
2,0,0,1,0,52314.8,0.286253,0.285969,-0.124187,27,0.0197099,10,-3.55136e-05,-3.90592,-0.0491638,-1.20007,5.85948,0.2859689,
2,0,0,1,0,52315.5,0.278763,0.278435,-0.161481,27,0.0195915,10,-4.4962e-05,-3.79188,-0.0881844,-0.669053,4.22692,0.278435,
2,0,0,1,0,52316.3,0.271272,0.270903,-0.191592,27,0.0194493,10,-5.1903e-05,-3.71762,-0.11863,-0.497346,3.68419,0.270903,
2,0,0,1,0,52317,0.263781,0.263466,-0.21345,27,0.0192874,10,-5.62367e-05,-3.6707,-0.146197,-0.403565,3.37429,0.263466,
2,0,0,1,0,52317.8,0.25629,0.255919,-0.236279,27,0.0191084,10,-6.04683e-05,-3.62657,-0.23016,-0.256344,2.34881,0.255919,
2,0,0,1,0,52318.5,0.248799,0.248471,-0.254721,27,0.018915,10,-6.3291e-05,-3.59393,-0.247124,-0.238747,2.37052,0.248471,
2,0,0,1,0,52319.3,0.241308,0.241008,-0.268788,27,0.0187086,10,-6.478e-05,-3.57059,-0.321187,-0.183694,1.94455,0.241008,
2,0,0,1,0,52320,0.233817,0.233381,-0.285987,27,0.0184901,10,-6.67439e-05,-3.54365,-0.340529,-0.17326,1.93618,0.233381,
2,0,0,1,0,52320.8,0.226326,0.226015,-0.299935,27,0.0182601,10,-6.779e-05,-3.52297,-0.421173,-0.140085,1.64016,0.226015,
2,0,0,1,0,52321.5,0.218835,0.21845,-0.314323,27,0.0180191,10,-6.86639e-05,-3.50262,-0.463728,-0.12723,1.56432,0.21845,
2,0,0,1,0,52322.3,0.211344,0.211014,-0.329464,27,0.017767,10,-6.95214e-05,-3.48219,-0.46275,-0.127499,1.6378,0.211014,
2,0,0,1,0,52323,0.203854,0.203517,-0.343833,27,0.0175035,10,-6.99761e-05,-3.46365,-0.369638,-0.159616,2.14845,0.203517,
2,0,0,1,0,52323.8,0.196362,0.196053,-0.360909,27,0.017229,10,-7.07575e-05,-3.4426,-0.320565,-0.18405,2.5892,0.196053,
2,0,0,1,0,52324.5,0.188872,0.188513,-0.376271,27,0.0169425,10,-7.09322e-05,-3.4245,-0.264144,-0.223363,3.27553,0.188513,
2,0,0,1,0,52325.3,0.18138,0.181061,-0.39441,27,0.0166432,10,-7.14124e-05,-3.40405,-0.330018,-0.178778,2.75845,0.181061,
2,0,0,1,0,52326,0.17389,0.173528,-0.417224,27,0.0163295,10,-7.23999e-05,-3.37963,-0.315821,-0.186814,3.03016,0.1735276,
2,0,0,1,0,52326.8,0.166398,0.166046,-0.442015,27,0.015998,10,-7.33949e-05,-3.35456,-0.330438,-0.178551,3.08846,0.166046,
2,0,0,1,0,52327.5,0.158907,0.158521,-0.477078,27,0.0156433,10,-7.56272e-05,-3.32141,-0.185769,-0.317599,5.93463,0.158521,
2,0,0,1,0,52328.3,0.151417,0.15108,-0.533883,27,0.0152551,10,-8.06588e-05,-3.27255,-0.131985,-0.447022,9.32607,0.15108,
2,0,0,1,0,52329,0.143925,0.143595,-0.627814,27,0.0148125,10,-9.01512e-05,-3.20217,-0.0877135,-0.672644,16.4751,0.143595,
2,0,0,1,0,52329.8,0.136435,0.136108,-0.768897,27,0.0142815,10,-0.000104653,-3.11413,-0.085034,-0.69384,20.7866,0.136108,
2,0,0,1,0,52330.5,0.128943,0.128601,-0.927983,27,0.0136343,10,-0.00011934,-3.03246,-0.105568,-0.558879,20.2005,0.128601,
2,0,0,1,0,52331.3,0.121453,0.121127,-1.05806,27,0.0128758,10,-0.00012816,-2.97549,-0.178638,-0.330276,13.6027,0.121127,
2,0,0,1,0,52332,0.113962,0.11364,-1.12312,27,0.0120415,10,-0.000127631,-2.94957,-0.58716,-0.100484,4.41373,0.11364,
2,0,0,1,0,52332.8,0.106471,0.106159,-1.13061,27,0.0111813,10,-0.000120023,-2.94669,1.8199,0.0324193,-1.43423,0.106159,
2,0,0,1,0,52333.5,0.0989798,0.0986456,-1.11117,27,0.0103294,10,-0.000109612,-2.95422,0.980583,0.0601683,-2.6035,0.0986456,
2,0,0,1,0,52334.3,0.0914889,0.0911517,-1.08552,27,0.00949652,10,-9.89468e-05,-2.96436,0.728408,0.0809985,-3.42108,0.0911517,
2,0,0,1,0,52335,0.083998,0.0836493,-1.05722,27,0.0086838,10,-8.84357e-05,-2.97583,0.480455,0.1228,-5.0589,0.0836493,
2,0,0,1,0,52335.8,0.076507,0.0761173,-1.02804,27,0.00789211,10,-7.8252e-05,-2.98799,0.547277,0.107807,-4.32808,0.0761173,
2,0,0,1,0,52336.5,0.069016,0.0687146,-0.995604,27,0.0071227,10,-6.84125e-05,-3.00191,0.521495,0.113136,-4.41313,0.0687146,
2,0,0,1,0,52337.3,0.0615251,0.0611761,-0.968125,27,0.00637499,10,-5.92262e-05,-3.01407,0.559917,0.105373,-3.98653,0.0611761,
2,0,0,1,0,52338,0.0540342,0.0536822,-0.937955,27,0.00564989,10,-5.03515e-05,-3.02782,0.546658,0.107928,-3.95115,0.0536822,
2,0,0,1,0,52338.8,0.0465441,0.0462422,-0.907077,27,0.00494785,10,-4.19453e-05,-3.04236,0.532051,0.110892,-3.92768,0.0462422,
2,0,0,1,0,52339.5,0.0390523,0.038686,-0.875067,27,0.00427027,10,-3.38528e-05,-3.05796,0.406823,0.145026,-4.9388,0.038686,
2,0,0,1,0,52340.3,0.0315618,0.0311999,-0.842598,27,0.00361744,10,-2.6289e-05,-3.07438,0.473622,0.124572,-4.08677,0.0311999,
2,0,0,1,0,52341,0.0240704,0.0237427,-0.807027,27,0.0029886,10,-1.9161e-05,-3.09311,0.512226,0.115184,-3.64223,0.0237427,
2,0,0,1,0,52341.7,0.0165796,0.016252,-0.787309,27,0.00238024,10,-1.27953e-05,-3.10385,0.729688,0.0808564,-2.48614,0.016252,
2,0,0,1,0,52342.5,0.00908846,0.00873691,-0.772478,27,0.00178579,10,-6.74907e-06,-3.11211,1.58428,0.0372408,-1.12352,0.00873691,
2,0,0,1,0,52343.2,0.00159728,0.00124802,-0.778425,27,0.00119692,10,-9.71488e-07,-3.10878, , , ,0.00124802,
2,0,0,1,0,52343.4,0.000199195,-0.000218435,-0.772035,27,0.00108648,10,1.68639e-07,-3.11236, , , ,-0.000218435,