File: Figure_codes/Fig_3-5/rawdata_trumpetplot_data/after 10th/20221101_1-115_003_TrumpetPlot_ParaChange_from10_every3_07_CV_C01_28.csv
mode,ox/red,error,control changes,counter inc.,time/s,control/V,Ewe/V,<I>/mA,cycle number,(Q-Qo)/C,I Range,P/W,log(|I|),Tafel slope mV/dec,alpha_eff,dI/d(E-IR),E-IR/V,
2,0,0,0,0,56328.7,2.44065e-05,-0.000401673,-2.69695,29,0.0000000E+000,10,1.08329e-06,-2.56913, , , ,-0.000401673,
2,1,0,1,0,56328.8,0.007288,0.00687587,0.723372,29,-5.54331e-05,10,4.97381e-06,-3.14064,0.00646714,9.12305,203.337,0.00687587,
2,1,0,1,0,56328.9,0.0147816,0.0144212,1.67177,29,0.000104995,10,2.41089e-05,-2.77682,0.0466746,1.26407,81.2535,0.0144212,
2,1,0,1,0,56329,0.0222712,0.0218951,2.12306,29,0.000345672,10,4.64848e-05,-2.67304,0.0988402,0.596923,49.1745,0.02189515,
2,1,0,1,0,56329.2,0.0297648,0.0293833,2.42452,29,0.000632035,10,7.12404e-05,-2.61537,0.150306,0.392534,37.1132,0.0293833,
2,1,0,1,0,56329.3,0.0372518,0.0369299,2.68309,29,0.000952873,10,9.9086e-05,-2.57137,0.19591,0.301159,31.5477,0.0369299,
2,1,0,1,0,56329.4,0.0447467,0.0443756,2.92889,29,0.00130519,10,0.000129971,-2.5333,0.227578,0.259252,29.5753,0.0443756,
2,1,0,1,0,56329.5,0.052235,0.0519125,3.15782,29,0.00168643,10,0.00016393,-2.50061,0.225078,0.262132,32.242,0.0519125,
2,1,0,1,0,56329.7,0.0597299,0.0593537,3.37176,29,0.00209609,10,0.000200127,-2.47214,0.271402,0.21739,28.605,0.0593537,
2,1,0,1,0,56329.8,0.0672156,0.0668693,3.57645,29,0.00253153,10,0.000239155,-2.44655,0.33973,0.173667,24.2189,0.0668693,
2,1,0,1,0,56329.9,0.0747105,0.0743497,3.75942,29,0.00299136,10,0.000279511,-2.42488,0.412877,0.1429,20.9256,0.0743497,
2,1,0,1,0,56330,0.0821988,0.0818592,3.90911,29,0.00347188,10,0.000319997,-2.40792,0.458134,0.128783,19.6426,0.0818592,
2,1,0,1,0,56330.2,0.0896937,0.0892879,4.04683,29,0.0039709,10,0.000361333,-2.39289,0.468166,0.126024,19.9243,0.0892879,
2,1,0,1,0,56330.3,0.0971794,0.0968392,4.21086,29,0.00448803,10,0.000407777,-2.37563,0.373584,0.15793,25.9897,0.0968392,
2,1,0,1,0,56330.4,0.104674,0.10438,4.46296,29,0.00503043,10,0.000465842,-2.35038,0.269492,0.218931,38.0934,0.1043797,
2,1,0,1,0,56330.5,0.112163,0.11179,4.78337,29,0.00560785,10,0.000534732,-2.32027,0.230623,0.255829,47.6945,0.11179,
2,1,0,1,0,56330.7,0.119658,0.119277,5.11599,29,0.00622834,10,0.00061022,-2.29107,0.288439,0.20455,40.8551,0.119277,
2,1,0,1,0,56330.8,0.127143,0.126772,5.37006,29,0.00688618,10,0.000680773,-2.27002,0.484411,0.121798,25.5566,0.126772,
2,1,0,1,0,56330.9,0.134638,0.134277,5.54175,29,0.00757075,10,0.000744132,-2.25635,0.900085,0.0655494,14.1666,0.1342774,
2,1,0,1,0,56331,0.142126,0.141763,5.60793,29,0.00826938,10,0.000795,-2.2512,48.5509,0.00121522,0.265171,0.141763,
2,1,0,1,0,56331.2,0.149621,0.149227,5.4193,29,0.00896324,10,0.000808706,-2.26606,-0.255191,-0.231199,-48.7366,0.149227,
2,1,0,1,0,56331.3,0.157107,0.156758,4.84022,29,0.00960865,10,0.000758742,-2.31514,-0.111814,-0.52766,-99.4968,0.156758,
2,1,0,1,0,56331.4,0.164602,0.164199,4.10329,29,0.0101684,10,0.000673758,-2.38687,-0.101915,-0.578913,-92.7263,0.164199,
2,1,0,1,0,56331.5,0.17209,0.17177,3.51744,29,0.0106433,10,0.00060419,-2.45377,-0.130367,-0.452567,-62.2224,0.17177,
2,1,0,1,0,56331.7,0.179585,0.179222,3.1288,29,0.0110586,10,0.000560749,-2.50462,-0.179634,-0.328446,-40.2208,0.179222,
2,1,0,1,0,56331.8,0.187072,0.186713,2.8828,29,0.0114345,10,0.000538256,-2.54018,-0.236909,-0.249041,-28.0533,0.186713,
2,1,0,1,0,56331.9,0.194566,0.194198,2.72517,29,0.0117858,10,0.000529223,-2.56461,-0.364199,-0.162,-17.2315,0.194198,
2,1,0,1,0,56332,0.202055,0.201732,2.62022,29,0.0121202,10,0.000528582,-2.58166,-0.478298,-0.123354,-12.5718,0.201732,
2,1,0,1,0,56332.2,0.209549,0.209168,2.54307,29,0.0124438,10,0.00053193,-2.59464,-0.593664,-0.0993829,-9.86218,0.209168,
2,1,0,1,0,56332.3,0.217036,0.21668,2.48243,29,0.0127593,10,0.000537893,-2.60512,-0.879907,-0.0670525,-6.52075,0.2166799,
2,1,0,1,0,56332.4,0.224529,0.224171,2.44579,29,0.0130691,10,0.000548274,-2.61158,-0.818777,-0.0720587,-6.87828,0.224171,
2,1,0,1,0,56332.5,0.232019,0.231645,2.41502,29,0.0133741,10,0.000559426,-2.61708,-2.33316,-0.0252876,-2.38138,0.231645,
2,1,0,1,0,56332.7,0.239513,0.239198,2.38508,29,0.0136757,10,0.000570506,-2.6225,-3.75058,-0.0157309,-1.4662,0.2391984,
2,1,0,1,0,56332.8,0.247001,0.246638,2.36628,29,0.0139741,10,0.000583616,-2.62593,-1.42924,-0.0412807,-3.81224,0.246638,
2,1,0,1,0,56332.9,0.254493,0.254153,2.34752,29,0.0142702,10,0.000596629,-2.62939,-1.04114,-0.0566686,-5.1885,0.254153,
2,1,0,1,0,56333,0.261983,0.261607,2.32818,29,0.0145636,10,0.000609067,-2.63298,-2.51157,-0.0234913,-2.13374,0.261607,
2,1,0,1,0,56333.2,0.269477,0.269138,2.30896,29,0.0148549,10,0.00062143,-2.63658,-23.0058,-0.00256457,-0.231338,0.269138,
2,1,0,1,0,56333.3,0.276965,0.276614,2.29215,29,0.015144,10,0.00063404,-2.63976,-1.40551,-0.0419776,-3.75883,0.276614,
2,1,0,1,0,56333.4,0.284457,0.284113,2.27819,29,0.015431,10,0.000647262,-2.64241,-1.68909,-0.0349301,-3.09966,0.284113,
2,1,0,1,0,56333.5,0.291947,0.291593,2.25996,29,0.0157156,10,0.00065899,-2.6459,-1.9343,-0.030502,-2.68369,0.291593,
2,1,0,1,0,56333.7,0.29944,0.299107,2.23623,29,0.0159981,10,0.000668872,-2.65048,-0.0097235,-6.06777,-432.723,0.299107,
2,0,0,1,0,56333.8,0.293742,0.293406,-0.20595,29,0.0160761,10,-6.0427e-05,-3.68624,-0.00719527,-8.19983,132.905,0.293406,
2,0,0,1,0,56333.9,0.286254,0.285888,-0.748904,29,0.016008,10,-0.000214102,-3.12557,-0.0400057,-1.47479,42.512,0.285888,
2,0,0,1,0,56334,0.278761,0.27838,-0.985073,29,0.0158963,10,-0.000274224,-3.00653,-0.0949055,-0.621671,23.7595,0.27838,
2,0,0,1,0,56334.1,0.271272,0.270884,-1.13655,29,0.0157617,10,-0.000307873,-2.94441,-0.129393,-0.455975,20.1336,0.270884,
2,0,0,1,0,56334.3,0.263778,0.263448,-1.24682,29,0.0156105,10,-0.000328473,-2.90419,-0.214221,-0.275417,13.4179,0.263448,
2,0,0,1,0,56334.4,0.25629,0.255977,-1.34124,29,0.0154467,10,-0.000343327,-2.87249,-0.291618,-0.20232,10.6176,0.255977,
2,0,0,1,0,56334.5,0.248797,0.248397,-1.42583,29,0.0152718,10,-0.000354171,-2.84593,-0.352872,-0.167199,9.26376,0.2483974,
2,0,0,1,0,56334.6,0.241308,0.240945,-1.49831,29,0.0150874,10,-0.000361011,-2.8244,-0.328186,-0.179776,10.5129,0.240945,
2,0,0,1,0,56334.8,0.233814,0.233433,-1.56085,29,0.0148943,10,-0.000364354,-2.80664,-0.456317,-0.129296,7.89525,0.233433,
2,0,0,1,0,56334.9,0.226326,0.225983,-1.62301,29,0.0146932,10,-0.000366773,-2.78968,-0.59959,-0.0984006,6.24873,0.2259827,
2,0,0,1,0,56335,0.218834,0.218504,-1.69224,29,0.0144844,10,-0.000369762,-2.77154,-0.494689,-0.119267,7.85554,0.218504,
2,0,0,1,0,56335.1,0.211344,0.210983,-1.74812,29,0.014268,10,-0.000368824,-2.75743,-0.480135,-0.122882,8.37448,0.210983,
2,0,0,1,0,56335.3,0.203856,0.203487,-1.80574,29,0.0140442,10,-0.000367445,-2.74334,-0.564268,-0.10456,7.38282,0.203487,
2,0,0,1,0,56335.4,0.196362,0.196,-1.86534,29,0.0138129,10,-0.000365607,-2.72924,-0.77349,-0.0762776,5.56193,0.196,
2,0,0,1,0,56335.5,0.18887,0.188484,-1.92991,29,0.0135738,10,-0.000363756,-2.71446,-0.541349,-0.108987,8.2043,0.188484,
2,0,0,1,0,56335.6,0.18138,0.180989,-2.00452,29,0.0133266,10,-0.000362796,-2.69799,-0.444894,-0.132616,10.3484,0.180989,
2,0,0,1,0,56335.8,0.173892,0.173512,-2.08079,29,0.0130699,10,-0.000361042,-2.68177,-0.365684,-0.161341,13.1268,0.173512,
2,0,0,1,0,56335.9,0.166398,0.166023,-2.18006,29,0.0128019,10,-0.000361941,-2.66153,-0.375801,-0.156998,13.3652,0.1660234,
2,0,0,1,0,56336,0.158905,0.158528,-2.30956,29,0.0125198,10,-0.00036613,-2.63647,-0.313866,-0.187978,16.9429,0.158528,
2,0,0,1,0,56336.1,0.151417,0.151003,-2.49814,29,0.0122188,10,-0.000377227,-2.60238,-0.181988,-0.324196,31.5992,0.151003,
2,0,0,1,0,56336.3,0.143927,0.143559,-2.78353,29,0.0118885,10,-0.000399602,-2.5554,-0.121724,-0.484705,52.8482,0.143559,
2,0,0,1,0,56336.4,0.136435,0.136019,-3.24654,29,0.0115111,10,-0.000441591,-2.48858,-0.102545,-0.575356,73.1741,0.136019,
2,0,0,1,0,56336.5,0.128941,0.128534,-3.86119,29,0.0110658,10,-0.000496296,-2.41328,-0.106674,-0.553086,83.1834,0.128534,
2,0,0,1,0,56336.6,0.121453,0.121093,-4.47195,29,0.0105434,10,-0.000541523,-2.3495,-0.133647,-0.44146,76.8794,0.121093,
2,0,0,1,0,56336.8,0.113963,0.113578,-4.98973,29,0.00994955,10,-0.000566722,-2.30192,-0.185245,-0.318496,62.0152,0.113578,
2,0,0,1,0,56336.9,0.106471,0.10606,-5.37784,29,0.00929794,10,-0.000570373,-2.26939,-0.300838,-0.196119,41.1825,0.10606,
2,0,0,1,0,56337,0.0989825,0.0985952,-5.59056,29,0.00860891,10,-0.000551203,-2.25254,-1.05244,-0.0560604,12.2159,0.0985952,
2,0,0,1,0,56337.1,0.0914889,0.0911537,-5.60292,29,0.00790636,10,-0.000510727,-2.25159,1.4707,0.0401171,-8.75201,0.0911537,
2,0,0,1,0,56337.3,0.0839993,0.0836148,-5.4787,29,0.00721245,10,-0.0004581,-2.26132,0.667962,0.0883284,-18.8671,0.0836148,
2,0,0,1,0,56337.4,0.076507,0.0761061,-5.33277,29,0.00653554,10,-0.000405856,-2.27305,0.652728,0.0903899,-18.8275,0.0761061,
2,0,0,1,0,56337.5,0.0690187,0.0686723,-5.22094,29,0.00587506,10,-0.000358534,-2.28225,0.75158,0.0785013,-16.0052,0.0686723,
2,0,0,1,0,56337.6,0.0615251,0.0612019,-5.12876,29,0.00522673,10,-0.000313889,-2.28999,0.866713,0.0680733,-13.6234,0.0612019,
2,0,0,1,0,56337.8,0.0540355,0.0536866,-5.02361,29,0.00459134,10,-0.000269701,-2.29898,0.987041,0.0597746,-11.7161,0.0536866,
2,0,0,1,0,56337.9,0.0465432,0.0462088,-4.90036,29,0.00396923,10,-0.00022644,-2.30977,0.719893,0.0819566,-15.6872,0.0462088,
2,0,0,1,0,56338,0.0390549,0.0386681,-4.7793,29,0.00336324,10,-0.000184806,-2.32064,0.513922,0.114803,-21.3743,0.0386681,
2,0,0,1,0,56338.1,0.0315613,0.0311664,-4.624,29,0.00277429,10,-0.000144114,-2.33498,0.467415,0.126226,-22.7635,0.0311664,
2,0,0,1,0,56338.3,0.0240717,0.023695,-4.45118,29,0.00220604,10,-0.000105471,-2.35153,0.457222,0.12904,-22.4268,0.023695,
2,0,0,1,0,56338.4,0.0165781,0.0162126,-4.28601,29,0.0016583,10,-6.94872e-05,-2.36795,0.48827,0.120835,-20.2504,0.0162126,
2,0,0,1,0,56338.5,0.00909108,0.00870599,-4.15015,29,0.00112977,10,-3.61311e-05,-2.38194,0.549352,0.107399,-17.4044,0.00870599,
2,0,0,1,0,56338.6,0.00159616,0.00116142,-4.07227,29,0.000615812,10,-4.72963e-06,-2.39016, , , ,0.00116142,
2,0,0,1,0,56338.7,0.000199195,-0.000227978,-4.04807,29,0.00052086,10,9.22872e-07,-2.39275, , , ,-0.000227978,