File: Figure_codes/Fig_3-5/rawdata_trumpetplot_data/after 10th/20221101_1-115_003_TrumpetPlot_ParaChange_from10_every3_10_CV_C01_26.csv
mode,ox/red,error,control changes,counter inc.,time/s,control/V,Ewe/V,<I>/mA,cycle number,(Q-Qo)/C,I Range,P/W,log(|I|),Tafel slope mV/dec,alpha_eff,dI/d(E-IR),E-IR/V,
2,1,0,0,0,52413.9,-2.44065e-05,-0.000287149,5.1167,27,0.0000000E+000,10,-1.46926e-06,-2.29101, , , ,-0.0002871489,
2,1,0,1,0,52414,0.00977853,0.00942916,7.37613,27,0.000315907,10,6.95508e-05,-2.13217,0.120098,0.491267,140.909,0.00942916,
2,1,0,1,0,52414,0.0197755,0.0194543,8.44604,27,0.000713758,10,0.000164312,-2.07335,0.231319,0.255059,84.0371,0.0194543,
2,1,0,1,0,52414.1,0.0297726,0.0293997,9.16672,27,0.00115519,10,0.000269499,-2.03779,0.34203,0.1725,61.6737,0.0293997,
2,1,0,1,0,52414.1,0.0397514,0.0394105,9.75573,27,0.0016276,10,0.000384478,-2.01074,0.369112,0.159843,60.8691,0.0394105,
2,1,0,1,0,52414.2,0.0497394,0.0494093,10.3353,27,0.00212876,10,0.000510658,-1.98568,0.411535,0.143366,57.7569,0.0494093,
2,1,0,1,0,52414.2,0.0597364,0.0594162,10.9122,27,0.00265969,10,0.000648362,-1.96209,0.398004,0.14824,63.1224,0.0594162,
2,1,0,1,0,52414.3,0.0697152,0.0693458,11.5296,27,0.00321961,10,0.00079953,-1.93819,0.436664,0.135115,60.7895,0.0693458,
2,1,0,1,0,52414.3,0.0796941,0.079333,12.1306,27,0.00381018,10,0.000962357,-1.91612,0.468079,0.126047,59.7055,0.079333,
2,1,0,1,0,52414.4,0.0896911,0.0892749,12.7375,27,0.00443233,10,0.00113714,-1.89492,0.490305,0.120333,59.8211,0.0892749,
2,1,0,1,0,52414.4,0.099679,0.0993264,13.3035,27,0.00508212,10,0.00132138,-1.87604,0.555515,0.106208,55.1192,0.0993264,
2,1,0,1,0,52414.5,0.109658,0.109285,13.8946,27,0.0057602,10,0.00151847,-1.85716,0.498075,0.118456,64.2306,0.109285,
2,1,0,1,0,52414.5,0.119655,0.119307,14.6346,27,0.00647265,10,0.00174601,-1.83462,0.408274,0.144511,82.5922,0.119307,
2,1,0,1,0,52414.6,0.129652,0.129344,15.5313,27,0.00722652,10,0.00200887,-1.80879,0.384881,0.153294,92.8488,0.129344,
2,1,0,1,0,52414.6,0.139631,0.139306,16.3923,27,0.00802367,10,0.00228355,-1.78536,0.466674,0.126427,80.9339,0.139306,
2,1,0,1,0,52414.7,0.149619,0.149265,17.1133,27,0.00886066,10,0.00255442,-1.76667,0.656937,0.0898108,59.9006,0.149265,
2,1,0,1,0,52414.7,0.159616,0.15928,17.4531,27,0.00972696,10,0.00277994,-1.75813,13.0886,0.00450773,3.06947,0.15928,
2,1,0,1,0,52414.8,0.169595,0.169239,17.07,27,0.010592,10,0.00288892,-1.76777,-0.438849,-0.134443,-89.3611,0.169239,
2,1,0,1,0,52414.8,0.179573,0.179231,15.6939,27,0.0114128,10,0.00281283,-1.80427,-0.203726,-0.289604,-177.399,0.179231,
2,1,0,1,0,52414.9,0.18957,0.189211,13.8284,27,0.0121514,10,0.00261649,-1.85923,-0.171763,-0.343496,-185.269,0.189211,
2,1,0,1,0,52414.9,0.199558,0.199245,12.1092,27,0.0127967,10,0.00241269,-1.91688,-0.187872,-0.314043,-148.517,0.199245,
2,1,0,1,0,52415,0.209537,0.209233,10.8257,27,0.013367,10,0.00226509,-1.96554,-0.220548,-0.267516,-113.026,0.209233,
2,1,0,1,0,52415,0.219534,0.219207,9.88381,27,0.0138832,10,0.0021666,-2.00508,-0.295811,-0.199452,-77.0411,0.2192066,
2,1,0,1,0,52415.1,0.229531,0.229205,9.21957,27,0.0143602,10,0.00211317,-2.03529,-0.361046,-0.163414,-58.7958,0.229205,
2,1,0,1,0,52415.1,0.23951,0.239198,8.73246,27,0.0148076,10,0.00208879,-2.05886,-0.494922,-0.119211,-40.6774,0.239198,
2,1,0,1,0,52415.2,0.249498,0.249166,8.37236,27,0.0152338,10,0.00208611,-2.07715,-0.590906,-0.0998467,-32.5948,0.249166,
2,1,0,1,0,52415.2,0.259495,0.259168,8.0774,27,0.0156447,10,0.0020934,-2.09273,-0.695562,-0.0848235,-26.7648,0.259168,
2,1,0,1,0,52415.3,0.269474,0.26914,7.85638,27,0.0160421,10,0.00211447,-2.10478,-0.89537,-0.0658946,-20.1872,0.26914,
2,1,0,1,0,52415.3,0.279453,0.27913,7.66054,27,0.0164291,10,0.00213829,-2.11574,-1.03828,-0.0568248,-17.0081,0.27913,
2,1,0,1,0,52415.4,0.28945,0.289135,7.50119,27,0.0168082,10,0.00216885,-2.12487,-1.28184,-0.0460277,-13.4608,0.289135,
2,1,0,1,0,52415.4,0.299438,0.299108,7.3572,27,0.0171787,10,0.0022006,-2.13329,-0.0733727,-0.804114,-223.494,0.299108,
2,1,0,1,0,52415.5,0.291747,0.291409,1.34691,27,0.0173501,10,0.000392502,-2.87066,0.00740991,7.96231,389.622,0.291409,
2,0,0,1,0,52415.5,0.28175,0.281419,-1.24937,27,0.0173433,10,-0.000351596,-2.90331,-0.0158928,-3.71238,171.611,0.281419,
2,0,0,1,0,52415.6,0.27178,0.271413,-2.51828,27,0.0172463,10,-0.000683494,-2.5989,-0.0598812,-0.985285,96.4766,0.271413,
2,0,0,1,0,52415.6,0.261783,0.261423,-3.30413,27,0.0170993,10,-0.000863773,-2.48094,-0.12216,-0.482975,61.9655,0.261423,
2,0,0,1,0,52415.7,0.251786,0.251488,-3.84209,27,0.01692,10,-0.000966239,-2.41543,-0.189846,-0.310778,46.5507,0.251488,
2,0,0,1,0,52415.7,0.241807,0.241528,-4.25831,27,0.0167175,10,-0.0010285,-2.37076,-0.248556,-0.237371,39.4385,0.241528,
2,0,0,1,0,52415.8,0.231824,0.231512,-4.6,27,0.0164962,10,-0.00106495,-2.33724,-0.324268,-0.181948,32.6682,0.231512,
2,0,0,1,0,52415.8,0.221822,0.221484,-4.89966,27,0.0162586,10,-0.0010852,-2.30983,-0.394437,-0.14958,28.5599,0.221484,
2,0,0,1,0,52415.9,0.211843,0.211517,-5.16329,27,0.0160074,10,-0.00109212,-2.28707,-0.465131,-0.126846,25.5957,0.211517,
2,0,0,1,0,52415.9,0.201865,0.2015,-5.42489,27,0.015743,10,-0.00109311,-2.26561,-0.529654,-0.111393,23.5748,0.2015,
2,0,0,1,0,52416,0.191868,0.191524,-5.67245,27,0.0154654,10,-0.00108641,-2.24623,-0.490273,-0.120341,26.6811,0.191524,
2,0,0,1,0,52416,0.18188,0.181581,-5.95085,27,0.0151756,10,-0.00108056,-2.22542,-0.446262,-0.132209,30.6438,0.181581,
2,0,0,1,0,52416.1,0.171901,0.171554,-6.24404,27,0.0148717,10,-0.00107119,-2.20453,-0.430278,-0.137121,33.394,0.171554,
2,0,0,1,0,52416.1,0.161904,0.161547,-6.60781,27,0.014551,10,-0.00106747,-2.17994,-0.362828,-0.162612,41.8981,0.161547,
2,0,0,1,0,52416.2,0.151907,0.151575,-7.10046,27,0.0142089,10,-0.00107625,-2.14871,-0.275331,-0.214287,59.4939,0.151575,
2,0,0,1,0,52416.2,0.141928,0.1416,-7.89867,27,0.0138362,10,-0.00111845,-2.10245,-0.176011,-0.335206,103.358,0.1416,
2,0,0,1,0,52416.3,0.13194,0.131624,-9.17498,27,0.0134124,10,-0.00120764,-2.0374,-0.135895,-0.434159,155.553,0.131624,
2,0,0,1,0,52416.3,0.121943,0.121684,-10.8826,27,0.012912,10,-0.00132424,-1.96327,-0.143906,-0.409989,173.953,0.121684,
2,0,0,1,0,52416.4,0.111964,0.111647,-12.6167,27,0.0123252,10,-0.00140862,-1.89906,-0.171073,-0.344883,169.708,0.111647,
2,0,0,1,0,52416.4,0.101985,0.10168,-14.1494,27,0.011656,10,-0.00143871,-1.84926,-0.240877,-0.244938,135.114,0.10168,
2,0,0,1,0,52416.5,0.0919883,0.0917241,-15.3037,27,0.0109178,10,-0.00140372,-1.8152,-0.357628,-0.164976,98.4918,0.0917241,
2,0,0,1,0,52416.5,0.0820004,0.0817207,-16.0024,27,0.0101343,10,-0.00130773,-1.79582,-0.889713,-0.0663135,41.3806,0.08172071,
2,0,0,1,0,52416.5,0.0720215,0.0717094,-16.1751,27,0.00932963,10,-0.00115991,-1.79115,8.54481,0.00690477,-4.35791,0.07170935,
2,0,0,1,0,52416.6,0.0620245,0.0616772,-16.0266,27,0.00852388,10,-0.000988477,-1.79516,1.55416,0.0379627,-23.7393,0.0616772,
2,0,0,1,0,52416.6,0.0520275,0.051685,-15.7915,27,0.00772847,10,-0.000816184,-1.80158,1.37254,0.0429861,-26.4763,0.051685,
2,0,0,1,0,52416.7,0.0420486,0.0417042,-15.5215,27,0.00694717,10,-0.000647313,-1.80907,1.40224,0.0420757,-25.5066,0.0417042,
2,0,0,1,0,52416.7,0.0320607,0.0317214,-15.2326,27,0.00617954,10,-0.000483199,-1.81723,1.07475,0.0548963,-32.6161,0.0317214,
2,0,0,1,0,52416.8,0.0220637,0.0217535,-14.848,27,0.00542721,10,-0.000322996,-1.82833,0.781111,0.0755335,-43.7664,0.0217535,
2,0,0,1,0,52416.8,0.0120848,0.0117689,-14.3665,27,0.00469786,10,-0.000169078,-1.84265,0.586242,0.100641,-56.4147,0.0117689,
2,0,0,1,0,52416.9,0.00210598,0.00175086,-13.8427,27,0.00399502,10,-2.42365e-05,-1.85878,0.647147,0.0911694,-49.1534,0.00175086,
2,0,0,1,0,52416.9,-0.00789103,-0.00829862,-13.2684,27,0.00331774,10,0.000110109,-1.87718,0.625704,0.0942938,-48.85,-0.00829862,
2,0,0,1,0,52417,-0.017879,-0.0182777,-12.8515,27,0.0026668,10,0.000234897,-1.89105,0.917894,0.0642776,-32.2277,-0.0182777,
2,0,0,1,0,52417,-0.0278578,-0.0282275,-12.5735,27,0.00203336,10,0.000354919,-1.90054,1.45668,0.040503,-19.8765,-0.0282275,
2,0,0,1,0,52417.1,-0.0378548,-0.0382501,-12.451,27,0.00140854,10,0.000476253,-1.90479,5.13104,0.0114986,-5.58769,-0.0382501,
2,0,0,1,0,52417.1,-0.0478519,-0.0482085,-12.4634,27,0.00078613,10,0.000600843,-1.90436,-2.48194,-0.0237718,11.566,-0.0482085,
2,0,0,1,0,52417.2,-0.0578126,-0.0581591,-12.5894,27,0.000162582,10,0.000732188,-1.9,-1.61515,-0.036529,17.9576,-0.0581591,
2,0,0,1,0,52417.2,-0.0678187,-0.068199,-12.8182,27,-0.000472223,10,0.00087419,-1.89217,-1.06427,-0.0554371,27.7147,-0.068199,
2,0,0,1,0,52417.3,-0.0778157,-0.0781912,-13.1188,27,-0.00112042,10,0.00102577,-1.88211,-0.915537,-0.064443,33.0215,-0.0781912,
2,0,0,1,0,52417.3,-0.0877945,-0.0881803,-13.5407,27,-0.00178517,10,0.00119402,-1.86836,-0.671963,-0.0878025,46.3777,-0.0881803,
2,0,0,1,0,52417.4,-0.0977734,-0.098147,-14.022,27,-0.00247254,10,0.00137622,-1.85319,-0.566532,-0.104142,57.0561,-0.098147,
2,0,0,1,1,52417.4,-0.0936874,-0.0940878,-7.43181,27,-0.00295139,10,0.000699243,-2.12891,-0.0238932,-2.46932,717.029,-0.0940878,
2,0,0,1,1,52417.5,-0.0837086,-0.0841091,-1.96569,27,-0.00317346,10,0.000165332,-2.70649,-0.00998357,-5.90971,430.303,-0.0841091,
2,1,0,1,1,52417.5,-0.0737025,-0.074064,1.59005,27,-0.00317676,10,-0.000117766,-2.79859,0.011688,5.04792,293.543,-0.074064,
2,1,0,1,1,52417.6,-0.0637236,-0.0641192,4.09228,27,-0.00303152,10,-0.000262394,-2.38803,0.0440741,1.33866,212.212,-0.0641192,
2,1,0,1,1,52417.6,-0.0537448,-0.0540995,5.9054,27,-0.00277948,10,-0.000319479,-2.22875,0.089075,0.662363,152.3,-0.0540995,
2,1,0,1,1,52417.7,-0.0437477,-0.0441915,7.22122,27,-0.00244922,10,-0.000319116,-2.14139,0.149882,0.393644,110.8,-0.0441915,
2,1,0,1,1,52417.7,-0.0337507,-0.0341342,8.16215,27,-0.00206292,10,-0.000278609,-2.0882,0.236626,0.249339,79.4491,-0.0341342,
2,1,0,1,1,52417.8,-0.0237809,-0.0241862,8.81646,27,-0.00163899,10,-0.000213237,-2.05471,0.369104,0.159846,54.9417,-0.0241862,
2,1,0,1,1,52417.8,-0.0137839,-0.0141706,9.24365,27,-0.00118658,10,-0.000130988,-2.03416,0.682934,0.086392,31.162,-0.0141706,
2,1,0,1,1,52417.9,-0.0037869,-0.00415494,9.51215,27,-0.000717109,10,-3.95223e-05,-2.02172,1.05918,0.0557036,20.6669,-0.004154935,
2,1,0,1,1,52417.9,-2.55332e-05,-0.000344411,9.55939,27,-0.000538593,10,-3.29236e-06,-2.01957, , , ,-0.000344411,