File: Figure_codes/Fig_3-5/rawdata_trumpetplot_data/after 10th/20221101_1-115_003_TrumpetPlot_ParaChange_from10_every3_06_CV_C01_24.csv
mode,ox/red,error,control changes,counter inc.,time/s,control/V,Ewe/V,<I>/mA,cycle number,(Q-Qo)/C,I Range,P/W,log(|I|),Tafel slope mV/dec,alpha_eff,dI/d(E-IR),E-IR/V,
2,0,0,0,0,48433.1,2.44065e-05,-0.000382585,-1.41344,25,0.0000000E+000,10,5.4076e-07,-2.84972, , , ,-0.000382585,
2,1,0,1,0,48433.3,0.00729063,0.0069829,1.03927,25,5.50314e-05,10,7.25712e-06,-2.98327,0.0217403,2.71385,103.996,0.0069829,
2,1,0,1,0,48433.5,0.014778,0.0144677,1.47316,25,0.000300286,10,2.13133e-05,-2.83175,0.0923226,0.639063,36.6031,0.0144677,
2,1,0,1,0,48433.7,0.0222743,0.0219782,1.6944,25,0.000600917,10,3.72399e-05,-2.77098,0.160043,0.368651,24.2556,0.0219782,
2,1,0,1,0,48433.9,0.0297626,0.0294303,1.86129,25,0.00093623,10,5.47783e-05,-2.73019,0.197546,0.298665,21.6972,0.0294303,
2,1,0,1,0,48434.1,0.0372544,0.0369522,2.02872,25,0.00130329,10,7.49657e-05,-2.69278,0.215472,0.273818,21.6596,0.0369522,
2,1,0,1,0,48434.3,0.0447472,0.0444273,2.19518,25,0.00170154,10,9.75259e-05,-2.65853,0.224179,0.263183,22.5267,0.0444273,
2,1,0,1,0,48434.5,0.0522345,0.0518666,2.35266,25,0.00213051,10,0.000122025,-2.62844,0.235441,0.250593,23.0789,0.0518666,
2,1,0,1,0,48434.6,0.0597308,0.059426,2.51362,25,0.0025898,10,0.000149374,-2.5997,0.282186,0.209082,20.4783,0.059426,
2,1,0,1,0,48434.8,0.0672182,0.0668743,2.6555,25,0.0030759,10,0.000177585,-2.57585,0.332098,0.177659,18.3591,0.06687431,
2,1,0,1,0,48435,0.0747074,0.0743988,2.77196,25,0.00358682,10,0.00020623,-2.55721,0.494613,0.119285,12.9176,0.0743988,
2,1,0,1,0,48435.2,0.0822019,0.081904,2.87541,25,0.00411918,10,0.000235508,-2.5413,0.531726,0.110959,12.4342,0.081904,
2,1,0,1,0,48435.4,0.0896911,0.0894099,2.96805,25,0.00466896,10,0.000265373,-2.52753,0.486483,0.121279,14.0632,0.0894099,
2,1,0,1,0,48435.6,0.097182,0.0968591,3.09741,25,0.00523929,10,0.000300012,-2.509,0.316825,0.186223,22.5531,0.0968591,
2,1,0,1,0,48435.8,0.104675,0.104332,3.31069,25,0.0058408,10,0.00034541,-2.48008,0.223735,0.263705,34.0288,0.104332,
2,1,0,1,0,48436,0.112162,0.111779,3.57416,25,0.00648737,10,0.000399515,-2.44683,0.229195,0.257423,35.9107,0.111779,
2,1,0,1,0,48436.1,0.119655,0.119338,3.82446,25,0.0071843,10,0.000456404,-2.41743,0.321512,0.183508,27.3936,0.119338,
2,1,0,1,0,48436.3,0.127146,0.12682,3.98696,25,0.00792058,10,0.000505627,-2.39936,0.525938,0.11218,17.4522,0.12682,
2,1,0,1,0,48436.5,0.134635,0.134272,4.08196,25,0.00868014,10,0.000548093,-2.38913,1.28542,0.0458993,7.31616,0.134272,
2,1,0,1,0,48436.7,0.14213,0.141777,4.0709,25,0.00945003,10,0.000577159,-2.39031,-0.573348,-0.102904,-16.2971,0.141777,
2,1,0,1,0,48436.9,0.149619,0.149309,3.75601,25,0.0101916,10,0.000560807,-2.42527,-0.126647,-0.465861,-68.0122,0.149309,
2,1,0,1,0,48437.1,0.157106,0.156817,3.12733,25,0.010841,10,0.000490419,-2.50483,-0.0831054,-0.709941,-86.6716,0.156817,
2,1,0,1,0,48437.3,0.164602,0.164252,2.56087,25,0.0113731,10,0.000420627,-2.59161,-0.0978379,-0.603038,-60.3078,0.164252,
2,1,0,1,0,48437.4,0.172091,0.171755,2.20936,25,0.0118193,10,0.000379468,-2.65573,-0.147635,-0.399635,-34.6002,0.171755,
2,1,0,1,0,48437.6,0.179582,0.1793,2.01695,25,0.0122163,10,0.000361638,-2.69531,-0.254498,-0.231829,-18.3224,0.1793,
2,1,0,1,0,48437.8,0.187074,0.186775,1.91159,25,0.0125859,10,0.000357037,-2.7186,-0.43277,-0.136331,-10.144,0.186775,
2,1,0,1,0,48438,0.194563,0.194221,1.84117,25,0.0129391,10,0.000357595,-2.73491,-0.696536,-0.0847049,-6.09699,0.194221,
2,1,0,1,0,48438.2,0.202059,0.201766,1.79879,25,0.0132823,10,0.000362936,-2.74502,-0.786964,-0.0749717,-5.25277,0.201766,
2,1,0,1,0,48438.4,0.209546,0.209223,1.77117,25,0.0136185,10,0.000370569,-2.75174,-0.773888,-0.0762384,-5.25624,0.209223,
2,1,0,1,0,48438.6,0.217035,0.216732,1.73837,25,0.0139493,10,0.000376761,-2.75986,-1.69282,-0.034853,-2.3727,0.216732,
2,1,0,1,0,48438.8,0.22453,0.224211,1.7236,25,0.0142766,10,0.000386449,-2.76356,-0.984117,-0.0599522,-4.02718,0.224211,
2,1,0,1,0,48438.9,0.232019,0.231704,1.70554,25,0.0146001,10,0.00039518,-2.76814,-5.82452,-0.0101296,-0.674357,0.231704,
2,1,0,1,0,48439.1,0.23951,0.239192,1.69212,25,0.0149211,10,0.000404742,-2.77157,-4.12546,-0.0143014,-0.945863,0.239192,
2,1,0,1,0,48439.3,0.247003,0.246691,1.68396,25,0.0152397,10,0.000415419,-2.77367,-1.64385,-0.0358914,-2.35043,0.246691,
2,1,0,1,0,48439.5,0.25449,0.25421,1.66849,25,0.0155558,10,0.000424146,-2.77768,-2.10178,-0.0280714,-1.82844,0.25421,
2,1,0,1,0,48439.7,0.261983,0.261688,1.65348,25,0.01587,10,0.000432697,-2.7816,-1.88461,-0.0313062,-2.02798,0.261688,
2,1,0,1,0,48439.9,0.269474,0.269161,1.64467,25,0.016182,10,0.00044268,-2.78392,-31.4406,-0.00187655,-0.120433,0.269161,
2,1,0,1,0,48440.1,0.276963,0.276658,1.63404,25,0.0164917,10,0.000452069,-2.78674,-3.31324,-0.0178073,-1.13747,0.2766577,
2,1,0,1,0,48440.3,0.284458,0.284158,1.62196,25,0.0167995,10,0.000460892,-2.78996,-1.65981,-0.0355462,-2.24945,0.284158,
2,1,0,1,0,48440.4,0.291947,0.291632,1.60705,25,0.0171043,10,0.000468668,-2.79397,-1.96159,-0.0300776,-1.88517,0.291632,
2,1,0,1,0,48440.6,0.299434,0.299159,1.5903,25,0.0174065,10,0.000475753,-2.79852,-0.0187254,-3.15081,-171.745,0.299159,
2,0,0,1,0,48440.8,0.294196,0.293887,-0.26683,25,0.0174612,10,-7.84179e-05,-3.57376,-0.00524077,-11.2579,79.3897,0.293887,
2,0,0,1,0,48441,0.286701,0.286356,-0.556398,25,0.0173757,10,-0.000159328,-3.25461,-0.0530951,-1.11121,23.9658,0.286356,
2,0,0,1,0,48441.2,0.279212,0.278879,-0.692788,25,0.0172544,10,-0.000193204,-3.1594,-0.114276,-0.516292,13.9805,0.278879,
2,0,0,1,0,48441.4,0.271725,0.27141,-0.786466,25,0.0171124,10,-0.000213454,-3.10432,-0.141977,-0.415561,12.731,0.27141,
2,0,0,1,0,48441.5,0.264228,0.263921,-0.862368,25,0.0169544,10,-0.000227597,-3.06431,-0.228589,-0.258106,8.69737,0.263921,
2,0,0,1,0,48441.7,0.256741,0.256403,-0.925881,25,0.0167838,10,-0.000237399,-3.03345,-0.272906,-0.216192,7.82394,0.256403,
2,0,0,1,0,48441.9,0.249248,0.248957,-0.986286,25,0.0166019,10,-0.000245543,-3.006,-0.363695,-0.162224,6.2152,0.2489574,
2,0,0,1,0,48442.1,0.241756,0.241503,-1.02782,25,0.0164098,10,-0.00024822,-2.98808,-0.450719,-0.130902,5.2887,0.241503,
2,0,0,1,0,48442.3,0.234268,0.233946,-1.0804,25,0.0162086,10,-0.000252754,-2.96642,-0.399686,-0.147616,6.25238,0.233946,
2,0,0,1,0,48442.5,0.226772,0.226469,-1.13047,25,0.0159983,10,-0.000256017,-2.94674,-0.360047,-0.163867,7.20588,0.226469,
2,0,0,1,0,48442.7,0.219284,0.218973,-1.17204,25,0.0157798,10,-0.000256645,-2.93106,-0.483741,-0.121966,5.58921,0.218973,
2,0,0,1,0,48442.9,0.211796,0.211463,-1.21885,25,0.015553,10,-0.000257741,-2.91405,-0.568415,-0.103797,4.91556,0.211463,
2,0,0,1,0,48443,0.204301,0.203945,-1.26021,25,0.0153176,10,-0.000257012,-2.89956,-0.575985,-0.102433,5.04627,0.203945,
2,0,0,1,0,48443.2,0.196812,0.196488,-1.30318,25,0.015074,10,-0.00025606,-2.88499,-0.587772,-0.100379,5.12817,0.196488,
2,0,0,1,0,48443.4,0.189321,0.189001,-1.35849,25,0.0148215,10,-0.000256756,-2.86694,-0.408884,-0.144295,7.63532,0.189001,
2,0,0,1,0,48443.6,0.181828,0.181459,-1.41049,25,0.0145594,10,-0.000255947,-2.85063,-0.374998,-0.157334,8.664,0.181459,
2,0,0,1,0,48443.8,0.174341,0.173979,-1.47778,25,0.0142864,10,-0.000257103,-2.83039,-0.354472,-0.166445,9.59581,0.173979,
2,0,0,1,0,48444,0.166848,0.166479,-1.55919,25,0.0140001,10,-0.000259573,-2.8071,-0.326353,-0.180786,10.937,0.166479,
2,0,0,1,0,48444.2,0.159357,0.159035,-1.66166,25,0.0136965,10,-0.000264263,-2.77946,-0.229279,-0.257328,16.7186,0.159035,
2,0,0,1,0,48444.3,0.151868,0.151523,-1.82058,25,0.0133684,10,-0.00027586,-2.73979,-0.154011,-0.383089,27.2981,0.151523,
2,0,0,1,0,48444.5,0.144373,0.144014,-2.08484,25,0.0130014,10,-0.000300245,-2.68093,-0.103951,-0.567576,46.2814,0.144014,
2,0,0,1,0,48444.7,0.136884,0.136514,-2.49346,25,0.0125717,10,-0.000340393,-2.6032,-0.0890206,-0.662768,64.6992,0.136514,
2,0,0,1,0,48444.9,0.129393,0.129075,-3.00285,25,0.0120542,10,-0.000387592,-2.52247,-0.100558,-0.586727,68.6075,0.129075,
2,0,0,1,0,48445.1,0.1219,0.121578,-3.47499,25,0.0114431,10,-0.000422483,-2.45905,-0.143328,-0.411643,55.704,0.121578,
2,0,0,1,0,48445.3,0.114413,0.114057,-3.84137,25,0.010753,10,-0.000438137,-2.41551,-0.227223,-0.259656,38.8954,0.114057,
2,0,0,1,0,48445.5,0.10692,0.106602,-4.05599,25,0.0100076,10,-0.000432375,-2.3919,-0.592416,-0.0995921,15.7348,0.106602,
2,0,0,1,0,48445.7,0.0994284,0.0991104,-4.09134,25,0.00923842,10,-0.000405494,-2.38813,1.70456,0.034613,-5.52176,0.0991104,
2,0,0,1,0,48445.8,0.0919401,0.0915924,-3.99784,25,0.00847663,10,-0.000366172,-2.39817,0.584141,0.101003,-15.7604,0.0915924,
2,0,0,1,0,48446,0.0844447,0.0840947,-3.87262,25,0.00773647,10,-0.000325666,-2.412,0.582045,0.101367,-15.295,0.0840947,
2,0,0,1,0,48446.2,0.0769565,0.0765978,-3.76382,25,0.00701975,10,-0.0002883,-2.42437,0.641449,0.0919792,-13.5165,0.0765978,
2,0,0,1,0,48446.4,0.0694682,0.0691692,-3.673,25,0.00632077,10,-0.000254059,-2.43498,0.699649,0.084328,-12.0911,0.0691692,
2,0,0,1,0,48446.6,0.0619728,0.0616764,-3.58548,25,0.00563733,10,-0.000221139,-2.44545,0.604485,0.0976038,-13.6514,0.06167642,
2,0,0,1,0,48446.8,0.0544836,0.0542005,-3.48438,25,0.00497222,10,-0.000188855,-2.45787,0.64703,0.0911859,-12.41,0.0542005,
2,0,0,1,0,48447,0.0469927,0.0466784,-3.38429,25,0.00432568,10,-0.000157973,-2.47053,0.561218,0.105129,-13.8598,0.0466784,
2,0,0,1,0,48447.2,0.0394999,0.0391583,-3.27204,25,0.00369966,10,-0.000128128,-2.48518,0.430491,0.137053,-17.4624,0.0391583,
2,0,0,1,0,48447.3,0.0320125,0.0316798,-3.13858,25,0.00309649,10,-9.94298e-05,-2.50327,0.397031,0.148603,-18.2126,0.0316798,
2,0,0,1,0,48447.5,0.0245198,0.0242126,-3.01307,25,0.0025172,10,-7.29543e-05,-2.52099,0.413065,0.142835,-16.7936,0.0242126,
2,0,0,1,0,48447.7,0.0170289,0.0166997,-2.89463,25,0.00196093,10,-4.83394e-05,-2.53841,0.498496,0.118356,-13.4054,0.0166997,
2,0,0,1,0,48447.9,0.0095397,0.0092318,-2.81103,25,0.00142376,10,-2.59509e-05,-2.55113,0.720227,0.0819186,-8.98679,0.0092318,
2,0,0,1,0,48448.1,0.00204518,0.00168106,-2.79204,25,0.000899174,10,-4.69358e-06,-2.55408,4.15305,0.0142064,-1.53089,0.00168106,
2,0,0,1,0,48448.1,0.000177222,-0.000207746,-2.75819,25,0.000768929,10,5.73002e-07,-2.55938, , , ,-0.000207746,