File: Figure_codes/Fig_3-5/rawdata_trumpetplot_data/after 10th/20221101_1-115_003_TrumpetPlot_ParaChange_from10_every3_07_CV_C01_20.csv
mode,ox/red,error,control changes,counter inc.,time/s,control/V,Ewe/V,<I>/mA,cycle number,(Q-Qo)/C,I Range,P/W,log(|I|),Tafel slope mV/dec,alpha_eff,dI/d(E-IR),E-IR/V,
2,0,0,0,0,40567.6,2.44065e-05,-0.000287149,-2.72557,21,0.0000000E+000,10,7.82644e-07,-2.56454, , , ,-0.0002871489,
2,1,0,1,0,40567.7,0.007288,0.00699893,0.927998,21,-3.77933e-05,10,6.495e-06,-3.03245,0.00901856,6.54207,203.234,0.00699893,
2,1,0,1,0,40567.9,0.0147816,0.0144591,1.84594,21,0.000146855,10,2.66907e-05,-2.73378,0.0552121,1.06861,76.4222,0.0144591,
2,1,0,1,0,40568,0.0222712,0.0219702,2.2835,21,0.000408762,10,5.01691e-05,-2.6414,0.115778,0.509594,45.2308,0.0219702,
2,1,0,1,0,40568.1,0.0297648,0.0294599,2.58584,21,0.000715018,10,7.61788e-05,-2.5874,0.161943,0.364326,36.6529,0.0294599,
2,1,0,1,0,40568.2,0.0372518,0.0369474,2.84702,21,0.00105581,10,0.00010519,-2.54561,0.188614,0.312808,34.7876,0.0369474,
2,1,0,1,0,40568.4,0.0447467,0.044419,3.09684,21,0.00142903,10,0.000137559,-2.50908,0.214511,0.275045,33.2598,0.044419,
2,1,0,1,0,40568.5,0.052235,0.0519058,3.33685,21,0.00183267,10,0.000173202,-2.47666,0.247852,0.238045,31.0031,0.0519058,
2,1,0,1,0,40568.6,0.0597299,0.0594089,3.57426,21,0.00226629,10,0.000212343,-2.44681,0.276443,0.213426,29.7038,0.05940894,
2,1,0,1,0,40568.7,0.0672156,0.066906,3.78782,21,0.00272719,10,0.000253428,-2.42161,0.310834,0.189812,28.0083,0.066906,
2,1,0,1,0,40568.9,0.0747105,0.0743636,3.97321,21,0.00321394,10,0.000295462,-2.40086,0.389881,0.151328,23.4818,0.0743636,
2,1,0,1,0,40569,0.0821988,0.0818711,4.13794,21,0.00372249,10,0.000338777,-2.38322,0.543197,0.108616,17.5484,0.0818711,
2,1,0,1,0,40569.1,0.0896937,0.0893981,4.29603,21,0.00425075,10,0.000384057,-2.36693,0.481922,0.122426,20.4803,0.0893981,
2,1,0,1,0,40569.2,0.0971794,0.0968728,4.463,21,0.00479816,10,0.000432344,-2.35037,0.342792,0.172116,30.0045,0.0968728,
2,1,0,1,0,40569.4,0.104674,0.104366,4.71546,21,0.00537231,10,0.000492132,-2.32648,0.255365,0.231042,42.579,0.104366,
2,1,0,1,0,40569.5,0.112163,0.111826,5.07346,21,0.00598431,10,0.000567345,-2.2947,0.245465,0.24036,47.5639,0.111826,
2,1,0,1,0,40569.6,0.119658,0.119342,5.44319,21,0.00664269,10,0.000649602,-2.26415,0.291221,0.202595,42.9267,0.119342,
2,1,0,1,0,40569.7,0.127143,0.126811,5.71472,21,0.00734183,10,0.000724687,-2.243,0.405633,0.145452,32.458,0.126811,
2,1,0,1,0,40569.9,0.134638,0.134337,5.9075,21,0.00807122,10,0.000793598,-2.2286,0.661914,0.0891355,20.5918,0.1343375,
2,1,0,1,0,40570,0.142126,0.141832,6.0078,21,0.00881854,10,0.000852101,-2.22128,10.6874,0.00552052,1.29293,0.141832,
2,1,0,1,0,40570.1,0.149621,0.149314,5.8386,21,0.00956423,10,0.000871785,-2.23369,-0.244403,-0.241405,-54.7259,0.149314,
2,1,0,1,0,40570.2,0.157107,0.156812,5.17912,21,0.0102575,10,0.000812149,-2.28574,-0.107503,-0.548822,-110.516,0.156812,
2,1,0,1,0,40570.4,0.164602,0.164258,4.30347,21,0.010851,10,0.000706877,-2.36618,-0.090341,-0.653081,-109.855,0.164258,
2,1,0,1,0,40570.5,0.17209,0.171787,3.62731,21,0.0113452,10,0.000623125,-2.44041,-0.117655,-0.501464,-71.2755,0.171787,
2,1,0,1,0,40570.6,0.179585,0.179272,3.20832,21,0.0117719,10,0.000575162,-2.49372,-0.163325,-0.361244,-45.2489,0.179272,
2,1,0,1,0,40570.7,0.187072,0.186733,2.94314,21,0.0121561,10,0.000549581,-2.53119,-0.266516,-0.221375,-25.4412,0.1867329,
2,1,0,1,0,40570.9,0.194566,0.194249,2.77501,21,0.0125145,10,0.000539044,-2.55673,-0.393073,-0.150099,-16.2973,0.194249,
2,1,0,1,0,40571,0.202055,0.201735,2.66695,21,0.0128557,10,0.000538018,-2.57399,-0.43668,-0.13511,-14.0683,0.201735,
2,1,0,1,0,40571.1,0.209549,0.209262,2.59992,21,0.013186,10,0.000544066,-2.58504,-0.545323,-0.108193,-10.9521,0.209262,
2,1,0,1,0,40571.2,0.217036,0.216708,2.53838,21,0.0135079,10,0.000550089,-2.59544,-1.3316,-0.0443077,-4.39037,0.216708,
2,1,0,1,0,40571.4,0.224529,0.224199,2.49623,21,0.0138241,10,0.00055965,-2.60272,-1.39197,-0.042386,-4.13774,0.224199,
2,1,0,1,0,40571.5,0.232019,0.231736,2.46247,21,0.0141355,10,0.000570643,-2.60863,-1.29339,-0.0456164,-4.3919,0.231736,
2,1,0,1,0,40571.6,0.239513,0.239213,2.4452,21,0.0144435,10,0.000584924,-2.61169,-1.96015,-0.0300997,-2.86245,0.239213,
2,1,0,1,0,40571.7,0.247001,0.246729,2.41862,21,0.0147482,10,0.000596745,-2.61643,-2.94129,-0.0200592,-1.88932,0.246729,
2,1,0,1,0,40571.9,0.254493,0.2542,2.39243,21,0.0150504,10,0.000608155,-2.62116,-1.71383,-0.0344257,-3.2196,0.2542,
2,1,0,1,0,40572,0.261983,0.261641,2.37124,21,0.0153498,10,0.000620413,-2.62502,-1.39961,-0.0421547,-3.91297,0.261641,
2,1,0,1,0,40572.1,0.269477,0.269164,2.36181,21,0.0156472,10,0.000635713,-2.62676,-2.28448,-0.0258264,-2.3751,0.269164,
2,1,0,1,0,40572.2,0.276965,0.276643,2.34213,21,0.0159421,10,0.000647933,-2.63039,-3.64344,-0.0161935,-1.47766,0.276643,
2,1,0,1,0,40572.4,0.284457,0.284131,2.31921,21,0.0162348,10,0.000658958,-2.63466,-3.98755,-0.0147961,-1.34063,0.2841309,
2,1,0,1,0,40572.5,0.291947,0.291616,2.29705,21,0.0165248,10,0.000669858,-2.63883,-1.2064,-0.048906,-4.39739,0.2916162,
2,1,0,1,0,40572.6,0.29944,0.299112,2.28055,21,0.0168127,10,0.000682142,-2.64196,-0.00872038,-6.76576,-480.429,0.299112,
2,0,0,1,0,40572.7,0.293742,0.293431,-0.339036,21,0.0168797,10,-9.94835e-05,-3.46975,-0.00256676,-22.9862,126.636,0.293431,
2,0,0,1,0,40572.9,0.286254,0.285956,-0.826713,21,0.0167993,10,-0.000236404,-3.08265,-0.047141,-1.25156,40.0985,0.285956,
2,0,0,1,0,40573,0.278761,0.27845,-1.03923,21,0.0166791,10,-0.000289374,-2.98329,-0.11145,-0.529385,21.5452,0.27845,
2,0,0,1,0,40573.1,0.271272,0.27094,-1.18545,21,0.0165373,10,-0.000321187,-2.92612,-0.172554,-0.341922,15.8459,0.27094,
2,0,0,1,0,40573.2,0.263778,0.263488,-1.30235,21,0.0163796,10,-0.000343154,-2.88527,-0.23232,-0.25396,12.8657,0.263488,
2,0,0,1,0,40573.4,0.25629,0.255952,-1.39551,21,0.0162094,10,-0.000357184,-2.85527,-0.283426,-0.208168,11.3105,0.255952,
2,0,0,1,0,40573.5,0.248797,0.24853,-1.46762,21,0.0160285,10,-0.000364747,-2.83339,-0.344257,-0.171384,9.86933,0.24853,
2,0,0,1,0,40573.6,0.241308,0.241017,-1.54125,21,0.0158382,10,-0.000371468,-2.81213,-0.443869,-0.132922,8.01762,0.241017,
2,0,0,1,0,40573.7,0.233814,0.233475,-1.61613,21,0.0156391,10,-0.000377327,-2.79152,-0.406403,-0.145176,9.12331,0.233475,
2,0,0,1,0,40573.9,0.226326,0.22604,-1.6752,21,0.0154319,10,-0.000378662,-2.77593,-0.426611,-0.138299,9.04514,0.22604,
2,0,0,1,0,40574,0.218834,0.21851,-1.73848,21,0.0152167,10,-0.000379874,-2.75983,-0.540112,-0.109237,7.42323,0.21851,
2,0,0,1,0,40574.1,0.211344,0.211007,-1.80118,21,0.0149939,10,-0.000380061,-2.74444,-0.736198,-0.0801414,5.6252,0.211007,
2,0,0,1,0,40574.2,0.203856,0.203507,-1.86307,21,0.0147634,10,-0.000379149,-2.72977,-0.593672,-0.0993815,7.21828,0.203507,
2,0,0,1,0,40574.4,0.196362,0.19604,-1.92291,21,0.0145251,10,-0.000376967,-2.71604,-0.395169,-0.149303,11.2004,0.19604,
2,0,0,1,0,40574.5,0.18887,0.188517,-1.98904,21,0.0142785,10,-0.000374968,-2.70136,-0.385184,-0.153173,11.9374,0.1885166,
2,0,0,1,0,40574.6,0.18138,0.181065,-2.06934,21,0.014023,10,-0.000374684,-2.68417,-0.431202,-0.136827,11.0508,0.1810648,
2,0,0,1,0,40574.7,0.173892,0.173554,-2.17112,21,0.0137571,10,-0.000376807,-2.66332,-0.369911,-0.159498,13.4527,0.173554,
2,0,0,1,0,40574.9,0.166398,0.166113,-2.2765,21,0.0134783,10,-0.000378156,-2.64273,-0.301569,-0.195643,17.392,0.166113,
2,0,0,1,0,40575,0.158905,0.158607,-2.42222,21,0.0131831,10,-0.000384182,-2.61579,-0.229899,-0.256635,24.3539,0.158607,
2,0,0,1,0,40575.1,0.151417,0.151132,-2.65222,21,0.0128648,10,-0.000400834,-2.57639,-0.175104,-0.336944,35.0062,0.151132,
2,0,0,1,0,40575.2,0.143927,0.143611,-3.0235,21,0.0125103,10,-0.000434208,-2.51949,-0.109324,-0.539681,63.7586,0.143611,
2,0,0,1,0,40575.4,0.136435,0.136082,-3.58399,21,0.0120977,10,-0.000487716,-2.44563,-0.0925198,-0.637701,89.1847,0.136082,
2,0,0,1,0,40575.5,0.128941,0.128631,-4.2803,21,0.0116049,10,-0.00055058,-2.36853,-0.103228,-0.571548,95.4239,0.128631,
2,0,0,1,0,40575.6,0.121453,0.121113,-4.94839,21,0.0110256,10,-0.000599317,-2.30554,-0.142204,-0.414896,80.1094,0.121113,
2,0,0,1,0,40575.7,0.113963,0.113575,-5.49728,21,0.0103702,10,-0.000624356,-2.25985,-0.21316,-0.276787,59.2417,0.113575,
2,0,0,1,0,40575.9,0.106471,0.106169,-5.86327,21,0.00965698,10,-0.000622496,-2.23186,-0.371002,-0.159029,36.3249,0.106169,
2,0,0,1,0,40576,0.0989825,0.09866,-6.01332,21,0.00891137,10,-0.000593274,-2.22089,-1.89912,-0.031067,7.28699,0.09866,
2,0,0,1,0,40576.1,0.0914889,0.0911506,-5.95836,21,0.00815975,10,-0.000543108,-2.22487,0.768859,0.0767371,-17.8454,0.0911506,
2,0,0,1,0,40576.2,0.0839993,0.0836617,-5.78616,21,0.00742457,10,-0.00048408,-2.23761,0.495645,0.119037,-26.8372,0.0836617,
2,0,0,1,0,40576.4,0.076507,0.0761701,-5.61251,21,0.00671186,10,-0.000427506,-2.25084,0.600051,0.098325,-21.4913,0.0761701,
2,0,0,1,0,40576.5,0.0690187,0.0686896,-5.45974,21,0.0060197,10,-0.000375027,-2.26283,0.700139,0.084269,-17.9807,0.0686896,
2,0,0,1,0,40576.6,0.0615251,0.0611763,-5.33428,21,0.00534316,10,-0.000326332,-2.27292,0.685469,0.0860725,-17.9408,0.0611763,
2,0,0,1,0,40576.7,0.0540355,0.0536882,-5.20816,21,0.00468305,10,-0.000279617,-2.28332,0.650856,0.0906498,-18.4124,0.0536882,
2,0,0,1,0,40576.8,0.0465432,0.0462274,-5.06958,21,0.00403918,10,-0.000234353,-2.29503,0.662479,0.0890594,-17.5974,0.0462274,
2,0,0,1,0,40577,0.0390549,0.0387529,-4.91069,21,0.00341438,10,-0.000190304,-2.30886,0.522427,0.112934,-21.6441,0.0387529,
2,0,0,1,0,40577.1,0.0315613,0.0312526,-4.73282,21,0.00280947,10,-0.000147913,-2.32488,0.410056,0.143883,-26.6154,0.0312526,
2,0,0,1,0,40577.2,0.0240717,0.0237518,-4.54694,21,0.00222794,10,-0.000107998,-2.34228,0.401351,0.147004,-26.1016,0.0237518,
2,0,0,1,0,40577.3,0.0165781,0.0162214,-4.36881,21,0.00166943,10,-7.08681e-05,-2.35964,0.452688,0.130333,-22.2076,0.0162214,
2,0,0,1,0,40577.5,0.00909108,0.00873362,-4.21201,21,0.00113221,10,-3.67861e-05,-2.37551,0.589381,0.100105,-16.4775,0.00873362,
2,0,0,1,0,40577.6,0.00159616,0.0012192,-4.12914,21,0.000610671,10,-5.03425e-06,-2.38414, , , ,0.0012192,
2,0,0,1,0,40577.6,0.000199195,-0.000216526,-4.10694,21,0.000514319,10,8.89257e-07,-2.38648, , , ,-0.0002165258,