File: Figure_codes/Fig_3-5/rawdata_trumpetplot_data/after 10th/20221101_1-115_003_TrumpetPlot_ParaChange_from10_every3_03_CV_C01_14.csv
mode,ox/red,error,control changes,counter inc.,time/s,control/V,Ewe/V,<I>/mA,cycle number,(Q-Qo)/C,I Range,P/W,log(|I|),Tafel slope mV/dec,alpha_eff,dI/d(E-IR),E-IR/V,
2,0,0,1,0,28521.8,2.44065e-05,-0.000382585,-0.10639,15,0.0000000E+000,10,4.07034e-08,-3.9731, , , ,-0.000382585,
2,1,0,1,0,28523.3,0.00729041,0.0069465,0.201924,15,0.000253753,10,1.40266e-06,-3.69481,0.0796891,0.740378,5.78713,0.0069465,
2,1,0,1,0,28524.8,0.0147815,0.0144313,0.235205,15,0.000604121,10,3.39431e-06,-3.62855,0.134996,0.437051,4.02028,0.0144313,
2,1,0,1,0,28526.3,0.0222725,0.0219401,0.263743,15,0.000999672,10,5.78657e-06,-3.57882,0.167008,0.353277,3.63043,0.0219401,
2,1,0,1,0,28527.8,0.0297635,0.029417,0.291209,15,0.00143589,10,8.5665e-06,-3.5358,0.195395,0.301953,3.42076,0.029417,
2,1,0,1,0,28529.3,0.0372545,0.0369195,0.317785,15,0.00191248,10,1.17324e-05,-3.49787,0.20712,0.28486,3.53683,0.0369195,
2,1,0,1,0,28530.8,0.0447456,0.0444144,0.343102,15,0.00242858,10,1.52387e-05,-3.46458,0.255256,0.231141,3.09205,0.0444144,
2,1,0,1,0,28532.3,0.0522367,0.0519,0.366349,15,0.00298255,10,1.90135e-05,-3.4361,0.231359,0.255015,3.65326,0.0519,
2,1,0,1,0,28533.8,0.0597277,0.0594281,0.38996,15,0.00357171,10,2.31746e-05,-3.40898,0.313082,0.188449,2.85903,0.0594281,
2,1,0,1,0,28535.3,0.0672187,0.066837,0.410488,15,0.00419232,10,2.74358e-05,-3.3867,0.390038,0.151267,2.41101,0.066837,
2,1,0,1,0,28536.8,0.0747092,0.0743623,0.425672,15,0.00483952,10,3.16539e-05,-3.37093,0.507765,0.116195,1.93144,0.0743623,
2,1,0,0,0,28538.3,0.0822001,0.0818816,0.439789,15,0.00550994,10,3.60106e-05,-3.35676,0.498187,0.118429,2.04142,0.0818816,
2,1,0,1,0,28539.8,0.0896911,0.089348,0.461607,15,0.00620636,10,4.12436e-05,-3.33573,0.290256,0.203269,3.6652,0.089348,
2,1,0,0,0,28541.3,0.097182,0.096862,0.492777,15,0.00694309,10,4.77313e-05,-3.30735,0.199161,0.296242,5.7089,0.096862,
2,1,0,1,0,28542.8,0.104673,0.104343,0.538406,15,0.00773706,10,5.6179e-05,-3.26889,0.20406,0.289131,6.04666,0.104343,
2,1,0,0,0,28544.3,0.112164,0.111866,0.575026,15,0.00859306,10,6.43257e-05,-3.24031,0.369407,0.159715,3.57337,0.111866,
2,1,0,1,0,28545.8,0.119655,0.119333,0.600778,15,0.0094968,10,7.16927e-05,-3.22129,0.579687,0.101779,2.38875,0.119333,
2,1,0,0,0,28547.3,0.127146,0.126868,0.620095,15,0.0104366,10,7.86704e-05,-3.20754,0.655371,0.0900254,2.18545,0.126868,
2,1,0,1,0,28548.8,0.134637,0.134322,0.623274,15,0.0113997,10,8.37193e-05,-3.20532,-0.401134,-0.147083,-3.57749,0.134322,
2,1,0,1,0,28550.3,0.142127,0.141819,0.56203,15,0.0123202,10,7.97063e-05,-3.25024,-0.106076,-0.556203,-12.144,0.141819,
2,1,0,1,0,28551.8,0.149618,0.149264,0.453489,15,0.0131038,10,6.76896e-05,-3.34343,-0.0790973,-0.745917,-13.2264,0.149264,
2,1,0,1,0,28553.3,0.157109,0.15682,0.377047,15,0.0137415,10,5.91286e-05,-3.42361,-0.115132,-0.512455,-7.573,0.15682,
2,1,0,1,0,28554.8,0.1646,0.164294,0.342311,15,0.0142982,10,5.62396e-05,-3.46558,-0.247851,-0.238046,-3.17797,0.164294,
2,1,0,1,0,28556.3,0.172091,0.171769,0.322928,15,0.0148158,10,5.5469e-05,-3.49089,-0.419805,-0.140542,-1.77804,0.171769,
2,1,0,1,0,28557.8,0.179582,0.179298,0.312437,15,0.0153119,10,5.60193e-05,-3.50524,-0.873666,-0.0675316,-0.824188,0.179298,
2,1,0,1,0,28559.3,0.187074,0.186759,0.305762,15,0.0157953,10,5.71039e-05,-3.51462,-1.13881,-0.0518086,-0.616997,0.186759,
2,1,0,1,0,28560.7,0.194564,0.194251,0.300559,15,0.0162695,10,5.83838e-05,-3.52207,-1.01572,-0.0580866,-0.68012,0.194251,
2,1,0,1,0,28562.2,0.202056,0.201745,0.296636,15,0.0167363,10,5.98449e-05,-3.52778,-0.850149,-0.0693996,-0.801358,0.2017449,
2,1,0,1,0,28563.7,0.209547,0.209216,0.293057,15,0.0171977,10,6.1312e-05,-3.53305,-0.951149,-0.0620303,-0.70845,0.2092156,
2,1,0,1,0,28565.2,0.217038,0.216705,0.28789,15,0.0176534,10,6.23873e-05,-3.54077,-1.43872,-0.0410087,-0.462961,0.216705,
2,1,0,1,0,28566.7,0.224529,0.224203,0.286216,15,0.0181048,10,6.41703e-05,-3.54331,-2.29547,-0.0257028,-0.286362,0.2242026,
2,1,0,1,0,28568.2,0.232019,0.231716,0.283672,15,0.0185516,10,6.57314e-05,-3.54718,-1.55681,-0.0378979,-0.419016,0.231716,
2,1,0,0,0,28569.7,0.23951,0.239211,0.281604,15,0.0189952,10,6.73627e-05,-3.55036,-1.43156,-0.0412139,-0.453067,0.239211,
2,1,0,1,0,28571.2,0.247001,0.246702,0.27928,15,0.0194358,10,6.8899e-05,-3.55396,-2.49611,-0.0236368,-0.257387,0.246702,
2,1,0,0,0,28572.7,0.254492,0.254217,0.277732,15,0.0198734,10,7.0604e-05,-3.55637,-2.2848,-0.0258228,-0.279895,0.254217,
2,1,0,1,0,28574.2,0.261983,0.261667,0.276075,15,0.0203082,10,7.22398e-05,-3.55897,-1.25071,-0.047173,-0.507784,0.261667,
2,1,0,0,0,28575.7,0.269474,0.269151,0.274182,15,0.0207401,10,7.37962e-05,-3.56196,-12.8338,-0.00459724,-0.0491126,0.2691505,
2,1,0,1,0,28577.2,0.276965,0.276633,0.271741,15,0.0211687,10,7.51724e-05,-3.56585,-1.91029,-0.0308854,-0.328427,0.2766327,
2,1,0,0,0,28578.7,0.284456,0.284206,0.269915,15,0.0215943,10,7.67116e-05,-3.56877,-9.02506,-0.00653735,-0.0687316,0.284206,
2,1,0,1,0,28580.2,0.291947,0.291691,0.266957,15,0.0220162,10,7.78689e-05,-3.57356,-2.61837,-0.0225331,-0.235644,0.2916905,
2,1,0,1,0,28581.7,0.299437,0.299154,0.264167,15,0.022435,10,7.90265e-05,-3.57812,-0.00273157,-21.5993,-114.389,0.299154,
2,0,0,1,0,28583.1,0.293744,0.293433,-0.0156623,15,0.0224758,10,-4.59583e-06,-4.80515,-0.00334181,-17.6551,5.93861,0.293433,
2,0,0,1,0,28584.6,0.286253,0.285908,-0.0451156,15,0.0224082,10,-1.28989e-05,-4.34567,-0.0333341,-1.76996,3.18605,0.285908,
2,0,0,0,0,28586.1,0.278763,0.278458,-0.0664021,15,0.0223032,10,-1.84902e-05,-4.17782,-0.0637794,-0.925064,2.39363,0.278458,
2,0,0,1,0,28587.6,0.271272,0.270955,-0.0825687,15,0.0221709,10,-2.23724e-05,-4.08318,-0.0954505,-0.618121,1.99375,0.270955,
2,0,0,0,0,28589.1,0.263781,0.263449,-0.096049,15,0.0220158,10,-2.5304e-05,-4.01751,-0.124603,-0.473505,1.78071,0.263449,
2,0,0,1,0,28590.6,0.25629,0.255972,-0.108544,15,0.0218416,10,-2.77843e-05,-3.96439,-0.201037,-0.293479,1.23357,0.255972,
2,0,0,0,0,28592.1,0.248799,0.248477,-0.118955,15,0.0216506,10,-2.95576e-05,-3.92462,-0.207434,-0.284427,1.33068,0.248477,
2,0,0,1,0,28593.6,0.241308,0.240999,-0.128927,15,0.0214442,10,-3.10712e-05,-3.88966,-0.274775,-0.214721,1.08541,0.2409988,
2,0,0,0,0,28595.1,0.233817,0.23349,-0.139286,15,0.0212235,10,-3.25219e-05,-3.85609,-0.281509,-0.209585,1.13447,0.23349,
2,0,0,1,0,28596.6,0.226326,0.225964,-0.147222,15,0.0209892,10,-3.32668e-05,-3.83203,-0.292013,-0.202046,1.16754,0.225964,
2,0,0,0,0,28598.1,0.218835,0.21851,-0.155995,15,0.0207414,10,-3.40864e-05,-3.80689,-0.306516,-0.192486,1.1727,0.2185097,
2,0,0,1,0,28599.6,0.211344,0.211013,-0.163596,15,0.0204806,10,-3.45209e-05,-3.78623,-0.340382,-0.173335,1.11489,0.211013,
2,0,0,1,0,28601.1,0.203854,0.203519,-0.173957,15,0.0202055,10,-3.54035e-05,-3.75956,-0.377026,-0.156488,1.0664,0.203519,
2,0,0,1,0,28602.6,0.196363,0.196044,-0.184383,15,0.0199168,10,-3.61473e-05,-3.73428,-0.275586,-0.21409,1.53387,0.196044,
2,0,0,1,0,28604.1,0.188871,0.188534,-0.194275,15,0.0196122,10,-3.66275e-05,-3.71158,-0.257275,-0.229327,1.73755,0.188534,
2,0,0,1,0,28605.6,0.181381,0.181073,-0.206346,15,0.0192904,10,-3.73635e-05,-3.6854,-0.297546,-0.198289,1.5961,0.181073,
2,0,0,1,0,28607.1,0.173889,0.173536,-0.221534,15,0.0189488,10,-3.8444e-05,-3.65456,-0.224832,-0.262418,2.25565,0.173536,
2,0,0,1,0,28608.6,0.166398,0.166046,-0.239815,15,0.0185828,10,-3.98204e-05,-3.62012,-0.191431,-0.308205,2.89271,0.166046,
2,0,0,1,0,28610.1,0.158907,0.158584,-0.264125,15,0.0181846,10,-4.18859e-05,-3.57819,-0.151612,-0.389151,4.02895,0.158584,
2,0,0,1,0,28611.6,0.151416,0.151092,-0.303568,15,0.0177397,10,-4.58667e-05,-3.51774,-0.106823,-0.552317,6.54728,0.1510921,
2,0,0,1,0,28613.1,0.143925,0.14358,-0.36921,15,0.0172181,10,-5.30111e-05,-3.43273,-0.0740728,-0.796513,11.4499,0.14358,
2,0,0,1,0,28614.6,0.136434,0.136092,-0.465741,15,0.0165741,10,-6.33834e-05,-3.33186,-0.0751817,-0.784765,14.1584,0.136092,
2,0,0,1,0,28616.1,0.128943,0.128647,-0.561819,15,0.01578,10,-7.22765e-05,-3.2504,-0.120504,-0.48961,10.67,0.128647,
2,0,0,0,0,28617.6,0.121453,0.121108,-0.621073,15,0.0148652,10,-7.52171e-05,-3.20686,-0.315463,-0.187027,4.51994,0.121108,
2,0,0,1,0,28619,0.113962,0.113646,-0.631659,15,0.0138976,10,-7.17856e-05,-3.19952,2.64972,0.0222665,-0.550616,0.113646,
2,0,0,0,0,28620.5,0.106471,0.106153,-0.624527,15,0.0129301,10,-6.62956e-05,-3.20445,0.86176,0.0684645,-1.67284,0.106153,
2,0,0,1,0,28622,0.0989799,0.0986986,-0.608791,15,0.011982,10,-6.00868e-05,-3.21553,0.697633,0.0845716,-2.00536,0.0986986,
2,0,0,0,0,28623.5,0.0914889,0.0911496,-0.590981,15,0.0110616,10,-5.38676e-05,-3.22843,0.502281,0.117464,-2.69884,0.0911496,
2,0,0,1,0,28625,0.083998,0.0836525,-0.567219,15,0.0101726,10,-4.74493e-05,-3.24625,0.374488,0.157548,-3.48351,0.0836525,
2,0,0,0,0,28626.5,0.076507,0.0761682,-0.547152,15,0.00931515,10,-4.16755e-05,-3.26189,0.502457,0.117423,-2.50759,0.0761682,
2,0,0,1,0,28628,0.0690161,0.06867,-0.528548,15,0.00848685,10,-3.62954e-05,-3.27692,0.554299,0.106441,-2.20133,0.06867,
2,0,0,0,0,28629.5,0.0615251,0.0612016,-0.512216,15,0.00768384,10,-3.13484e-05,-3.29055,0.5098,0.115732,-2.31931,0.0612016,
2,0,0,1,0,28631,0.0540342,0.0537172,-0.496584,15,0.00690576,10,-2.66751e-05,-3.30401,0.571871,0.10317,-1.99589,0.0537172,
2,0,0,1,0,28632.5,0.0465436,0.0462378,-0.478935,15,0.00615242,10,-2.21449e-05,-3.31972,0.59776,0.0987019,-1.84888,0.0462378,
2,0,0,1,0,28634,0.0390526,0.0386854,-0.462591,15,0.00542459,10,-1.78955e-05,-3.3348,0.372701,0.158304,-2.85129,0.0386854,
2,0,0,1,0,28635.5,0.0315615,0.0312221,-0.445416,15,0.0047227,10,-1.39068e-05,-3.35123,0.455775,0.12945,-2.24538,0.0312221,
2,0,0,1,0,28637,0.0240706,0.0237163,-0.429366,15,0.00404547,10,-1.0183e-05,-3.36717,0.72932,0.0808972,-1.36142,0.0237163,
2,0,0,1,0,28638.5,0.0165795,0.0162424,-0.419227,15,0.00338823,10,-6.80927e-06,-3.37755,0.824167,0.0715875,-1.17331,0.0162424,
2,0,0,1,0,28640,0.00908846,0.00878154,-0.413404,15,0.00274381,10,-3.63032e-06,-3.38363,3.12938,0.0188536,-0.304497,0.00878154,
2,0,0,1,0,28641.5,0.00159739,0.00126502,-0.418065,15,0.00210149,10,-5.28862e-07,-3.37876, , , ,0.00126502,
2,0,0,0,0,28641.8,0.000199195,-0.000178351,-0.415414,15,0.00198112,10,7.40897e-08,-3.38152, , , ,-0.000178351,