File: Figure_codes/Fig_3-5/rawdata_trumpetplot_data/after 10th/20221101_1-115_003_TrumpetPlot_ParaChange_from10_every3_02_CV_C01_14.csv
mode,ox/red,error,control changes,counter inc.,time/s,control/V,Ewe/V,<I>/mA,cycle number,(Q-Qo)/C,I Range,P/W,log(|I|),Tafel slope mV/dec,alpha_eff,dI/d(E-IR),E-IR/V,
2,0,0,1,0,27921.9,2.44065e-05,-0.000363498,-0.381156,15,0.0000000E+000,10,1.3855e-07,-3.4189, , , ,-0.000363498,
2,0,0,1,0,27929.1,0.00729061,0.00696389,-0.0948135,15,-0.000954457,10,-6.60271e-07,-4.02313,-0.0302809,-1.94842,7.31563,0.00696389,
2,0,0,1,0,27936.6,0.0147815,0.0144651,-0.0585432,15,-0.00143152,10,-8.46836e-07,-4.23252,-0.0396223,-1.48906,3.4225,0.01446513,
2,0,0,1,0,27944.1,0.0222725,0.0219273,-0.0373115,15,-0.00170664,10,-8.18139e-07,-4.42816,-0.0361668,-1.63133,2.39521,0.0219273,
2,0,0,1,0,27951.6,0.0297635,0.0294392,-0.0223229,15,-0.00184897,10,-6.57168e-07,-4.65125,-0.027935,-2.11204,1.82524,0.0294392,
2,0,0,1,0,27959.1,0.0372544,0.0369204,-0.00941926,15,-0.0018818,10,-3.47763e-07,-5.02598,-0.0118937,-4.96059,1.619,0.0369204,
2,0,0,1,0,27966.6,0.0447454,0.044444,0.00228361,15,-0.0018214,10,1.01493e-07,-5.64138,0.0049859,11.8334,1.37173,0.044444,
2,0,0,1,0,27974.1,0.0522363,0.0518976,0.0123449,15,-0.00167985,10,6.40669e-07,-4.90851,0.0186951,3.15591,1.49817,0.0518976,
2,1,0,1,0,27981.6,0.0597273,0.0594022,0.0221584,15,-0.00146238,10,1.31626e-06,-4.65446,0.0419494,1.40646,1.17524,0.0594022,
2,1,0,1,0,27989,0.0672183,0.0669194,0.0304438,15,-0.00117914,10,2.03728e-06,-4.5165,0.0588063,1.00329,1.17534,0.0669194,
2,1,0,1,0,27996.5,0.0747092,0.074392,0.0376619,15,-0.000836367,10,2.80174e-06,-4.4241,0.0991328,0.595161,0.869831,0.074392,
2,1,0,1,0,28004,0.0822001,0.0818773,0.043916,15,-0.000438252,10,3.59572e-06,-4.35738,0.100401,0.587644,1.03468,0.0818773,
2,1,0,1,0,28011.5,0.0896911,0.0893554,0.0531692,15,1.75909e-05,10,4.75096e-06,-4.27434,0.0886482,0.665552,1.39962,0.0893554,
2,1,0,1,0,28019,0.0971821,0.0968716,0.0632711,15,0.000546467,10,6.12917e-06,-4.19879,0.0884023,0.667404,1.65053,0.0968716,
2,1,0,1,0,28026.5,0.104673,0.104291,0.0749566,15,0.00115402,10,7.81732e-06,-4.12519,0.124418,0.474209,1.36946,0.1042912,
2,1,0,1,0,28034,0.112164,0.111852,0.0840983,15,0.00183962,10,9.40655e-06,-4.07521,0.208838,0.282515,0.921251,0.111852,
2,1,0,1,0,28041.5,0.119655,0.119343,0.0926787,15,0.00259213,10,1.10605e-05,-4.03302,0.199189,0.296201,1.0671,0.1193426,
2,1,0,1,0,28049,0.127146,0.126817,0.0986801,15,0.00340616,10,1.25144e-05,-4.00577,0.35829,0.164671,0.638663,0.126817,
2,1,0,1,0,28056.5,0.134637,0.134335,0.0992527,15,0.00425378,10,1.33331e-05,-4.00326,-0.217563,-0.271185,-1.04914,0.134335,
2,1,0,1,0,28064,0.142128,0.141836,0.084833,15,0.00504195,10,1.20324e-05,-4.07144,-0.0750075,-0.786588,-2.57774,0.141836,
2,1,0,1,0,28071.4,0.149619,0.149284,0.06568,15,0.00568644,10,9.805e-06,-4.18257,-0.0793797,-0.743263,-1.89783,0.149284,
2,1,0,1,0,28078.9,0.15711,0.156785,0.05594,15,0.00621907,10,8.77052e-06,-4.25228,-0.12556,-0.469893,-1.02657,0.156785,
2,1,0,1,0,28086.4,0.164601,0.164235,0.0519717,15,0.00670224,10,8.53557e-06,-4.28423,-0.483032,-0.122145,-0.246304,0.164235,
2,1,0,1,0,28093.9,0.172091,0.171789,0.0505926,15,0.00716611,10,8.69127e-06,-4.29591,-1.25081,-0.0471694,-0.0936281,0.171789,
2,1,0,1,0,28101.4,0.179582,0.179261,0.0503383,15,0.00762298,10,9.02369e-06,-4.2981,2.78217,0.0212065,0.0415357,0.179261,
2,1,0,1,0,28108.9,0.187073,0.186741,0.0508107,15,0.00807936,10,9.48844e-06,-4.29405,2.96837,0.0198762,0.0393158,0.186741,
2,1,0,1,0,28116.4,0.194564,0.194235,0.0507497,15,0.00853806,10,9.85736e-06,-4.29457,1.50569,0.0391846,0.0773852,0.194235,
2,1,0,1,0,28123.9,0.202055,0.20176,0.0517271,15,0.00899859,10,1.04364e-05,-4.28628,0.767785,0.0768445,0.154203,0.20176,
2,1,0,1,0,28131.4,0.209546,0.209268,0.052026,15,0.00946567,10,1.08874e-05,-4.28378,3.97197,0.0148541,0.0302051,0.209268,
2,1,0,1,0,28138.9,0.217037,0.216703,0.0535343,15,0.00993618,10,1.1601e-05,-4.27137,0.630568,0.0935664,0.194538,0.216703,
2,1,0,1,0,28146.4,0.224528,0.224235,0.0541792,15,0.0104144,10,1.21489e-05,-4.26617,1.18262,0.0498891,0.104557,0.224235,
2,1,0,1,0,28153.9,0.232019,0.231732,0.054903,15,0.0108985,10,1.27228e-05,-4.2604,1.57514,0.0374571,0.080395,0.231732,
2,1,0,1,0,28161.3,0.23951,0.239203,0.0552911,15,0.0113879,10,1.32258e-05,-4.25734,0.659882,0.0894099,0.193833,0.239203,
2,1,0,1,0,28168.8,0.247001,0.246684,0.0569958,15,0.0118828,10,1.40599e-05,-4.24416,1.01285,0.0582517,0.128825,0.2466836,
2,1,0,1,0,28176.3,0.254492,0.254169,0.0576905,15,0.0123859,10,1.46632e-05,-4.2389,0.626263,0.0942096,0.212369,0.254169,
2,1,0,1,0,28183.8,0.261983,0.261645,0.0587044,15,0.0128963,10,1.53597e-05,-4.23133,1.69254,0.0348589,0.0799113,0.2616449,
2,1,0,1,0,28191.3,0.269474,0.269153,0.0593697,15,0.0134123,10,1.59795e-05,-4.22644,1.53878,0.0383421,0.0883399,0.269153,
2,1,0,1,0,28198.8,0.276965,0.27665,0.0605829,15,0.0139332,10,1.67602e-05,-4.21765,1.04797,0.0562996,0.133098,0.27665,
2,1,0,1,0,28206.3,0.284456,0.284165,0.0617363,15,0.0144609,10,1.75433e-05,-4.20946,1.45876,0.0404453,0.0968458,0.284165,
2,1,0,1,0,28213.8,0.291947,0.291629,0.0621823,15,0.0149939,10,1.81341e-05,-4.20633,0.756048,0.0780373,0.188409,0.291629,
2,1,0,1,0,28221.3,0.299438,0.299165,0.0625827,15,0.0155313,10,1.87226e-05,-4.20355,-0.00471159,-12.5223,-20.1501,0.299165,
2,1,0,1,0,28228.1,0.293745,0.293438,0.00900013,15,0.0156224,10,2.64098e-06,-5.04575,0.0140937,4.18627,1.59796,0.293438,
2,0,0,1,0,28235.6,0.286254,0.285958,0.00151517,15,0.0155903,10,4.33275e-07,-5.81954,0.00863522,6.83249,0.927106,0.285958,
2,1,0,1,0,28243.1,0.278763,0.278429,-0.00442443,15,0.0155062,10,-1.23189e-06,-5.35414,-0.018633,-3.16642,0.540283,0.278429,
2,0,0,1,0,28250.6,0.271272,0.270915,-0.0093352,15,0.0153841,10,-2.52905e-06,-5.02988,-0.0399032,-1.47858,0.541493,0.270915,
2,0,0,1,0,28258.1,0.263781,0.263504,-0.0127997,15,0.0152298,10,-3.37277e-06,-4.8928,-0.0514628,-1.14646,0.581302,0.263504,
2,0,0,1,0,28265.6,0.25629,0.255964,-0.016537,15,0.0150471,10,-4.23288e-06,-4.78154,-0.0833643,-0.707737,0.449305,0.255964,
2,0,0,1,0,28273.1,0.248799,0.248476,-0.0200549,15,0.0148386,10,-4.98315e-06,-4.69778,-0.112834,-0.522893,0.408362,0.2484757,
2,0,0,1,0,28280.5,0.241308,0.241021,-0.0225363,15,0.0146071,10,-5.43172e-06,-4.64712,-0.119106,-0.495356,0.436347,0.241021,
2,0,0,1,0,28288,0.233817,0.233514,-0.0258291,15,0.0143521,10,-6.03147e-06,-4.58789,-0.187266,-0.315061,0.31403,0.233514,
2,0,0,1,0,28295.5,0.226326,0.225989,-0.0277022,15,0.014077,10,-6.26038e-06,-4.55749,-0.158064,-0.373268,0.408361,0.225989,
2,0,0,1,0,28303,0.218835,0.218569,-0.0309468,15,0.0137807,10,-6.76401e-06,-4.50938,-0.180867,-0.326206,0.396371,0.218569,
2,0,0,1,0,28310.5,0.211344,0.211046,-0.0336087,15,0.0134625,10,-7.09297e-06,-4.47355,-0.233929,-0.252213,0.331195,0.211046,
2,0,0,1,0,28318,0.203853,0.20351,-0.0361733,15,0.0131239,10,-7.36164e-06,-4.44161,-0.196867,-0.299694,0.428696,0.20351,
2,0,0,1,0,28325.5,0.196362,0.19605,-0.0390813,15,0.0127633,10,-7.66189e-06,-4.40803,-0.281282,-0.209754,0.320129,0.19605,
2,0,0,1,0,28333,0.188871,0.18852,-0.0425528,15,0.0123789,10,-8.02206e-06,-4.37107,-0.18436,-0.320026,0.530794,0.18852,
2,0,0,1,0,28340.5,0.18138,0.181062,-0.0460101,15,0.0119696,10,-8.3307e-06,-4.33715,-0.166716,-0.353895,0.63322,0.181062,
2,0,0,1,0,28348,0.173889,0.173572,-0.0504215,15,0.0115306,10,-8.75175e-06,-4.29738,-0.135712,-0.434743,0.852242,0.1735718,
2,0,0,1,0,28355.5,0.166398,0.166068,-0.0556208,15,0.0110534,10,-9.23686e-06,-4.25476,-0.188198,-0.313499,0.681091,0.1660683,
2,0,0,1,0,28362.9,0.158907,0.15858,-0.062291,15,0.0105287,10,-9.8781e-06,-4.20557,-0.126949,-0.464753,1.13928,0.15858,
2,0,0,1,0,28370.4,0.151417,0.151076,-0.0727631,15,0.00993741,10,-1.09928e-05,-4.13809,-0.107395,-0.549372,1.5742,0.151076,
2,0,0,1,0,28377.9,0.143926,0.143636,-0.0902078,15,0.00924601,10,-1.2957e-05,-4.04476,-0.068203,-0.865064,3.03928,0.143636,
2,0,0,1,0,28385.4,0.136435,0.136095,-0.113794,15,0.00839653,10,-1.54867e-05,-3.94388,-0.0807939,-0.730253,3.22132,0.136095,
2,0,0,1,0,28392.9,0.128944,0.128597,-0.135563,15,0.00736722,10,-1.74329e-05,-3.86786,-0.148477,-0.397367,2.0916,0.128597,
2,0,0,1,0,28400.4,0.121453,0.121094,-0.144509,15,0.00621741,10,-1.74993e-05,-3.8401,-1.0554,-0.0559031,0.314792,0.121094,
2,0,0,1,0,28407.9,0.113962,0.113634,-0.144598,15,0.00503912,10,-1.64313e-05,-3.83984,2.13637,0.0276169,-0.155976,0.113634,
2,0,0,1,0,28415.4,0.106471,0.106166,-0.143195,15,0.0038682,10,-1.52024e-05,-3.84407,1.257,0.0469371,-0.263809,0.106166,
2,0,0,1,0,28422.9,0.0989798,0.0986848,-0.140323,15,0.00271416,10,-1.38478e-05,-3.85287,0.626457,0.0941805,-0.514878,0.0986848,
2,0,0,1,0,28430.4,0.0914889,0.0911729,-0.135506,15,0.00159151,10,-1.23545e-05,-3.86804,0.377133,0.156443,-0.826487,0.0911729,
2,0,0,1,0,28437.9,0.083998,0.0836802,-0.130027,15,0.000509374,10,-1.08807e-05,-3.88597,0.333941,0.176678,-0.894608,0.0836802,
2,0,0,1,0,28445.3,0.076507,0.0761544,-0.125635,15,-0.000534697,10,-9.56767e-06,-3.90089,0.553899,0.106518,-0.519668,0.0761544,
2,0,0,1,0,28452.8,0.069016,0.0687442,-0.121788,15,-0.00154756,10,-8.37225e-06,-3.91439,0.517594,0.113989,-0.541841,0.06874422,
2,0,0,1,0,28460.3,0.0615251,0.0611677,-0.118984,15,-0.00253914,10,-7.27798e-06,-3.92451,0.759809,0.0776511,-0.361231,0.0611677,
2,0,0,1,0,28467.8,0.0540342,0.0536813,-0.116948,15,-0.00350978,10,-6.27793e-06,-3.93201,0.600001,0.0983331,-0.446542,0.0536813,
2,0,0,1,0,28475.3,0.0465432,0.0462106,-0.113922,15,-0.00446016,10,-5.26442e-06,-3.94339,0.739854,0.0797454,-0.354451,0.0462106,
2,0,0,1,0,28482.8,0.0390522,0.0386743,-0.111081,15,-0.0053886,10,-4.29596e-06,-3.95436,0.758099,0.0778262,-0.33764,0.0386743,
2,0,0,1,0,28490.3,0.0315613,0.0311752,-0.107736,15,-0.00629344,10,-3.35868e-06,-3.96764,0.570667,0.103388,-0.434647,0.0311752,
2,0,0,1,0,28497.8,0.0240703,0.02373,-0.106073,15,-0.00717964,10,-2.5171e-06,-3.9744,0.692795,0.0851623,-0.354258,0.02373,
2,0,0,1,0,28505.3,0.0165794,0.0162362,-0.105574,15,-0.00805546,10,-1.71411e-06,-3.97644,2.76213,0.0213603,-0.08805,0.0162362,
2,0,0,1,0,28512.8,0.00908843,0.00875601,-0.106459,15,-0.00893217,10,-9.32153e-07,-3.97282,-10.1863,-0.00579208,0.0241223,0.00875601,
2,0,0,1,0,28520.3,0.00159744,0.00121641,-0.110068,15,-0.00982366,10,-1.33889e-07,-3.95834, , , ,0.00121641,
2,0,0,1,0,28521.7,0.000199235,-0.000161087,-0.109564,15,-0.00999209,10,1.76494e-08,-3.96033, , , ,-0.000161087,