File: Figure_codes/Fig_3-5/rawdata_trumpetplot_data/after 10th/20221101_1-115_003_TrumpetPlot_ParaChange_from10_every3_09_CV_C01_20.csv
mode,ox/red,error,control changes,counter inc.,time/s,control/V,Ewe/V,<I>/mA,cycle number,(Q-Qo)/C,I Range,P/W,log(|I|),Tafel slope mV/dec,alpha_eff,dI/d(E-IR),E-IR/V,
2,0,0,0,0,40585.1,2.44065e-05,-0.000344411,-5.33521,21,0.0000000E+000,10,1.8375e-06,-2.27285, , , ,-0.000344411,
2,1,0,1,0,40585.2,0.00978761,0.00944652,0.885631,21,-0.000133049,10,8.36613e-06,-3.05275,0.00511611,11.5322,292.876,0.00944652,
2,1,0,1,0,40585.3,0.0197755,0.019433,2.74532,21,6.24974e-05,10,5.33497e-05,-2.56141,0.0524169,1.12559,119.773,0.019433,
2,1,0,1,0,40585.4,0.0297635,0.0294565,3.67591,21,0.000387882,10,0.00010828,-2.43464,0.115508,0.510787,73.0845,0.0294565,
2,1,0,1,0,40585.5,0.0397514,0.0394269,4.32012,21,0.00078924,10,0.000170329,-2.3645,0.163543,0.360761,60.8487,0.0394269,
2,1,0,1,0,40585.6,0.0497484,0.0494331,4.88287,21,0.00125018,10,0.000241375,-2.31133,0.209861,0.281138,53.4987,0.0494331,
2,1,0,1,0,40585.7,0.0597273,0.059441,5.38976,21,0.0017637,10,0.000320372,-2.26843,0.244663,0.241148,50.6819,0.059441,
2,1,0,1,0,40585.8,0.0697152,0.0694098,5.8526,21,0.00232645,10,0.000406228,-2.23265,0.321066,0.183763,41.9913,0.0694098,
2,1,0,1,0,40585.9,0.0797031,0.0793933,6.26845,21,0.00293316,10,0.000497673,-2.20284,0.366172,0.161127,39.4036,0.07939329,
2,1,0,1,0,40586,0.0896911,0.0893643,6.62178,21,0.00357819,10,0.000591751,-2.17903,0.435975,0.135329,34.9813,0.08936432,
2,1,0,1,0,40586.1,0.099679,0.099403,6.98834,21,0.00425722,10,0.000694662,-2.15563,0.390101,0.151243,41.2263,0.099403,
2,1,0,1,0,40586.2,0.109667,0.109351,7.49656,21,0.00497928,10,0.000819755,-2.12514,0.278883,0.211558,61.945,0.109351,
2,1,0,1,0,40586.3,0.119655,0.119346,8.16912,21,0.00576201,10,0.000974947,-2.08782,0.283289,0.208268,66.4105,0.119346,
2,1,0,1,0,40586.4,0.129643,0.129327,8.81241,21,0.00661248,10,0.00113969,-2.05491,0.38173,0.15456,53.1256,0.129327,
2,1,0,1,0,40586.5,0.139631,0.139292,9.25464,21,0.00751746,10,0.00128909,-2.03364,0.606716,0.0972448,35.1237,0.139292,
2,1,0,1,0,40586.6,0.149619,0.149299,9.41082,21,0.00845338,10,0.00140503,-2.02637,-1.70046,-0.0346964,-12.723,0.149299,
2,1,0,1,0,40586.7,0.159607,0.159275,8.76489,21,0.00937078,10,0.00139602,-2.05725,-0.167156,-0.352964,-120.456,0.159275,
2,1,0,1,0,40586.8,0.169595,0.169279,7.26341,21,0.0101749,10,0.00122954,-2.13886,-0.105384,-0.559856,-158.595,0.169279,
2,1,0,1,0,40586.9,0.179582,0.179311,5.91136,21,0.0108287,10,0.00105997,-2.22831,-0.128228,-0.460117,-106.391,0.179311,
2,1,0,1,0,40587,0.18957,0.189294,5.09363,21,0.0113751,10,0.000964196,-2.29297,-0.19064,-0.309484,-61.5495,0.189294,
2,1,0,1,0,40587.1,0.199558,0.199218,4.61231,21,0.0118578,10,0.000918855,-2.33608,-0.293275,-0.201177,-36.2111,0.199218,
2,1,0,1,0,40587.2,0.209546,0.209217,4.3257,21,0.0123033,10,0.000905009,-2.36394,-0.386465,-0.152666,-25.7768,0.209217,
2,1,0,1,0,40587.3,0.219534,0.219227,4.13149,21,0.0127252,10,0.000905732,-2.38389,-0.639787,-0.0922181,-14.8678,0.219227,
2,1,0,1,0,40587.4,0.229522,0.22925,3.99824,21,0.0131315,10,0.000916599,-2.39813,-0.875949,-0.0673555,-10.5163,0.22925,
2,1,0,1,0,40587.5,0.23951,0.239218,3.90456,21,0.0135268,10,0.000934042,-2.40843,-1.31376,-0.0449094,-6.8509,0.239218,
2,1,0,1,0,40587.6,0.249498,0.24918,3.84299,21,0.0139138,10,0.000957597,-2.41533,-1.48617,-0.0396992,-5.95348,0.24918,
2,1,0,1,0,40587.7,0.259486,0.259156,3.78487,21,0.0142948,10,0.000980871,-2.42195,-1.1881,-0.0496593,-7.33105,0.2591559,
2,1,0,1,0,40587.8,0.269474,0.269161,3.73073,21,0.0146705,10,0.00100417,-2.42821,-2.24564,-0.0262732,-3.82916,0.269161,
2,1,0,1,0,40587.9,0.279462,0.279148,3.68458,21,0.0150415,10,0.00102854,-2.43361,-2.08173,-0.0283418,-4.07883,0.279148,
2,1,0,1,0,40588,0.28945,0.289145,3.6402,21,0.0154079,10,0.00105255,-2.43887,-2.59119,-0.0227695,-3.23599,0.289145,
2,1,0,1,0,40588.1,0.299438,0.299106,3.59953,21,0.0157696,10,0.00107664,-2.44375,-0.0362039,-1.62966,-214.115,0.299106,
2,0,0,1,0,40588.2,0.291747,0.291399,-0.523676,21,0.0158566,10,-0.000152598,-3.28094,-0.00470185,-12.5483,180.06,0.291399,
2,0,0,1,0,40588.3,0.281759,0.281437,-1.48842,21,0.0157469,10,-0.000418895,-2.82728,-0.060627,-0.973164,55.9845,0.281437,
2,0,0,1,0,40588.4,0.271771,0.271439,-1.89165,21,0.0155764,10,-0.000513469,-2.72316,-0.130767,-0.451185,33.2677,0.271439,
2,0,0,1,0,40588.5,0.261783,0.261465,-2.15008,21,0.0153739,10,-0.00056217,-2.66755,-0.239539,-0.246307,20.6523,0.261465,
2,0,0,1,0,40588.6,0.251795,0.251488,-2.346,21,0.0151491,10,-0.000589991,-2.62967,-0.2909,-0.202819,18.5557,0.251488,
2,0,0,1,0,40588.7,0.241807,0.241466,-2.50409,21,0.0149067,10,-0.000604654,-2.60135,-0.394275,-0.149642,14.6579,0.241466,
2,0,0,1,0,40588.8,0.231815,0.231482,-2.65178,21,0.0146494,10,-0.00061384,-2.57646,-0.399939,-0.147523,15.2555,0.231482,
2,0,0,1,0,40588.9,0.221831,0.221491,-2.77929,21,0.0143787,10,-0.000615587,-2.55607,-0.458759,-0.128608,13.9454,0.221491,
2,0,0,1,0,40589,0.211843,0.211556,-2.90407,21,0.0140949,10,-0.000614373,-2.53699,-0.634794,-0.0929435,10.536,0.211556,
2,0,0,1,0,40589.1,0.201856,0.201533,-3.03101,21,0.0137986,10,-0.00061085,-2.51841,-0.616067,-0.0957687,11.328,0.201533,
2,0,0,1,0,40589.2,0.191868,0.191545,-3.16442,21,0.0134897,10,-0.000606128,-2.49971,-0.506146,-0.116567,14.408,0.191545,
2,0,0,1,0,40589.3,0.18188,0.181576,-3.3146,21,0.0131672,10,-0.000601851,-2.47957,-0.429287,-0.137437,17.7448,0.181576,
2,0,0,1,0,40589.4,0.171892,0.171556,-3.49022,21,0.0128283,10,-0.000598769,-2.45715,-0.399549,-0.147666,20.106,0.1715564,
2,0,0,1,0,40589.5,0.161904,0.161578,-3.73311,21,0.0124687,10,-0.000603188,-2.42793,-0.294332,-0.200454,29.1976,0.161578,
2,0,0,1,0,40589.6,0.151916,0.151572,-4.09686,21,0.0120792,10,-0.000620968,-2.38755,-0.200355,-0.294477,47.2254,0.151572,
2,0,0,1,0,40589.7,0.141928,0.141635,-4.76259,21,0.01164,10,-0.000674549,-2.32216,-0.125245,-0.471077,87.6305,0.141635,
2,0,0,1,0,40589.8,0.13194,0.131628,-5.8544,21,0.0111143,10,-0.000770605,-2.23252,-0.105234,-0.560657,128.015,0.1316282,
2,0,0,1,0,40589.9,0.121952,0.121638,-7.14816,21,0.010465,10,-0.00086949,-2.14581,-0.133443,-0.442135,123.144,0.1216383,
2,0,0,1,0,40590,0.111964,0.111628,-8.26966,21,0.00969276,10,-0.000923129,-2.08251,-0.192159,-0.307037,98.9933,0.111628,
2,0,0,1,0,40590.1,0.101976,0.101633,-9.06758,21,0.00882374,10,-0.000921562,-2.04251,-0.361912,-0.163023,57.606,0.101633,
2,0,0,1,0,40590.2,0.0919883,0.0916581,-9.40115,21,0.00789758,10,-0.000861691,-2.02682,-1.8771,-0.0314315,11.5241,0.0916581,
2,0,0,1,0,40590.3,0.0820004,0.0816813,-9.28589,21,0.00696215,10,-0.000758483,-2.03218,0.842344,0.0700426,-25.3625,0.0816813,
2,0,0,1,0,40590.4,0.0720124,0.0717289,-8.97413,21,0.00605041,10,-0.000643704,-2.04701,0.659875,0.0894109,-31.3283,0.07172887,
2,0,0,1,0,40590.5,0.0620245,0.0616956,-8.703,21,0.00516849,10,-0.000536937,-2.06033,0.760605,0.0775698,-26.3427,0.0616956,
2,0,0,1,0,40590.6,0.0520366,0.0516998,-8.46304,21,0.00431126,10,-0.000437537,-2.07247,0.810518,0.0727929,-24.0362,0.0516998,
2,0,0,1,0,40590.7,0.0420486,0.0416796,-8.20622,21,0.00347855,10,-0.000342032,-2.08586,0.71337,0.0827061,-26.4922,0.0416796,
2,0,0,1,0,40590.8,0.0320607,0.0317621,-7.90955,21,0.00267417,10,-0.000251224,-2.10185,0.550896,0.107098,-33.0293,0.0317621,
2,0,0,1,0,40590.9,0.0220728,0.0217227,-7.54229,21,0.00190225,10,-0.000163839,-2.1225,0.430484,0.137055,-40.3436,0.0217227,
2,0,0,1,0,40591,0.0120848,0.0117184,-7.16376,21,0.00116837,10,-8.39475e-05,-2.14486,0.420507,0.140307,-39.2023,0.0117184,
2,0,0,1,0,40591.1,0.0020969,0.00173958,-6.86721,21,0.000470687,10,-1.1946e-05,-2.16322,0.701519,0.0841032,-22.4574,0.00173958,
2,0,0,1,0,40591.2,-0.00789103,-0.00823121,-6.62472,21,-0.000201383,10,5.45295e-05,-2.17883,1.08211,0.0545233,-14.1181,-0.00823121,
2,0,0,1,0,40591.3,-0.017879,-0.0182516,-6.55666,21,-0.000857831,10,0.00011967,-2.18332,31.8999,0.00184954,-0.472732,-0.0182516,
2,0,0,1,0,40591.4,-0.0278669,-0.0282631,-6.58712,21,-0.00151291,10,0.000186172,-2.1813,-2.53932,-0.0232346,5.97573,-0.0282631,
2,0,0,1,0,40591.5,-0.0378548,-0.0382245,-6.71679,21,-0.00217645,10,0.000256745,-2.17284,-0.943616,-0.0625254,16.391,-0.0382245,
2,0,0,1,0,40591.6,-0.0478428,-0.0482306,-6.90186,21,-0.00285621,10,0.000332881,-2.16103,-0.612554,-0.096318,25.9871,-0.0482306,
2,0,0,1,0,40591.7,-0.0578217,-0.0582016,-7.17313,21,-0.00355823,10,0.000417488,-2.14429,-0.568183,-0.10384,29.0684,-0.0582016,
2,0,0,1,0,40591.8,-0.0678187,-0.0682077,-7.49415,21,-0.00429007,10,0.000511159,-2.12528,-0.464876,-0.126916,37.1214,-0.0682077,
2,0,0,1,0,40591.9,-0.0778066,-0.0781994,-7.89004,21,-0.00505794,10,0.000616997,-2.10292,-0.431996,-0.136575,42.0836,-0.0781994,
2,0,0,1,0,40592,-0.0877945,-0.0881706,-8.36513,21,-0.00586932,10,0.000737558,-2.07753,-0.371499,-0.158816,51.8461,-0.0881706,
2,0,0,1,0,40592.1,-0.0977825,-0.0981275,-8.86837,21,-0.00673012,10,0.00087023,-2.05216,-0.395532,-0.149166,51.6466,-0.0981275,
2,0,0,1,1,40592.2,-0.0927386,-0.0930962,-2.99464,21,-0.00731731,10,0.00027879,-2.52366,-0.0137442,-4.29271,497.411,-0.0930962,
2,1,0,1,1,40592.3,-0.0827529,-0.0831283,0.513574,21,-0.00742069,10,-4.26926e-05,-3.2894,0.00218683,26.9796,249.122,-0.0831283,
2,1,0,1,1,40592.4,-0.0727627,-0.0731045,2.43835,21,-0.00726461,10,-0.000178254,-2.6129,0.0371648,1.58753,149.082,-0.0731045,
2,1,0,1,1,40592.5,-0.0627748,-0.0631404,3.60276,21,-0.00695805,10,-0.00022748,-2.44336,0.0893774,0.660122,92.5757,-0.0631404,
2,1,0,1,1,40592.6,-0.0527868,-0.0531437,4.32352,21,-0.00655873,10,-0.000229768,-2.36416,0.180475,0.326914,55.0905,-0.0531437,
2,1,0,1,1,40592.7,-0.0427989,-0.0431534,4.76528,21,-0.00610245,10,-0.000205638,-2.32191,0.298032,0.197965,36.8072,-0.0431534,
2,1,0,1,1,40592.8,-0.0328109,-0.0331516,5.02124,21,-0.00561263,10,-0.000166462,-2.29919,0.638435,0.0924135,18.0975,-0.0331516,
2,1,0,1,1,40592.9,-0.022823,-0.0231683,5.14523,21,-0.00510401,10,-0.000119206,-2.28859,1.45677,0.0405005,8.13145,-0.0231683,
2,1,0,1,1,40593,-0.0128351,-0.0131976,5.19035,21,-0.00458712,10,-6.84999e-05,-2.2848,9.54954,0.00617831,1.25199,-0.0131976,
2,1,0,1,1,40593.1,-0.00284713,-0.00320295,5.20127,21,-0.00406776,10,-1.66594e-05,-2.28389,-26.1352,-0.00225749,-0.45801,-0.00320295,
2,1,0,1,1,40593.1,-2.55332e-05,-0.000382585,5.22101,21,-0.00392163,10,-1.99748e-06,-2.28225, , , ,-0.000382585,