File: Figure_codes/Fig_3-5/rawdata_trumpetplot_data/after 10th/20221101_1-115_003_TrumpetPlot_ParaChange_from10_every3_05_CV_C01_29.csv
mode,ox/red,error,control changes,counter inc.,time/s,control/V,Ewe/V,<I>/mA,cycle number,(Q-Qo)/C,I Range,P/W,log(|I|),Tafel slope mV/dec,alpha_eff,dI/d(E-IR),E-IR/V,
2,0,0,1,0,58253.8,2.44065e-05,-0.000401673,-0.746238,30,0.0000000E+000,10,2.99744e-07,-3.12712, , , ,-0.000401673,
2,1,0,1,0,58254.2,0.00729063,0.00693225,0.628946,30,0.000113401,10,4.36001e-06,-3.20139,0.0371042,1.59012,37.9432,0.00693225,
2,1,0,1,0,58254.5,0.0147802,0.0144056,0.797563,30,0.000390659,10,1.14894e-05,-3.09823,0.109963,0.536545,16.6538,0.0144056,
2,1,0,1,0,58254.9,0.0222725,0.0219274,0.898747,30,0.000714787,10,1.97072e-05,-3.04636,0.16262,0.362809,12.7176,0.02192742,
2,1,0,1,0,58255.3,0.0297644,0.0294223,0.987067,30,0.00107395,10,2.90417e-05,-3.00565,0.195964,0.301075,11.5862,0.0294223,
2,1,0,1,0,58255.7,0.0372544,0.0369067,1.07602,30,0.00146643,10,3.97123e-05,-2.96818,0.214015,0.275681,11.6022,0.0369067,
2,1,0,1,0,58256,0.0447449,0.0443832,1.16552,30,0.00189208,10,5.17294e-05,-2.93348,0.239824,0.246013,11.1854,0.0443832,
2,1,0,1,0,58256.4,0.0522363,0.0518976,1.24758,30,0.00235005,10,6.47466e-05,-2.90393,0.249149,0.236806,11.5476,0.0518976,
2,1,0,1,0,58256.8,0.0597291,0.059376,1.32657,30,0.00283832,10,7.87662e-05,-2.87727,0.299061,0.197284,10.1975,0.059376,
2,1,0,1,0,58257.2,0.0672182,0.0668766,1.39785,30,0.00335367,10,9.34838e-05,-2.85454,0.386149,0.152791,8.31033,0.0668766,
2,1,0,1,0,58257.5,0.0747092,0.0743485,1.45238,30,0.00389255,10,0.000107982,-2.83792,0.51955,0.11356,6.4283,0.0743485,
2,1,0,1,0,58257.9,0.0822001,0.0818519,1.49744,30,0.00445106,10,0.000122568,-2.82465,0.573139,0.102942,6.0268,0.0818519,
2,1,0,1,0,58258.3,0.0896911,0.0893387,1.55291,30,0.00502759,10,0.000138735,-2.80885,0.412115,0.143164,8.683,0.0893387,
2,1,0,1,0,58258.7,0.097182,0.0967887,1.63705,30,0.00562963,10,0.000158448,-2.78594,0.244983,0.240833,15.4028,0.09678866,
2,1,0,1,0,58259,0.104673,0.104297,1.77334,30,0.00627193,10,0.000184953,-2.75121,0.200581,0.294145,20.3245,0.104297,
2,1,0,1,0,58259.4,0.112164,0.111775,1.91755,30,0.00696892,10,0.000214335,-2.71725,0.254238,0.232066,17.3427,0.111775,
2,1,0,1,0,58259.8,0.119655,0.1193,2.0289,30,0.00771508,10,0.000242049,-2.69274,0.473061,0.12472,9.86035,0.1193,
2,1,0,1,0,58260.2,0.127146,0.126771,2.07913,30,0.00849162,10,0.000263572,-2.68212,1.1147,0.0529292,4.30192,0.126771,
2,1,0,1,0,58260.5,0.134637,0.134252,2.10329,30,0.00928283,10,0.00028237,-2.6771,-1.85419,-0.0318198,-2.60913,0.134252,
2,1,0,1,0,58260.9,0.142128,0.141751,2.01172,30,0.010065,10,0.000285163,-2.69643,-0.194871,-0.302764,-23.6839,0.141751,
2,1,0,1,0,58261.3,0.149619,0.149257,1.73473,30,0.0107771,10,0.000258921,-2.76077,-0.0879019,-0.671203,-45.328,0.149257,
2,1,0,1,0,58261.7,0.157108,0.156756,1.41279,30,0.0113689,10,0.000221464,-2.84992,-0.089053,-0.662526,-36.5169,0.156756,
2,1,0,1,0,58262,0.164601,0.164216,1.199,30,0.0118593,10,0.000196895,-2.92118,-0.128033,-0.46082,-21.6018,0.164216,
2,1,0,1,0,58262.4,0.172092,0.171704,1.08102,30,0.0122897,10,0.000185616,-2.96616,-0.234118,-0.25201,-10.6824,0.171704,
2,1,0,1,0,58262.8,0.179582,0.179231,1.02319,30,0.0126884,10,0.000183388,-2.99004,-0.368024,-0.160316,-6.42041,0.179231,
2,1,0,1,0,58263.2,0.187073,0.186722,0.988738,30,0.0130701,10,0.000184619,-3.00492,-0.658561,-0.0895892,-3.45668,0.1867222,
2,1,0,1,0,58263.5,0.194564,0.194193,0.967644,30,0.0134417,10,0.00018791,-3.01428,-1.11446,-0.0529404,-1.99678,0.194193,
2,1,0,1,0,58263.9,0.202057,0.20169,0.954041,30,0.0138066,10,0.00019242,-3.02043,-0.992431,-0.05945,-2.20741,0.20169,
2,1,0,1,0,58264.3,0.209546,0.20922,0.943517,30,0.0141667,10,0.000197403,-3.02525,-0.962338,-0.061309,-2.25595,0.20922,
2,1,0,1,0,58264.6,0.217037,0.21665,0.932541,30,0.0145229,10,0.000202035,-3.03033,-2.45277,-0.0240544,-0.876034,0.21665,
2,1,0,1,0,58265,0.224528,0.224192,0.926424,30,0.0148763,10,0.000207696,-3.03319,-1.9497,-0.0302611,-1.09269,0.224192,
2,1,0,1,0,58265.4,0.232019,0.231651,0.919475,30,0.0152272,10,0.000212998,-3.03646,-3.57475,-0.0165046,-0.593238,0.231651,
2,1,0,1,0,58265.8,0.23951,0.239155,0.916893,30,0.0155761,10,0.000219279,-3.03768,-2.26993,-0.0259919,-0.928205,0.239155,
2,1,0,1,0,58266.1,0.247001,0.246663,0.910538,30,0.0159229,10,0.000224596,-3.0407,-1.51004,-0.0390718,-1.3859,0.246663,
2,1,0,1,0,58266.5,0.254492,0.254138,0.905005,30,0.016268,10,0.000229996,-3.04335,-1.65089,-0.0357382,-1.26134,0.254138,
2,1,0,1,0,58266.9,0.261983,0.261628,0.898004,30,0.0166109,10,0.000234943,-3.04672,-2.28668,-0.0258016,-0.905118,0.261628,
2,1,0,1,0,58267.3,0.269474,0.269155,0.893736,30,0.0169518,10,0.000240554,-3.04879,-2.45944,-0.0239892,-0.836487,0.269155,
2,1,0,1,0,58267.6,0.276965,0.276618,0.885477,30,0.0172904,10,0.000244938,-3.05282,-1.80342,-0.0327156,-1.13295,0.2766175,
2,1,0,1,0,58268,0.284456,0.284135,0.881224,30,0.0176266,10,0.000250387,-3.05491,-2.54408,-0.0231911,-0.795924,0.284135,
2,1,0,1,0,58268.4,0.291947,0.291575,0.872842,30,0.01796,10,0.000254499,-3.05906,-1.3978,-0.042209,-1.43784,0.291575,
2,1,0,1,0,58268.8,0.299436,0.29909,0.864437,30,0.0182906,10,0.000258545,-3.06327,-0.00458722,-12.8618,-287.01,0.29909,
2,0,0,1,0,58269.1,0.293745,0.293413,-0.16199,30,0.0183277,10,-4.75299e-05,-3.79051,-0.0120985,-4.87662,26.9964,0.2934134,
2,0,0,1,0,58269.5,0.286254,0.285893,-0.278835,30,0.0182368,10,-7.97171e-05,-3.55465,-0.0600675,-0.982228,10.6577,0.285893,
2,0,0,1,0,58269.9,0.278763,0.27841,-0.343962,30,0.0181136,10,-9.57624e-05,-3.46349,-0.110963,-0.531707,7.16537,0.2784099,
2,0,0,1,0,58270.2,0.271272,0.27088,-0.395954,30,0.0179692,10,-0.000107256,-3.40236,-0.146818,-0.401857,6.20261,0.27088,
2,0,0,1,0,58270.6,0.263781,0.26337,-0.435851,30,0.017808,10,-0.00011479,-3.36066,-0.168267,-0.350632,5.9454,0.26337,
2,0,0,1,0,58271,0.25629,0.255892,-0.473062,30,0.0176326,10,-0.000121053,-3.32508,-0.255309,-0.231092,4.23826,0.2558924,
2,0,0,1,0,58271.4,0.248799,0.248422,-0.50368,30,0.0174445,10,-0.000125125,-3.29784,-0.313271,-0.188335,3.71047,0.248422,
2,0,0,1,0,58271.7,0.241308,0.240953,-0.530239,30,0.0172451,10,-0.000127763,-3.27553,-0.349823,-0.168657,3.50627,0.240953,
2,0,0,1,0,58272.1,0.233817,0.233459,-0.558181,30,0.0170352,10,-0.000130312,-3.25322,-0.320952,-0.183828,4.00817,0.233459,
2,0,0,1,0,58272.5,0.226326,0.22599,-0.58529,30,0.0168152,10,-0.000132269,-3.23263,-0.362145,-0.162918,3.72726,0.22599,
2,0,0,1,0,58272.9,0.218835,0.218478,-0.612784,30,0.0165855,10,-0.00013388,-3.21269,-0.430633,-0.137007,3.27657,0.218478,
2,0,0,1,0,58273.2,0.211344,0.210969,-0.636743,30,0.0163464,10,-0.000134333,-3.19604,-0.470836,-0.125309,3.10931,0.210969,
2,0,0,1,0,58273.6,0.203855,0.203488,-0.659165,30,0.0160978,10,-0.000134132,-3.18101,-0.433627,-0.136062,3.52207,0.2034876,
2,0,0,1,0,58274,0.196362,0.195994,-0.686591,30,0.0158401,10,-0.000134568,-3.1633,-0.427028,-0.138164,3.69823,0.1959942,
2,0,0,1,0,58274.4,0.188871,0.188477,-0.715287,30,0.0155719,10,-0.000134815,-3.14552,-0.345033,-0.170998,4.76111,0.188477,
2,0,0,1,0,58274.7,0.18138,0.180999,-0.744654,30,0.0152929,10,-0.000134781,-3.12805,-0.387247,-0.152358,4.43618,0.180999,
2,0,0,1,0,58275.1,0.173891,0.173504,-0.781139,30,0.0150017,10,-0.000135531,-3.10727,-0.396606,-0.148762,4.52396,0.173504,
2,0,0,1,0,58275.5,0.166398,0.166063,-0.823748,30,0.0146959,10,-0.000136794,-3.08421,-0.330515,-0.178509,5.7479,0.166063,
2,0,0,1,0,58275.9,0.158906,0.158534,-0.881229,30,0.0143712,10,-0.000139705,-3.05491,-0.224766,-0.262495,9.04213,0.158534,
2,0,0,1,0,58276.2,0.151417,0.151091,-0.967727,30,0.01402,10,-0.000146215,-3.01425,-0.150971,-0.390805,14.8057,0.151091,
2,0,0,1,0,58276.6,0.143926,0.143552,-1.11579,30,0.0136264,10,-0.000160174,-2.95242,-0.0955777,-0.617299,26.8977,0.143552,
2,0,0,1,0,58277,0.136435,0.13606,-1.3469,30,0.0131622,10,-0.000183259,-2.87066,-0.0881609,-0.669231,35.1047,0.13606,
2,0,0,1,0,58277.4,0.128942,0.128604,-1.61869,30,0.0126013,10,-0.00020817,-2.79084,-0.103304,-0.571128,36.0472,0.128604,
2,0,0,1,0,58277.7,0.121453,0.121101,-1.87093,30,0.0119401,10,-0.000226572,-2.72794,-0.151928,-0.388341,28.2961,0.121101,
2,0,0,1,0,58278.1,0.113962,0.11357,-2.04659,30,0.0111975,10,-0.000232431,-2.68897,-0.292027,-0.202036,16.1193,0.11357,
2,0,0,1,0,58278.5,0.106471,0.106092,-2.11984,30,0.0104073,10,-0.000224898,-2.6737,-1.76428,-0.0334413,2.76858,0.106092,
2,0,0,1,0,58278.8,0.0989799,0.0986404,-2.10167,30,0.00960857,10,-0.000207309,-2.67744,0.935799,0.0630477,-5.16669,0.09864039,
2,0,0,1,0,58279.2,0.0914889,0.0911494,-2.04563,30,0.00882605,10,-0.000186458,-2.68917,0.616446,0.09571,-7.63468,0.0911494,
2,0,0,1,0,58279.6,0.083998,0.0836792,-1.9886,30,0.00806529,10,-0.000166404,-2.70145,0.567779,0.103914,-8.07332,0.0836792,
2,0,0,1,0,58280,0.076507,0.0761555,-1.94482,30,0.00732279,10,-0.000148109,-2.71112,0.635181,0.0928868,-7.044,0.0761555,
2,0,0,1,0,58280.3,0.069016,0.0685924,-1.89472,30,0.00659773,10,-0.000129963,-2.72245,0.656147,0.0899189,-6.65763,0.0685924,
2,0,0,1,0,58280.7,0.0615251,0.0611666,-1.84666,30,0.00589044,10,-0.000112954,-2.73361,0.651876,0.0905081,-6.53266,0.0611666,
2,0,0,1,0,58281.1,0.0540342,0.0536735,-1.79485,30,0.00520275,10,-9.6336e-05,-2.74597,0.588895,0.100188,-7.01244,0.0536735,
2,0,0,1,0,58281.5,0.0465432,0.0461684,-1.73755,30,0.00453542,10,-8.02198e-05,-2.76006,0.572838,0.102996,-6.98108,0.0461684,
2,0,0,1,0,58281.8,0.0390523,0.0386869,-1.67791,30,0.00388992,10,-6.49131e-05,-2.77523,0.405655,0.145444,-9.50628,0.0386869,
2,0,0,1,0,58282.2,0.0315626,0.0311723,-1.61539,30,0.00326809,10,-5.03556e-05,-2.79172,0.428974,0.137537,-8.66532,0.0311723,
2,0,0,1,0,58282.6,0.0240704,0.0237468,-1.55244,30,0.00266928,10,-3.68655e-05,-2.80899,0.413663,0.142628,-8.66259,0.0237468,
2,0,0,1,0,58283,0.0165785,0.0162423,-1.50186,30,0.00209125,10,-2.43937e-05,-2.82337,0.678779,0.0869208,-5.10298,0.0162423,
2,0,0,1,0,58283.3,0.00908846,0.00873913,-1.46885,30,0.00152947,10,-1.28365e-05,-2.83302,0.852071,0.069243,-3.96749,0.008739125,
2,0,0,1,0,58283.7,0.0015984,0.00120839,-1.46412,30,0.00097726,10,-1.76924e-06,-2.83442, , , ,0.00120839,
2,0,0,1,0,58283.8,0.000199195,-0.000212493,-1.45737,30,0.000874029,10,3.0968e-07,-2.83643, , , ,-0.000212493,