File: Figure_codes/Fig_3-5/rawdata_trumpetplot_data/after 10th/20221101_1-115_003_TrumpetPlot_ParaChange_from10_every3_03_CV_C01_2.csv
mode,ox/red,error,control changes,counter inc.,time/s,control/V,Ewe/V,<I>/mA,cycle number,(Q-Qo)/C,I Range,P/W,log(|I|),Tafel slope mV/dec,alpha_eff,dI/d(E-IR),E-IR/V,
2,0,0,1,0,4880.28,2.44065e-05,-0.000287149,-0.105754,3,0.0000000E+000,10,3.03672e-08,-3.9757, , , ,-0.0002871489,
2,1,0,1,0,4881.73,0.00729041,0.00699326,0.210029,3,0.000282023,10,1.46878e-06,-3.67772,0.085714,0.688336,5.61524,0.00699326,
2,1,0,1,0,4883.23,0.0147815,0.0144586,0.239121,3,0.000647837,10,3.45736e-06,-3.62138,0.155318,0.379865,3.54742,0.0144586,
2,1,0,1,0,4884.73,0.0222725,0.0219422,0.263317,3,0.00105284,10,5.77775e-06,-3.57952,0.185915,0.317349,3.27221,0.0219422,
2,1,0,1,0,4886.22,0.0297635,0.0294987,0.288357,3,0.00149446,10,8.50614e-06,-3.54007,0.176196,0.334854,3.77188,0.0294987,
2,1,0,1,0,4887.72,0.0372545,0.0369258,0.31534,3,0.00197475,10,1.16442e-05,-3.50122,0.222033,0.265726,3.28113,0.0369258,
2,1,0,1,0,4889.22,0.0447456,0.0444327,0.344865,3,0.00249643,10,1.53233e-05,-3.46235,0.204684,0.288249,3.86666,0.0444327,
2,1,0,1,0,4890.72,0.0522367,0.0519075,0.371805,3,0.00306098,10,1.92995e-05,-3.42968,0.199416,0.295864,4.2908,0.0519075,
2,1,0,1,0,4892.22,0.0597277,0.0594279,0.399412,3,0.00366769,10,2.37362e-05,-3.39858,0.249889,0.236105,3.68132,0.0594279,
2,1,0,1,0,4893.71,0.0672187,0.0668518,0.425715,3,0.0043139,10,2.84598e-05,-3.37088,0.302418,0.195094,3.23141,0.06685178,
2,1,0,1,0,4895.21,0.0747092,0.0744079,0.448208,3,0.004996,10,3.33502e-05,-3.34852,0.409887,0.143942,2.51784,0.07440789,
2,1,0,0,0,4896.71,0.0822001,0.0818997,0.467219,3,0.00571133,10,3.82651e-05,-3.33048,0.404384,0.145901,2.67479,0.0818997,
2,1,0,1,0,4898.21,0.0896911,0.0893628,0.493015,3,0.00645974,10,4.40572e-05,-3.30714,0.285071,0.206966,3.98981,0.0893628,
2,1,0,0,0,4899.71,0.097182,0.0968588,0.529915,3,0.00725271,10,5.1327e-05,-3.27579,0.185744,0.317641,6.55617,0.0968588,
2,1,0,1,0,4901.21,0.104673,0.104355,0.581217,3,0.00810896,10,6.06528e-05,-3.23566,0.19317,0.305431,6.88093,0.104355,
2,1,0,0,0,4902.7,0.112164,0.111837,0.627824,3,0.00904152,10,7.0214e-05,-3.20216,0.278749,0.21166,5.17929,0.111837,
2,1,0,1,0,4904.2,0.119655,0.119353,0.672435,3,0.0100455,10,8.02573e-05,-3.17235,0.332514,0.177436,4.65832,0.119353,
2,1,0,0,0,4905.7,0.127146,0.12684,0.705186,3,0.0111093,10,8.94456e-05,-3.1517,0.344807,0.17111,4.73762,0.12684,
2,1,0,1,0,4907.2,0.134637,0.134346,0.735314,3,0.0122258,10,9.87867e-05,-3.13353,6.77607,0.00870712,0.249329,0.134346,
2,1,0,1,0,4908.7,0.142127,0.141813,0.696469,3,0.0133378,10,9.87685e-05,-3.1571,-0.149154,-0.395564,-10.6812,0.141813,
2,1,0,1,0,4910.19,0.149618,0.149276,0.577306,3,0.0143267,10,8.61781e-05,-3.23859,-0.0768091,-0.768138,-17.2816,0.149276,
2,1,0,1,0,4911.69,0.157109,0.156815,0.461901,3,0.0151288,10,7.2433e-05,-3.33545,-0.0808128,-0.730083,-13.1551,0.156815,
2,1,0,1,0,4913.19,0.1646,0.164272,0.393584,3,0.0157931,10,6.46548e-05,-3.40496,-0.128853,-0.457885,-7.0417,0.164272,
2,1,0,1,0,4914.69,0.172091,0.171802,0.353196,3,0.0163783,10,6.06798e-05,-3.45198,-0.21576,-0.273451,-3.78776,0.171802,
2,1,0,1,0,4916.19,0.179582,0.179266,0.332866,3,0.0169179,10,5.96716e-05,-3.47773,-0.330482,-0.178527,-2.31254,0.179266,
2,1,0,1,0,4917.69,0.187074,0.18678,0.31718,3,0.0174296,10,5.9243e-05,-3.49869,-0.442177,-0.133431,-1.64626,0.18678,
2,1,0,1,0,4919.18,0.194564,0.194269,0.305895,3,0.0179233,10,5.94259e-05,-3.51443,-0.773405,-0.076286,-0.914171,0.194269,
2,1,0,1,0,4920.68,0.202056,0.201764,0.300861,3,0.0184038,10,6.07029e-05,-3.52163,-0.82337,-0.0716567,-0.835113,0.201764,
2,1,0,1,0,4922.18,0.209547,0.209255,0.293189,3,0.0188746,10,6.13512e-05,-3.53285,-0.745812,-0.0791084,-0.904725,0.2092547,
2,1,0,1,0,4923.68,0.217038,0.216721,0.288639,3,0.0193367,10,6.25542e-05,-3.53964,-1.4655,-0.0402592,-0.453759,0.216721,
2,1,0,1,0,4925.18,0.224529,0.224277,0.2841,3,0.0197922,10,6.37169e-05,-3.54653,-1.3561,-0.0435071,-0.480138,0.224277,
2,1,0,1,0,4926.67,0.232019,0.231727,0.280395,3,0.020242,10,6.49749e-05,-3.55223,-1.38025,-0.0427459,-0.46835,0.231727,
2,1,0,0,0,4928.17,0.23951,0.239275,0.278182,3,0.0206874,10,6.65619e-05,-3.55567,-2.13954,-0.027576,-0.297975,0.239275,
2,1,0,1,0,4929.67,0.247001,0.246749,0.275569,3,0.0211283,10,6.79964e-05,-3.55977,-1.10854,-0.0532233,-0.570713,0.246749,
2,1,0,0,0,4931.17,0.254492,0.254196,0.272156,3,0.0215656,10,6.91809e-05,-3.56518,-0.961513,-0.0613616,-0.656181,0.254196,
2,1,0,1,0,4932.67,0.261983,0.261684,0.27094,3,0.0219993,10,7.09007e-05,-3.56713,-1.54634,-0.0381546,-0.402163,0.261684,
2,1,0,0,0,4934.17,0.269474,0.269193,0.2673,3,0.0224294,10,7.19554e-05,-3.573,2.28964,0.0257683,0.268889,0.2691929,
2,1,0,1,0,4935.66,0.276965,0.276676,0.266632,3,0.0228566,10,7.37707e-05,-3.57409,-7.35967,-0.00801666,-0.0831907,0.276676,
2,1,0,0,0,4937.16,0.284456,0.284183,0.265588,3,0.0232811,10,7.54756e-05,-3.57579,-1.79438,-0.0328805,-0.339032,0.284183,
2,1,0,1,0,4938.66,0.291947,0.291667,0.262206,3,0.0237027,10,7.6477e-05,-3.58136,-1.52913,-0.038584,-0.395779,0.291667,
2,1,0,1,0,4940.16,0.299437,0.299201,0.25947,3,0.0241214,10,7.76337e-05,-3.58591,-0.00222003,-26.5763,-121.857,0.299201,
2,0,0,1,0,4941.53,0.293744,0.293425,-0.0196376,3,0.024144,10,-5.76216e-06,-4.70691,-0.006921,-8.52478,5.33836,0.293425,
2,0,0,1,0,4943.03,0.286253,0.28599,-0.0462822,3,0.0240647,10,-1.32363e-05,-4.33459,-0.0341319,-1.72859,3.20235,0.28599,
2,0,0,0,0,4944.52,0.278763,0.278482,-0.067254,3,0.02395,10,-1.8729e-05,-4.17228,-0.0673665,-0.875806,2.2677,0.278482,
2,0,0,1,0,4946.02,0.271272,0.270975,-0.0825937,3,0.0238096,10,-2.23809e-05,-4.08305,-0.0959593,-0.614844,1.99707,0.270975,
2,0,0,0,0,4947.52,0.263781,0.263466,-0.0964362,3,0.0236476,10,-2.54076e-05,-4.01576,-0.13621,-0.433156,1.63989,0.263466,
2,0,0,1,0,4949.02,0.25629,0.256021,-0.108957,3,0.0234674,10,-2.78951e-05,-3.96275,-0.150107,-0.393053,1.64593,0.256021,
2,0,0,0,0,4950.52,0.248799,0.248456,-0.118229,3,0.0232704,10,-2.93747e-05,-3.92728,-0.181795,-0.324541,1.50296,0.2484556,
2,0,0,1,0,4952.01,0.241308,0.241004,-0.128743,3,0.0230578,10,-3.10275e-05,-3.89028,-0.219922,-0.268277,1.35372,0.241004,
2,0,0,0,0,4953.51,0.233817,0.23351,-0.138974,3,0.0228305,10,-3.24518e-05,-3.85707,-0.212134,-0.278126,1.50119,0.23351,
2,0,0,1,0,4955.01,0.226326,0.226032,-0.146905,3,0.0225893,10,-3.32053e-05,-3.83296,-0.228449,-0.258263,1.49679,0.226032,
2,0,0,0,0,4956.51,0.218835,0.218533,-0.157098,3,0.022334,10,-3.4331e-05,-3.80383,-0.28573,-0.206489,1.26755,0.218533,
2,0,0,1,0,4958.01,0.211344,0.211048,-0.166884,3,0.0220646,10,-3.52205e-05,-3.77759,-0.305936,-0.192851,1.25245,0.211048,
2,0,0,1,0,4959.51,0.203854,0.203528,-0.17671,3,0.0217797,10,-3.59653e-05,-3.75274,-0.374233,-0.157656,1.09157,0.203528,
2,0,0,1,0,4961,0.196363,0.196034,-0.188357,3,0.0214789,10,-3.69242e-05,-3.72502,-0.24712,-0.238751,1.75014,0.196034,
2,0,0,1,0,4962.5,0.188871,0.188578,-0.203249,3,0.0211588,10,-3.83282e-05,-3.69197,-0.16336,-0.361166,2.84051,0.188578,
2,0,0,1,0,4964,0.181381,0.181119,-0.219456,3,0.0208163,10,-3.97477e-05,-3.65865,-0.185757,-0.31762,2.69618,0.181119,
2,0,0,1,0,4965.5,0.173889,0.17357,-0.241588,3,0.0204453,10,-4.19323e-05,-3.61693,-0.136811,-0.431251,4.04984,0.17357,
2,0,0,1,0,4967,0.166398,0.166085,-0.272459,3,0.0200347,10,-4.52515e-05,-3.5647,-0.126145,-0.467715,4.9921,0.166085,
2,0,0,1,0,4968.49,0.158907,0.158591,-0.317042,3,0.0195665,10,-5.02802e-05,-3.49888,-0.0937561,-0.629292,7.86848,0.158591,
2,0,0,1,0,4969.99,0.151416,0.151116,-0.397489,3,0.0190061,10,-6.00671e-05,-3.40067,-0.0725926,-0.812755,12.5801,0.1511164,
2,0,0,1,0,4971.49,0.143925,0.143629,-0.513498,3,0.0183007,10,-7.37531e-05,-3.28946,-0.0636276,-0.927271,18.5236,0.143629,
2,0,0,1,0,4972.99,0.136434,0.136086,-0.645812,3,0.017401,10,-8.7886e-05,-3.18989,-0.0994453,-0.593291,14.8507,0.136086,
2,0,0,1,0,4974.49,0.128943,0.128659,-0.728353,3,0.0163359,10,-9.37092e-05,-3.13766,-0.28925,-0.203976,5.75347,0.1286591,
2,0,0,0,0,4975.99,0.121453,0.121139,-0.745063,3,0.0151987,10,-9.02561e-05,-3.12781,2.52501,0.0233663,-0.677102,0.121139,
2,0,0,1,0,4977.48,0.113962,0.113668,-0.716464,3,0.0140701,10,-8.14393e-05,-3.14481,0.377505,0.15629,-4.39588,0.113668,
2,0,0,0,0,4978.98,0.106471,0.106183,-0.684729,3,0.0129862,10,-7.27066e-05,-3.16448,0.31922,0.184825,-4.96307,0.106183,
2,0,0,1,0,4980.48,0.0989799,0.0986573,-0.647316,3,0.0119582,10,-6.38625e-05,-3.18888,0.330593,0.178467,-4.50541,0.0986573,
2,0,0,0,0,4981.98,0.0914889,0.0911729,-0.611519,3,0.0109893,10,-5.5754e-05,-3.21359,0.288093,0.204795,-4.86785,0.0911729,
2,0,0,1,0,4983.48,0.083998,0.0836971,-0.577128,3,0.0100737,10,-4.83039e-05,-3.23873,0.2922,0.201917,-4.52966,0.0836971,
2,0,0,0,0,4984.98,0.076507,0.0761851,-0.5529,3,0.00919971,10,-4.21227e-05,-3.25735,0.436499,0.135166,-2.91826,0.07618513,
2,0,0,1,0,4986.47,0.0690161,0.0686817,-0.530197,3,0.00835887,10,-3.64148e-05,-3.27556,0.535135,0.110253,-2.28899,0.0686817,
2,0,0,0,0,4987.97,0.0615251,0.0612228,-0.512039,3,0.00754708,10,-3.13485e-05,-3.2907,0.463472,0.1273,-2.55309,0.0612228,
2,0,0,1,0,4989.47,0.0540342,0.053731,-0.493382,3,0.00676553,10,-2.65099e-05,-3.30682,0.414992,0.142172,-2.73289,0.053731,
2,0,0,1,0,4990.97,0.0465436,0.046229,-0.471192,3,0.00601542,10,-2.17827e-05,-3.3268,0.36215,0.162916,-3.00103,0.046229,
2,0,0,1,0,4992.47,0.0390526,0.0387341,-0.449687,3,0.00529811,10,-1.74182e-05,-3.34709,0.344501,0.171262,-3.00422,0.0387341,
2,0,0,1,0,4993.96,0.0315615,0.0312866,-0.430589,3,0.00461153,10,-1.34717e-05,-3.36594,0.397019,0.148608,-2.49538,0.0312866,
2,0,0,1,0,4995.46,0.0240706,0.0237704,-0.414339,3,0.00395092,10,-9.84902e-06,-3.38264,0.669025,0.0881881,-1.43282,0.0237704,
2,0,0,1,0,4996.96,0.0165795,0.0162765,-0.407159,3,0.00330804,10,-6.62711e-06,-3.39024,0.973398,0.0606124,-0.962316,0.0162765,
2,0,0,1,0,4998.46,0.00908846,0.00876334,-0.404696,3,0.00267292,10,-3.54649e-06,-3.39287,-1.7587,-0.0335475,0.530457,0.00876334,
2,0,0,1,0,4999.96,0.00159739,0.00125021,-0.413026,3,0.00203396,10,-5.16369e-07,-3.38402, , , ,0.00125021,
2,0,0,0,0,5000.24,0.000199195,-0.000197438,-0.409998,3,0.00191378,10,8.09493e-08,-3.38722, , , ,-0.000197438,