File: Figure_codes/Fig_3-5/rawdata_trumpetplot_data/after 10th/20221101_1-115_003_TrumpetPlot_ParaChange_from10_every3_12_CV_C01_9.csv
mode,ox/red,error,control changes,counter inc.,time/s,control/V,Ewe/V,<I>/mA,cycle number,(Q-Qo)/C,I Range,P/W,log(|I|),Tafel slope mV/dec,alpha_eff,dI/d(E-IR),E-IR/V,
2,1,0,1,0,18927.7,2.44065e-05,-0.000229887,17.546,10,0.0000000E+000,10,-4.0336e-06,-1.75582, , , ,-0.000229887,
2,1,0,1,0,18927.7,0.0104008,0.010055,21.0497,10,0.000335358,10,0.000211654,-1.67675,0.198526,0.29719,242.769,0.010055,
2,1,0,1,0,18927.7,0.0212099,0.0208627,23.2534,10,0.000735348,10,0.000485127,-1.63351,0.308132,0.191476,173.3,0.0208627,
2,1,0,1,0,18927.7,0.0320052,0.0316279,24.9474,10,0.00116981,10,0.000789035,-1.60297,0.396065,0.148965,144.849,0.0316279,
2,1,0,1,0,18927.8,0.0428033,0.0424663,26.4377,10,0.00163256,10,0.00112271,-1.57778,0.458519,0.128675,132.683,0.04246632,
2,1,0,1,0,18927.8,0.0535986,0.0532305,27.8607,10,0.00212128,10,0.00148304,-1.55501,0.481306,0.122583,133.263,0.0532305,
2,1,0,1,0,18927.8,0.0644077,0.0640467,29.3293,10,0.00263604,10,0.00187844,-1.5327,0.480266,0.122849,140.603,0.0640467,
2,1,0,1,0,18927.8,0.075203,0.0748289,30.871,10,0.00317791,10,0.00231004,-1.51045,0.481188,0.122613,147.76,0.0748289,
2,1,0,1,0,18927.8,0.0860011,0.0856174,32.4701,10,0.00374809,10,0.00278001,-1.48852,0.489282,0.120585,152.913,0.0856174,
2,1,0,1,0,18927.9,0.0968075,0.0964453,34.1708,10,0.00434818,10,0.00329562,-1.46634,0.50765,0.116222,154.98,0.0964453,
2,1,0,1,0,18927.9,0.107606,0.107169,35.823,10,0.00497839,10,0.00383913,-1.44584,0.513638,0.114867,160.794,0.107169,
2,1,0,1,0,18927.9,0.118401,0.118033,37.6192,10,0.00563977,10,0.00444031,-1.42459,0.527706,0.111805,164.2,0.118033,
2,1,0,1,0,18927.9,0.129207,0.128841,39.4948,10,0.00633371,10,0.00508853,-1.40346,0.502442,0.117427,181.033,0.128841,
2,1,0,1,0,18927.9,0.140005,0.139619,41.5894,10,0.00706327,10,0.00580666,-1.38102,0.468639,0.125897,204.345,0.139619,
2,1,0,1,0,18927.9,0.150803,0.150445,43.8401,10,0.00783218,10,0.00659554,-1.35813,0.485746,0.121463,207.715,0.150445,
2,1,0,1,0,18928,0.161604,0.161246,46.0238,10,0.0086414,10,0.00742113,-1.33702,0.554696,0.106365,190.871,0.161246,
2,1,0,1,0,18928,0.172405,0.172075,47.91,10,0.0094876,10,0.00824409,-1.31957,0.722473,0.0816639,152.472,0.172075,
2,1,0,1,0,18928,0.183203,0.1829,49.1632,10,0.0103627,10,0.00899195,-1.30836,1.62079,0.036402,69.6803,0.1829,
2,1,0,1,0,18928,0.194001,0.193669,49.1946,10,0.0112503,10,0.00952745,-1.30808,-1.53738,-0.0383771,-73.4332,0.193669,
2,1,0,1,0,18928,0.204808,0.204508,47.4931,10,0.0121232,10,0.00971273,-1.32337,-0.455889,-0.129417,-239.027,0.204508,
2,1,0,1,0,18928.1,0.215603,0.215298,44.1203,10,0.0129497,10,0.00949901,-1.35536,-0.276677,-0.213245,-366.338,0.215298,
2,1,0,1,0,18928.1,0.226401,0.226067,39.8216,10,0.0137054,10,0.00900236,-1.39988,-0.225359,-0.261804,-406.759,0.226067,
2,1,0,1,0,18928.1,0.237207,0.23691,35.6122,10,0.0143832,10,0.00843688,-1.4484,-0.22656,-0.260416,-362.291,0.23691,
2,1,0,1,0,18928.1,0.248005,0.247717,32.0808,10,0.0149908,10,0.00794696,-1.49375,-0.254707,-0.231639,-290.437,0.2477165,
2,1,0,1,0,18928.1,0.258801,0.258467,29.3235,10,0.015542,10,0.00757916,-1.53278,-0.306629,-0.192415,-220.57,0.258467,
2,1,0,1,0,18928.1,0.26961,0.269305,27.2568,10,0.01605,10,0.00734041,-1.56452,-0.376291,-0.156794,-166.957,0.269305,
2,1,0,1,0,18928.2,0.280405,0.280099,25.6725,10,0.0165255,10,0.00719084,-1.59053,-0.466357,-0.126512,-126.878,0.280099,
2,1,0,1,0,18928.2,0.291203,0.290858,24.4497,10,0.016976,10,0.0071114,-1.61173,-0.556956,-0.105933,-101.179,0.290858,
2,1,0,0,0,18928.2,0.300012,0.299651,23.6265,10,0.0173292,10,0.00707971,-1.6266,0.00208437,28.3059,22569.7,0.299651,
2,1,0,1,0,18928.2,0.290843,0.290569,9.75295,10,0.0175674,10,0.0028339,-2.01086,0.0213213,2.76718,1044.02,0.290569,
2,1,0,1,0,18928.2,0.280047,0.279779,1.5698,10,0.0176613,10,0.000439197,-2.80416,0.0133619,4.41555,574.391,0.279779,
2,0,0,1,0,18928.2,0.269244,0.268983,-3.29121,10,0.017642,10,-0.00088528,-2.48264,-0.0179594,-3.28518,357.132,0.268983,
2,0,0,1,0,18928.3,0.258443,0.258159,-6.44784,10,0.0175522,10,-0.00166457,-2.19059,-0.0598166,-0.986349,241.91,0.258159,
2,0,0,1,0,18928.3,0.247645,0.247337,-8.66547,10,0.0174148,10,-0.00214329,-2.06221,-0.111692,-0.52824,177.202,0.247337,
2,0,0,1,0,18928.3,0.236849,0.23656,-10.336,10,0.017243,10,-0.00244508,-1.98565,-0.174112,-0.338862,136.079,0.23656,
2,0,0,1,0,18928.3,0.22604,0.225766,-11.6722,10,0.0170444,10,-0.00263519,-1.93285,-0.243443,-0.242357,110.001,0.225766,
2,0,0,1,0,18928.3,0.215245,0.214973,-12.7678,10,0.0168242,10,-0.00274473,-1.89388,-0.300334,-0.196448,97.75,0.214973,
2,0,0,1,0,18928.4,0.204447,0.204093,-13.7642,10,0.0165852,10,-0.00280918,-1.86125,-0.362703,-0.162668,87.2003,0.204093,
2,0,0,1,0,18928.4,0.19364,0.193317,-14.6864,10,0.0163293,10,-0.00283912,-1.83308,-0.400911,-0.147165,84.2246,0.193317,
2,0,0,1,0,18928.4,0.182842,0.182524,-15.5691,10,0.016057,10,-0.00284172,-1.80774,-0.413039,-0.142844,86.8288,0.182524,
2,0,0,1,0,18928.4,0.172047,0.171733,-16.5218,10,0.0157682,10,-0.00283735,-1.78194,-0.397972,-0.148252,95.7229,0.171733,
2,0,0,1,0,18928.4,0.161241,0.160947,-17.6473,10,0.0154609,10,-0.00284027,-1.75332,-0.352594,-0.167331,115.395,0.160947,
2,0,0,1,0,18928.4,0.150443,0.150119,-19.0722,10,0.0151309,10,-0.0028631,-1.7196,-0.284189,-0.207608,154.92,0.1501188,
2,0,0,1,0,18928.5,0.139645,0.139296,-21.063,10,0.0147704,10,-0.00293399,-1.67648,-0.22377,-0.263663,217.507,0.139296,
2,0,0,1,0,18928.5,0.128849,0.128526,-23.8492,10,0.0143672,10,-0.00306523,-1.62253,-0.183812,-0.320981,299.586,0.128526,
2,0,0,1,0,18928.5,0.118043,0.11774,-27.5037,10,0.0139057,10,-0.0032383,-1.56061,-0.175299,-0.336568,361.007,0.11774,
2,0,0,1,0,18928.5,0.107245,0.106991,-31.5148,10,0.0133745,10,-0.0033718,-1.50149,-0.193114,-0.305519,375.106,0.106991,
2,0,0,1,0,18928.5,0.0964468,0.0962215,-35.3912,10,0.0127716,10,-0.0034054,-1.4511,-0.235166,-0.250887,345.894,0.0962215,
2,0,0,1,0,18928.6,0.0856404,0.0853905,-38.9164,10,0.0121017,10,-0.00332309,-1.40987,-0.300338,-0.196445,297.601,0.0853905,
2,0,0,1,0,18928.6,0.0748451,0.0746019,-41.7517,10,0.0113744,10,-0.00311476,-1.37933,-0.407233,-0.14488,235.723,0.0746019,
2,0,0,1,0,18928.6,0.0640471,0.0637943,-43.8993,10,0.0106019,10,-0.00280052,-1.35754,-0.63901,-0.0923303,157.899,0.0637943,
2,0,0,1,0,18928.6,0.0532407,0.0529368,-45.1597,10,0.00979884,10,-0.00239061,-1.34525,-1.36243,-0.0433048,76.2016,0.0529368,
2,0,0,1,0,18928.6,0.0424426,0.0421323,-45.6327,10,0.00898067,10,-0.00192261,-1.34072,-6.00834,-0.00981969,17.4707,0.0421323,
2,0,0,1,0,18928.6,0.0316473,0.0313395,-45.6024,10,0.00815887,10,-0.00142915,-1.34101,5.92991,0.00994957,-17.703,0.03133947,
2,0,0,1,0,18928.7,0.0208437,0.0205138,-45.315,10,0.0073404,10,-0.000929582,-1.34376,2.65844,0.0221935,-39.2215,0.0205138,
2,0,0,1,0,18928.7,0.0100429,0.00970082,-44.8297,10,0.00652906,10,-0.000434885,-1.34843,1.87364,0.0314895,-55.0441,0.00970082,
2,0,0,1,0,18928.7,-0.000755207,-0.00112381,-44.1745,10,0.00572799,10,4.96437e-05,-1.35483,1.41917,0.0415737,-71.5746,-0.00112381,
2,0,0,1,0,18928.7,-0.0115505,-0.0118827,-43.1736,10,0.00494152,10,0.000513019,-1.36478,0.924894,0.0637911,-107.4,-0.0118827,
2,0,0,1,0,18928.7,-0.0223597,-0.0227254,-41.8725,10,0.0041759,10,0.000951568,-1.37807,0.729717,0.0808533,-132.016,-0.0227254,
2,0,0,1,0,18928.8,-0.033155,-0.0335224,-40.3933,10,0.00343565,10,0.00135408,-1.39369,0.711747,0.0828946,-130.739,-0.0335224,
2,0,0,1,0,18928.8,-0.043953,-0.0443269,-39.0232,10,0.00272124,10,0.00172978,-1.40868,0.789311,0.0747487,-113.971,-0.0443269,
2,0,0,1,0,18928.8,-0.0547594,-0.0551367,-37.9759,10,0.00202881,10,0.00209387,-1.42049,1.06291,0.0555078,-82.3399,-0.0551367,
2,0,0,1,0,18928.8,-0.0655575,-0.0659422,-37.2737,10,0.00135209,10,0.00245791,-1.4286,1.84376,0.0319998,-46.6057,-0.06594225,
2,0,0,1,0,18928.8,-0.0763528,-0.0767149,-36.9357,10,0.000684607,10,0.00283352,-1.43255,5.03609,0.0117154,-16.9066,-0.0767149,
2,0,0,1,0,18928.8,-0.0871592,-0.0874844,-36.9166,10,2.03675e-05,10,0.00322963,-1.43278,-10.676,-0.0055264,7.96567,-0.0874844,
2,0,0,1,0,18928.9,-0.0979573,-0.0982953,-37.1511,10,-0.000645785,10,0.00365178,-1.43003,-4.32563,-0.0136396,19.7344,-0.0982953,
2,0,0,1,1,18928.9,-0.0955546,-0.0960366,-27.9931,10,-0.00101655,10,0.00268836,-1.55295,-0.0379101,-1.55631,1715.72,-0.0960366,
2,0,0,1,1,18928.9,-0.0847538,-0.085177,-14.0083,10,-0.00138376,10,0.00119318,-1.85362,-0.030406,-1.94041,1047.17,-0.085177,
2,0,0,1,1,18928.9,-0.0739557,-0.0743757,-4.42187,10,-0.00154445,10,0.000328879,-2.35439,-0.0103928,-5.67702,765.12,-0.0743757,
2,1,0,1,1,18928.9,-0.0631604,-0.0636348,2.76254,10,-0.00155588,10,-0.000175793,-2.55869,0.00671304,8.78887,584.983,-0.0636348,
2,1,0,1,1,18928.9,-0.0523512,-0.0528006,8.35937,10,-0.00145321,10,-0.00044138,-2.07783,0.0401595,1.46914,461.352,-0.0528006,
2,1,0,1,1,18929,-0.0415559,-0.0420248,12.796,10,-0.00126083,10,-0.000537751,-1.89292,0.0795059,0.742083,365.814,-0.0420248,
2,1,0,1,1,18929,-0.0307579,-0.0312001,16.2998,10,-0.000997244,10,-0.000508557,-1.78782,0.130756,0.451221,285.243,-0.0312001,
2,1,0,1,1,18929,-0.0199515,-0.0203702,19.0504,10,-0.000677764,10,-0.00038806,-1.7201,0.194532,0.303292,224.559,-0.0203702,
2,1,0,1,1,18929,-0.0091534,-0.00952542,21.1817,10,-0.000314699,10,-0.000201764,-1.67404,0.279152,0.211355,174.253,-0.00952542,
2,1,0,0,1,18929,-7.54729e-05,-0.000439847,22.558,10,1.64216e-05,10,-9.92207e-06,-1.6467, , , ,-0.000439847,