File: Figure_codes/Fig_3-5/rawdata_trumpetplot_data/after 10th/20221101_1-115_003_TrumpetPlot_ParaChange_from10_every3_12_CV_C01_15.csv
mode,ox/red,error,control changes,counter inc.,time/s,control/V,Ewe/V,<I>/mA,cycle number,(Q-Qo)/C,I Range,P/W,log(|I|),Tafel slope mV/dec,alpha_eff,dI/d(E-IR),E-IR/V,
2,1,0,1,0,30748.5,2.44065e-05,-0.000191712,16.059,16,0.0000000E+000,10,-3.07871e-06,-1.79428, , , ,-0.000191712,
2,1,0,1,0,30748.5,0.0104008,0.0100401,19.3252,16,0.000307623,10,0.000194027,-1.71388,0.194456,0.30341,227.687,0.01004015,
2,1,0,1,0,30748.5,0.0212099,0.020887,21.4306,16,0.000675501,10,0.000447623,-1.66896,0.291782,0.202206,168.704,0.020887,
2,1,0,1,0,30748.5,0.0320052,0.0316258,23.0816,16,0.00107678,10,0.000729974,-1.63673,0.375049,0.157313,141.567,0.0316258,
2,1,0,1,0,30748.5,0.0428033,0.0424525,24.5424,16,0.00150576,10,0.00104189,-1.61008,0.442722,0.133266,127.531,0.0424525,
2,1,0,1,0,30748.6,0.0535986,0.0532846,25.9028,16,0.00195981,10,0.00138022,-1.58665,0.475554,0.124066,125.352,0.0532846,
2,1,0,1,0,30748.6,0.0644077,0.0640647,27.2598,16,0.00243832,10,0.00174639,-1.56448,0.492062,0.119904,127.529,0.0640647,
2,1,0,1,0,30748.6,0.075203,0.0748193,28.6642,16,0.00294164,10,0.00214464,-1.54266,0.497627,0.118563,132.615,0.0748193,
2,1,0,1,0,30748.6,0.0860011,0.0856174,30.1125,16,0.00347061,10,0.00257816,-1.52125,0.509764,0.11574,136.003,0.0856174,
2,1,0,1,0,30748.6,0.0968075,0.0964802,31.6185,16,0.00402618,10,0.00305056,-1.50006,0.51104,0.115451,142.444,0.0964802,
2,1,0,1,0,30748.7,0.107606,0.107256,33.1566,16,0.0046094,10,0.00355624,-1.47943,0.53087,0.111138,143.795,0.107256,
2,1,0,1,0,30748.7,0.118401,0.118036,34.7024,16,0.00522005,10,0.00409614,-1.45964,0.52651,0.112059,151.872,0.118036,
2,1,0,1,0,30748.7,0.129207,0.128836,36.4022,16,0.00586014,10,0.00468993,-1.43887,0.521367,0.113164,160.829,0.128836,
2,1,0,1,0,30748.7,0.140005,0.13965,38.2227,16,0.00653187,10,0.00533782,-1.41768,0.501885,0.117557,175.446,0.13965,
2,1,0,1,0,30748.7,0.150803,0.150456,40.1636,16,0.00723759,10,0.00604286,-1.39617,0.52673,0.112012,175.528,0.150456,
2,1,0,1,0,30748.7,0.161604,0.16128,42.0306,16,0.00797764,10,0.00677868,-1.37643,0.593072,0.099482,163.033,0.16128,
2,1,0,1,0,30748.8,0.172405,0.172061,43.6541,16,0.00874934,10,0.00751115,-1.35998,0.75183,0.0784752,133.524,0.172061,
2,1,0,1,0,30748.8,0.183203,0.182851,44.8302,16,0.00954667,10,0.00819726,-1.34843,1.37648,0.042863,74.8338,0.1828514,
2,1,0,1,0,30748.8,0.194001,0.193651,45.1442,16,0.010358,10,0.00874219,-1.3454,-5.07067,-0.0116356,-20.4509,0.1936506,
2,1,0,1,0,30748.8,0.204808,0.204492,44.3368,16,0.011165,10,0.00906653,-1.35324,-0.809823,-0.0728554,-125.755,0.204492,
2,1,0,1,0,30748.8,0.215603,0.215301,42.3906,16,0.0119471,10,0.00912674,-1.37273,-0.435723,-0.135407,-223.54,0.2153009,
2,1,0,1,0,30748.9,0.226401,0.226077,39.5597,16,0.0126854,10,0.00894352,-1.40275,-0.317903,-0.185591,-286.254,0.226077,
2,1,0,1,0,30748.9,0.237207,0.236912,36.3812,16,0.0133687,10,0.00861915,-1.43912,-0.285355,-0.20676,-293.514,0.236912,
2,1,0,1,0,30748.9,0.248005,0.247697,33.3332,16,0.0139953,10,0.00825655,-1.47712,-0.290573,-0.203047,-264.317,0.2476974,
2,1,0,1,0,30748.9,0.258801,0.258473,30.6853,16,0.0145705,10,0.00793132,-1.51307,-0.315446,-0.187037,-224.202,0.258473,
2,1,0,1,0,30748.9,0.26961,0.269268,28.5018,16,0.0151021,10,0.00767463,-1.54513,-0.357328,-0.165114,-183.777,0.269268,
2,1,0,1,0,30748.9,0.280405,0.280063,26.7218,16,0.0155983,10,0.00748378,-1.57314,-0.4179,-0.141182,-147.331,0.280063,
2,1,0,1,0,30749,0.291203,0.290896,25.2909,16,0.0160657,10,0.00735701,-1.59704,-0.482119,-0.122376,-120.859,0.290896,
2,1,0,0,0,30749,0.300012,0.299689,24.2975,16,0.01643,10,0.0072817,-1.61444,0.00193321,30.5192,25661.4,0.2996892,
2,1,0,1,0,30749,0.290842,0.290558,12.0567,16,0.0166931,10,0.00350316,-1.91877,0.0298574,1.97606,934.087,0.290558,
2,1,0,1,0,30749,0.280047,0.279769,4.3271,16,0.0168342,10,0.00121059,-2.3638,0.0162559,3.62946,564.073,0.279769,
2,0,0,1,0,30749,0.269244,0.268965,-0.661328,16,0.0168639,10,-0.000177874,-3.17958,-0.0387402,-1.52297,380.378,0.268965,
2,0,0,1,0,30749,0.258443,0.258158,-4.12498,16,0.0168187,10,-0.0010649,-2.38458,-0.032942,-1.79103,272.33,0.258158,
2,0,0,1,0,30749.1,0.247645,0.247358,-6.66964,16,0.01672,10,-0.00164979,-2.1759,-0.0731148,-0.80695,207.142,0.247358,
2,0,0,1,0,30749.1,0.236849,0.236549,-8.62519,16,0.0165813,10,-0.00204028,-2.06423,-0.12321,-0.478857,160.178,0.236549,
2,0,0,1,0,30749.1,0.22604,0.225757,-10.1982,16,0.0164113,10,-0.0023023,-1.99148,-0.180147,-0.32751,129.759,0.225757,
2,0,0,1,0,30749.1,0.215245,0.214931,-11.4852,16,0.0162157,10,-0.00246853,-1.93986,-0.238298,-0.247589,110.762,0.214931,
2,0,0,1,0,30749.1,0.204447,0.204135,-12.6138,16,0.0159985,10,-0.00257492,-1.89915,-0.296659,-0.198881,97.6915,0.204135,
2,0,0,1,0,30749.2,0.19364,0.193314,-13.6194,16,0.0157624,10,-0.00263283,-1.86584,-0.349593,-0.168768,89.53,0.193314,
2,0,0,1,0,30749.2,0.182842,0.182513,-14.5544,16,0.0155088,10,-0.00265637,-1.83701,-0.380434,-0.155086,88.0303,0.182513,
2,0,0,1,0,30749.2,0.172047,0.171732,-15.5015,16,0.0152383,10,-0.00266211,-1.80963,-0.387559,-0.152235,92.1376,0.171732,
2,0,0,1,0,30749.2,0.161241,0.160947,-16.5389,16,0.0149501,10,-0.00266189,-1.78149,-0.369541,-0.159657,103.134,0.160947,
2,0,0,1,0,30749.2,0.150443,0.150135,-17.7798,16,0.0146416,10,-0.00266937,-1.75007,-0.313243,-0.188352,130.963,0.1501347,
2,0,0,1,0,30749.2,0.139645,0.139306,-19.4388,16,0.0143072,10,-0.00270793,-1.71133,-0.246907,-0.238956,181.923,0.139306,
2,0,0,1,0,30749.3,0.128849,0.128506,-21.7414,16,0.0139372,10,-0.0027939,-1.66271,-0.203295,-0.290218,246.959,0.128506,
2,0,0,1,0,30749.3,0.118043,0.117758,-24.774,16,0.0135192,10,-0.00291734,-1.606,-0.188243,-0.313424,303.085,0.117758,
2,0,0,1,0,30749.3,0.107245,0.106952,-28.1885,16,0.0130424,10,-0.00301481,-1.54993,-0.202857,-0.290845,319.557,0.106952,
2,0,0,1,0,30749.3,0.0964468,0.0961558,-31.5276,16,0.0125041,10,-0.00303156,-1.50131,-0.244762,-0.241051,296.247,0.0961558,
2,0,0,1,0,30749.3,0.0856404,0.0853333,-34.6294,16,0.011908,10,-0.00295504,-1.46056,-0.300097,-0.196603,265.115,0.0853333,
2,0,0,1,0,30749.4,0.0748451,0.07462,-37.2325,16,0.0112602,10,-0.00277829,-1.42908,-0.3975,-0.148428,215.233,0.07462,
2,0,0,1,0,30749.4,0.0640471,0.0638028,-39.2532,16,0.0105709,10,-0.00250446,-1.40612,-0.558867,-0.105571,161.465,0.0638028,
2,0,0,1,0,30749.4,0.0532407,0.0529251,-40.6613,16,0.00985053,10,-0.002152,-1.39082,-0.93012,-0.0634326,100.516,0.05292511,
2,0,0,1,0,30749.4,0.0424426,0.042162,-41.4731,16,0.00911038,10,-0.00174859,-1.38223,-1.72426,-0.0342176,55.345,0.042162,
2,0,0,1,0,30749.4,0.0316473,0.0313161,-41.8762,16,0.00835951,10,-0.0013114,-1.37803,-4.44469,-0.0132743,21.6859,0.0313161,
2,0,0,1,0,30749.4,0.0208437,0.0204958,-41.9701,16,0.00760446,10,-0.000860209,-1.37706,26.9771,0.00218704,-3.58093,0.0204958,
2,0,0,1,0,30749.5,0.0100429,0.0096987,-41.837,16,0.00684985,10,-0.000405765,-1.37844,3.93676,0.0149869,-24.4549,0.0096987,
2,0,0,1,0,30749.5,-0.000755207,-0.0011588,-41.5309,16,0.00609941,10,4.81262e-05,-1.38163,2.31407,0.0254962,-41.2703,-0.0011588,
2,0,0,1,0,30749.5,-0.0115505,-0.0118912,-40.912,16,0.00535725,10,0.000486492,-1.38815,1.3627,0.0432965,-69.0701,-0.0118912,
2,0,0,1,0,30749.5,-0.0223597,-0.0226872,-40.05,16,0.00462849,10,0.000908622,-1.3974,1.02564,0.0575252,-89.8308,-0.0226872,
2,0,0,1,0,30749.5,-0.033155,-0.0334896,-39.0118,16,0.003917,10,0.00130649,-1.4088,0.948089,0.0622304,-94.7364,-0.0334896,
2,0,0,1,0,30749.6,-0.043953,-0.0443354,-37.987,16,0.00322428,10,0.00168417,-1.42036,0.967497,0.0609821,-90.4316,-0.0443354,
2,0,0,1,0,30749.6,-0.0547594,-0.05516,-37.1033,16,0.0025489,10,0.00204662,-1.43059,1.18184,0.0499224,-72.3363,-0.05516,
2,0,0,1,0,30749.6,-0.0655575,-0.0659327,-36.4407,16,0.00188736,10,0.00240264,-1.43841,1.74363,0.0338374,-48.1727,-0.0659327,
2,0,0,1,0,30749.6,-0.0763528,-0.0767404,-36.0466,16,0.00123526,10,0.00276623,-1.44314,3.27988,0.0179885,-25.3292,-0.0767404,
2,0,0,1,0,30749.6,-0.0871592,-0.0875597,-35.9013,16,0.000588072,10,0.00314351,-1.44489,15.2918,0.00385828,-5.4088,-0.0875597,
2,0,0,1,0,30749.6,-0.0979573,-0.0983398,-35.9656,16,-5.84259e-05,10,0.00353685,-1.44411,-24.2288,-0.00243512,3.41401,-0.0983398,
2,0,0,1,1,30749.7,-0.0955546,-0.0959836,-27.7846,16,-0.00041972,10,0.00266687,-1.5562,-0.0419749,-1.4056,1544.38,-0.09598358,
2,0,0,1,1,30749.7,-0.0847538,-0.085195,-15.5842,16,-0.000800662,10,0.0013277,-1.80732,-0.0389643,-1.51421,916.768,-0.08519499,
2,0,0,1,1,30749.7,-0.0739557,-0.0743704,-7.05575,16,-0.00100007,10,0.000524738,-2.15146,-0.0225139,-2.62061,687.559,-0.0743704,
2,0,0,1,1,30749.7,-0.0631604,-0.0636147,-0.49232,16,-0.0010651,10,3.13188e-05,-3.30775,-0.0450474,-1.30973,546.373,-0.0636147,
2,1,0,1,1,30749.7,-0.0523512,-0.0527465,4.75802,16,-0.00102448,10,-0.000250969,-2.32257,0.022697,2.59946,438.748,-0.0527465,
2,1,0,1,1,30749.7,-0.0415559,-0.041977,9.04869,16,-0.000898647,10,-0.000379837,-2.04341,0.0565264,1.04376,360.821,-0.041977,
2,1,0,1,1,30749.8,-0.0307579,-0.0311651,12.5723,16,-0.000702631,10,-0.000391819,-1.90058,0.0971552,0.607276,295.431,-0.0311651,
2,1,0,1,1,30749.8,-0.0199515,-0.0203479,15.4717,16,-0.000449069,10,-0.000314816,-1.81046,0.146388,0.403038,241.92,-0.0203479,
2,1,0,1,1,30749.8,-0.0091534,-0.0095392,17.8151,16,-0.000148625,10,-0.000169942,-1.74921,0.208318,0.28322,196.246,-0.0095392,
2,1,0,0,1,30749.8,-7.54729e-05,-0.00042076,19.381,16,0.000133137,10,-8.15475e-06,-1.71262, , , ,-0.00042076,