File: Figure_codes/Fig_3-5/rawdata_trumpetplot_data/after 10th/20221101_1-115_003_TrumpetPlot_ParaChange_from10_every3_05_CV_C01_6.csv
mode,ox/red,error,control changes,counter inc.,time/s,control/V,Ewe/V,<I>/mA,cycle number,(Q-Qo)/C,I Range,P/W,log(|I|),Tafel slope mV/dec,alpha_eff,dI/d(E-IR),E-IR/V,
2,0,0,1,0,12940.8,2.44065e-05,-0.000306236,-0.740514,7,0.0000000E+000,10,2.26772e-07,-3.13047, , , ,-0.000306236,
2,1,0,1,0,12941.2,0.00729063,0.00698706,0.729555,7,0.000170724,10,5.09745e-06,-3.13694,0.0577786,1.02114,28.6881,0.00698706,
2,1,0,1,0,12941.5,0.0147802,0.0144605,0.87939,7,0.000480637,10,1.27164e-05,-3.05582,0.119073,0.495496,16.9639,0.0144605,
2,1,0,1,0,12941.9,0.0222725,0.0219793,0.985595,7,0.000836454,10,2.16627e-05,-3.0063,0.167491,0.352257,13.5369,0.0219793,
2,1,0,1,0,12942.3,0.0297644,0.0294633,1.08543,7,0.00123059,10,3.19803e-05,-2.9644,0.188018,0.3138,13.2938,0.0294633,
2,1,0,1,0,12942.7,0.0372544,0.0369521,1.18614,7,0.00166237,10,4.38304e-05,-2.92586,0.21892,0.269505,12.4952,0.0369521,
2,1,0,1,0,12943,0.0447449,0.0444835,1.28447,7,0.0021315,10,5.71378e-05,-2.89128,0.238721,0.247151,12.3812,0.0444835,
2,1,0,1,0,12943.4,0.0522363,0.0518878,1.37365,7,0.00263628,10,7.12757e-05,-2.86212,0.239153,0.246704,13.2521,0.0518878,
2,1,0,1,0,12943.8,0.0597291,0.0594093,1.46063,7,0.00317432,10,8.67751e-05,-2.83546,0.298014,0.197977,11.2954,0.0594093,
2,1,0,1,0,12944.2,0.0672182,0.0669244,1.54464,7,0.0037431,10,0.000103374,-2.81117,0.37267,0.158317,9.52009,0.0669244,
2,1,0,1,0,12944.5,0.0747092,0.0744473,1.60786,7,0.0043393,10,0.000119701,-2.79375,0.470048,0.125519,7.86972,0.0744473,
2,1,0,1,0,12944.9,0.0822001,0.0818921,1.6679,7,0.00495994,10,0.000136588,-2.77783,0.517894,0.113923,7.42689,0.0818921,
2,1,0,1,0,12945.3,0.0896911,0.0893488,1.74157,7,0.00560428,10,0.000155607,-2.75906,0.341287,0.172875,11.7793,0.0893488,
2,1,0,1,0,12945.7,0.097182,0.0968014,1.8523,7,0.00628279,10,0.000179305,-2.73229,0.219309,0.269027,19.4728,0.0968014,
2,1,0,1,0,12946,0.104673,0.104378,2.01761,7,0.00701253,10,0.000210595,-2.69516,0.19381,0.304421,23.9201,0.104378,
2,1,0,1,0,12946.4,0.112164,0.111853,2.18358,7,0.00780627,10,0.00024424,-2.66083,0.262737,0.224559,19.1006,0.111853,
2,1,0,1,0,12946.8,0.119655,0.119324,2.3068,7,0.00865493,10,0.000275256,-2.63699,0.452557,0.13037,11.7339,0.119324,
2,1,0,1,0,12947.2,0.127146,0.126856,2.39422,7,0.00954262,10,0.000303723,-2.62084,0.453028,0.130235,12.1903,0.126856,
2,1,0,1,0,12947.5,0.134637,0.134311,2.47566,7,0.010464,10,0.000332508,-2.60631,1.63115,0.0361708,3.49227,0.134311,
2,1,0,1,0,12947.9,0.142128,0.141848,2.39798,7,0.0113914,10,0.000340147,-2.62015,-0.197067,-0.29939,-27.8783,0.141848,
2,1,0,1,0,12948.3,0.149619,0.149284,2.04624,7,0.0122367,10,0.000305471,-2.68904,-0.0811802,-0.726778,-57.8621,0.149284,
2,1,0,1,0,12948.7,0.157108,0.156767,1.62975,7,0.012928,10,0.000255491,-2.78788,-0.0781403,-0.755052,-48.0425,0.156767,
2,1,0,1,0,12949,0.164601,0.164317,1.35986,7,0.0134891,10,0.000223448,-2.86651,-0.113345,-0.520535,-27.6617,0.164317,
2,1,0,1,0,12949.4,0.172092,0.171784,1.20382,7,0.0139729,10,0.000206796,-2.91944,-0.185054,-0.318826,-15.0323,0.171784,
2,1,0,1,0,12949.8,0.179582,0.179281,1.11722,7,0.014413,10,0.000200296,-2.95186,-0.279373,-0.211187,-9.23306,0.179281,
2,1,0,1,0,12950.2,0.187073,0.186736,1.06928,7,0.0148278,10,0.000199674,-2.97091,-0.567196,-0.10402,-4.32998,0.186736,
2,1,0,1,0,12950.5,0.194564,0.194281,1.03531,7,0.015227,10,0.000201141,-2.98493,-0.675997,-0.0872785,-3.5274,0.194281,
2,1,0,1,0,12950.9,0.202057,0.201758,1.00905,7,0.0156157,10,0.000203585,-2.99609,-0.6996,-0.0843339,-3.32294,0.201758,
2,1,0,1,0,12951.3,0.209546,0.209245,0.990895,7,0.0159968,10,0.00020734,-3.00397,-0.64186,-0.0919204,-3.55697,0.209245,
2,1,0,1,0,12951.7,0.217037,0.216719,0.974271,7,0.0163714,10,0.000211143,-3.01132,-1.94327,-0.0303612,-1.1591,0.216719,
2,1,0,1,0,12952,0.224528,0.224252,0.96502,7,0.0167412,10,0.000216407,-3.01546,-1.48538,-0.0397204,-1.4949,0.224252,
2,1,0,1,0,12952.4,0.232019,0.231714,0.953542,7,0.0171063,10,0.000220949,-3.02066,-1.53255,-0.0384979,-1.4317,0.231714,
2,1,0,1,0,12952.8,0.23951,0.239181,0.943221,7,0.0174678,10,0.000225601,-3.02539,-4.23555,-0.0139297,-0.512838,0.239181,
2,1,0,1,0,12953.1,0.247001,0.246715,0.935503,7,0.0178256,10,0.000230802,-3.02895,-1.27004,-0.0464553,-1.69428,0.246715,
2,1,0,1,0,12953.5,0.254492,0.254207,0.924794,7,0.01818,10,0.000235089,-3.03396,-1.74361,-0.0338379,-1.22045,0.254207,
2,1,0,1,0,12953.9,0.261983,0.261694,0.915197,7,0.018531,10,0.000239502,-3.03849,-3.57162,-0.0165191,-0.590981,0.2616944,
2,1,0,1,0,12954.3,0.269474,0.269145,0.906945,7,0.0188788,10,0.0002441,-3.04242,14.7669,0.00399543,0.141336,0.269145,
2,1,0,1,0,12954.6,0.276965,0.27662,0.90071,7,0.0192233,10,0.000249154,-3.04542,-1.92535,-0.0306438,-1.07337,0.27662,
2,1,0,1,0,12955,0.284456,0.284175,0.890522,7,0.0195644,10,0.000253064,-3.05036,-1.15754,-0.05097,-1.76624,0.284175,
2,1,0,1,0,12955.4,0.291947,0.291665,0.877079,7,0.0199018,10,0.000255813,-3.05696,-1.34757,-0.0437826,-1.50306,0.291665,
2,1,0,1,0,12955.8,0.299436,0.299128,0.868607,7,0.0202356,10,0.000259824,-3.06118,-0.00253337,-23.2892,-390.544,0.299128,
2,0,0,1,0,12956.1,0.293745,0.29342,-0.200668,7,0.0202427,10,-5.88801e-05,-3.69752,-0.0227795,-2.59005,19.5641,0.29342,
2,0,0,1,0,12956.5,0.286254,0.285917,-0.302177,7,0.0201395,10,-8.63975e-05,-3.51974,-0.0713992,-0.82634,9.78212,0.2859166,
2,0,0,1,0,12956.9,0.278763,0.278462,-0.367295,7,0.0200062,10,-0.000102278,-3.43499,-0.117704,-0.501256,7.2091,0.2784619,
2,0,0,1,0,12957.2,0.271272,0.270952,-0.41605,7,0.0198524,10,-0.00011273,-3.38085,-0.15302,-0.38557,6.26832,0.270952,
2,0,0,1,0,12957.6,0.263781,0.263408,-0.456312,7,0.019682,10,-0.000120196,-3.34074,-0.213063,-0.276914,4.94296,0.263408,
2,0,0,1,0,12958,0.25629,0.255988,-0.495056,7,0.0194976,10,-0.000126728,-3.30535,-0.345543,-0.170746,3.26224,0.255988,
2,0,0,1,0,12958.4,0.248799,0.248475,-0.523598,7,0.0193008,10,-0.000130101,-3.281,-0.330928,-0.178286,3.64951,0.248475,
2,0,0,1,0,12958.7,0.241308,0.241004,-0.551586,7,0.0190929,10,-0.000132934,-3.25839,-0.43929,-0.134308,2.89253,0.241004,
2,0,0,1,0,12959.1,0.233817,0.233487,-0.578615,7,0.0188744,10,-0.000135099,-3.23761,-0.307258,-0.192021,4.34317,0.2334868,
2,0,0,1,0,12959.5,0.226326,0.225967,-0.608633,7,0.0186457,10,-0.000137531,-3.21564,-0.383,-0.154047,3.64704,0.225967,
2,0,0,1,0,12959.9,0.218835,0.218549,-0.635957,7,0.0184069,10,-0.000138988,-3.19657,-0.342823,-0.1721,4.25085,0.218549,
2,0,0,1,0,12960.2,0.211344,0.211056,-0.658855,7,0.0181585,10,-0.000139055,-3.18121,-0.605595,-0.0974248,2.5079,0.211056,
2,0,0,1,0,12960.6,0.203855,0.203507,-0.686905,7,0.0178996,10,-0.00013979,-3.1631,-0.482818,-0.122199,3.28304,0.203507,
2,0,0,1,0,12961,0.196362,0.19607,-0.71748,7,0.0176302,10,-0.000140676,-3.14419,-0.4132,-0.142788,3.99777,0.19607,
2,0,0,1,0,12961.4,0.188871,0.188542,-0.751664,7,0.0173486,10,-0.00014172,-3.12398,-0.303727,-0.194254,5.70436,0.188542,
2,0,0,1,0,12961.7,0.18138,0.181096,-0.792167,7,0.0170534,10,-0.000143459,-3.10118,-0.324752,-0.181677,5.61,0.181096,
2,0,0,1,0,12962.1,0.173891,0.173649,-0.844385,7,0.0167412,10,-0.000146626,-3.07346,-0.219295,-0.269044,8.83432,0.173649,
2,0,0,1,0,12962.5,0.166398,0.166071,-0.911552,7,0.0164068,10,-0.000151383,-3.04022,-0.213734,-0.276044,9.84426,0.166071,
2,0,0,1,0,12962.9,0.158906,0.15859,-1.01227,7,0.0160411,10,-0.000160537,-2.9947,-0.134979,-0.437104,17.3249,0.15859,
2,0,0,1,0,12963.2,0.151417,0.151103,-1.17854,7,0.0156262,10,-0.000178081,-2.92866,-0.0955376,-0.617558,28.5423,0.151103,
2,0,0,1,0,12963.6,0.143926,0.143623,-1.45215,7,0.0151308,10,-0.000208561,-2.83799,-0.0706143,-0.835525,47.4203,0.143623,
2,0,0,1,0,12964,0.136435,0.136122,-1.83911,7,0.0145101,10,-0.000250343,-2.73539,-0.0781111,-0.755335,54.0746,0.136122,
2,0,0,1,0,12964.4,0.128942,0.128619,-2.21343,7,0.0137426,10,-0.000284689,-2.65493,-0.118367,-0.498449,42.8533,0.128619,
2,0,0,1,0,12964.7,0.121453,0.121101,-2.45062,7,0.0128586,10,-0.000296772,-2.61072,-0.278613,-0.211763,20.1728,0.121101,
2,0,0,1,0,12965.1,0.113962,0.113596,-2.52926,7,0.0119151,10,-0.000287314,-2.59701,-5.2578,-0.0112214,1.10612,0.113596,
2,0,0,1,0,12965.5,0.106471,0.10617,-2.48764,7,0.0109656,10,-0.000264114,-2.60421,0.543062,0.108643,-10.5621,0.1061704,
2,0,0,1,0,12965.9,0.0989799,0.0986805,-2.38306,7,0.010045,10,-0.000235162,-2.62287,0.353752,0.166783,-15.4893,0.0986805,
2,0,0,1,0,12966.2,0.0914889,0.091137,-2.26031,7,0.00916969,10,-0.000205998,-2.64583,0.341724,0.172654,-15.2052,0.091137,
2,0,0,1,0,12966.6,0.083998,0.0836907,-2.15296,7,0.0083382,10,-0.000180183,-2.66696,0.379682,0.155393,-13.048,0.0836907,
2,0,0,1,0,12967,0.076507,0.0761661,-2.07657,7,0.00754051,10,-0.000158164,-2.68265,0.486398,0.1213,-9.82809,0.0761661,
2,0,0,1,0,12967.3,0.0690161,0.0686615,-2.00412,7,0.00676935,10,-0.000137606,-2.69808,0.509454,0.11581,-9.08592,0.0686615,
2,0,0,1,0,12967.7,0.0615251,0.061193,-1.94731,7,0.00602118,10,-0.000119162,-2.71057,0.562308,0.104925,-7.98964,0.061193,
2,0,0,1,0,12968.1,0.0540342,0.0537332,-1.88812,7,0.00529615,10,-0.000101455,-2.72397,0.588545,0.100247,-7.38856,0.0537332,
2,0,0,1,0,12968.5,0.0465432,0.0462264,-1.82025,7,0.00459472,10,-8.41435e-05,-2.73987,0.467159,0.126295,-8.97419,0.0462264,
2,0,0,1,0,12968.8,0.0390523,0.0387299,-1.74724,7,0.00391965,10,-6.76705e-05,-2.75765,0.353634,0.166839,-11.3655,0.0387299,
2,0,0,1,0,12969.2,0.0315626,0.0312448,-1.67333,7,0.0032729,10,-5.2283e-05,-2.77642,0.369037,0.159875,-10.4177,0.0312448,
2,0,0,1,0,12969.6,0.0240704,0.0237513,-1.59727,7,0.00265417,10,-3.79372e-05,-2.79662,0.363855,0.162153,-10.1355,0.0237513,
2,0,0,1,0,12970,0.0165785,0.0162774,-1.53983,7,0.00206042,10,-2.50645e-05,-2.81253,0.562872,0.10482,-6.3076,0.0162774,
2,0,0,1,0,12970.3,0.00908846,0.00877316,-1.49626,7,0.00148606,10,-1.31269e-05,-2.82499,0.89279,0.066085,-3.86195,0.00877316,
2,0,0,1,0,12970.7,0.0015984,0.00122066,-1.49462,7,0.00092244,10,-1.82442e-06,-2.82547, , , ,0.001220664,
2,0,0,1,0,12970.8,0.000199195,-0.000209414,-1.47961,7,0.000817174,10,3.09851e-07,-2.82985, , , ,-0.000209414,