File: Figure_codes/Fig_3-5/rawdata_trumpetplot_data/after 10th/20221101_1-115_003_TrumpetPlot_ParaChange_from10_every3_14_CV_C01_31.csv
mode,ox/red,error,control changes,counter inc.,time/s,control/V,Ewe/V,<I>/mA,cycle number,(Q-Qo)/C,I Range,P/W,log(|I|),Tafel slope mV/dec,alpha_eff,dI/d(E-IR),E-IR/V,
2,1,0,1,0,62273.1,2.44065e-05,-0.000363498,28.0743,32,0.0000000E+000,10,-1.02049e-05,-1.55169, , , ,-0.000363498,
2,1,0,1,0,62273.2,0.0133084,0.0129032,31.5405,32,0.000394341,10,0.000406974,-1.50113,0.350924,0.168128,206.188,0.0129032,
2,1,0,1,0,62273.2,0.0273414,0.0269483,34.1572,32,0.000855045,10,0.000920481,-1.46652,0.456289,0.129304,171.872,0.0269483,
2,1,0,1,0,62273.2,0.0413245,0.0409478,36.3786,32,0.00134929,10,0.00148962,-1.43915,0.557277,0.105872,150.111,0.0409478,
2,1,0,1,0,62273.2,0.0553076,0.0549367,38.3707,32,0.001873,10,0.00210796,-1.416,0.640992,0.0920448,137.791,0.0549367,
2,1,0,1,0,62273.2,0.0693407,0.0689171,40.2361,32,0.00242358,10,0.00277295,-1.39538,0.72384,0.0815097,127.834,0.0689171,
2,1,0,1,0,62273.2,0.0833238,0.0829675,41.95,32,0.00299911,10,0.00348049,-1.37727,0.800447,0.0737088,120.638,0.0829675,
2,1,0,1,0,62273.2,0.0973069,0.0969023,43.6209,32,0.00359833,10,0.00422696,-1.36031,0.828286,0.0712315,121.312,0.0969023,
2,1,0,1,0,62273.3,0.11134,0.110889,45.3232,32,0.00422115,10,0.00502584,-1.34368,0.863187,0.0683514,120.872,0.110889,
2,1,0,1,0,62273.3,0.125323,0.124924,47.023,32,0.0048677,10,0.00587428,-1.32769,0.898621,0.0656561,120.445,0.124924,
2,1,0,1,0,62273.3,0.139306,0.138816,48.7539,32,0.00553798,10,0.00676782,-1.31199,0.833681,0.0707704,134.832,0.138816,
2,1,0,1,0,62273.3,0.153339,0.152959,50.7178,32,0.00623462,10,0.00775772,-1.29484,0.83986,0.0702498,139.092,0.152959,
2,1,0,1,0,62273.3,0.167322,0.166909,52.7206,32,0.00695884,10,0.00879956,-1.27802,0.851082,0.0693235,142.563,0.166909,
2,1,0,1,0,62273.3,0.181305,0.180879,54.6546,32,0.00771081,10,0.00988587,-1.26237,0.933497,0.0632032,134.771,0.180879,
2,1,0,1,0,62273.3,0.195338,0.194903,56.4048,32,0.00848893,10,0.0109935,-1.24868,1.19112,0.0495331,108.919,0.194903,
2,1,0,1,0,62273.4,0.209322,0.208938,57.7081,32,0.00928845,10,0.0120574,-1.23876,1.84984,0.0318946,71.6908,0.208938,
2,1,0,1,0,62273.4,0.223305,0.222961,58.3911,32,0.0101019,10,0.0130189,-1.23365,4.84612,0.0121747,27.6989,0.222961,
2,1,0,1,0,62273.4,0.237338,0.23697,58.4411,32,0.0109206,10,0.0138488,-1.23328,-5.89453,-0.0100093,-22.7898,0.23697,
2,1,0,1,0,62273.4,0.251321,0.250954,57.7996,32,0.011735,10,0.014505,-1.23808,-1.90491,-0.0309726,-69.7257,0.250954,
2,1,0,1,0,62273.4,0.265304,0.264956,56.5028,32,0.0125356,10,0.0149707,-1.24793,-1.15559,-0.051056,-112.4,0.264956,
2,1,0,1,0,62273.4,0.279337,0.278984,54.6268,32,0.0133141,10,0.01524,-1.26259,-0.821542,-0.0718162,-152.908,0.278984,
2,1,0,1,0,62273.4,0.29332,0.292953,52.3001,32,0.0140628,10,0.0153215,-1.2815,-0.686149,-0.0859871,-175.812,0.2929534,
2,1,0,1,0,62273.5,0.298714,0.298522,48.7698,32,0.0144731,10,0.0145588,-1.31185,0.068832,0.85716,1499.98,0.298522,
2,1,0,1,0,62273.5,0.28473,0.284466,33.3589,32,0.0150362,10,0.00948948,-1.47679,0.0876136,0.673412,881.043,0.284466,
2,1,0,1,0,62273.5,0.270747,0.270465,22.7897,32,0.0154249,10,0.00616381,-1.64226,0.0785934,0.750699,665.428,0.270465,
2,1,0,1,0,62273.5,0.256714,0.256404,14.4498,32,0.0156824,10,0.003705,-1.84014,0.0615919,0.957918,533.858,0.2564044,
2,1,0,1,0,62273.5,0.242731,0.242391,7.71164,32,0.0158354,10,0.00186923,-2.11285,0.038971,1.51395,435.397,0.242391,
2,1,0,1,0,62273.5,0.228748,0.228435,2.16336,32,0.0159028,10,0.000494187,-2.66487,0.0174443,3.3822,365.114,0.228435,
2,0,0,1,0,62273.5,0.214715,0.214387,-2.52154,32,0.0158987,10,-0.000540586,-2.59833,-0.00755546,-7.80892,306.008,0.214387,
2,0,0,1,0,62273.5,0.200732,0.200412,-6.48932,32,0.0158345,10,-0.00130054,-2.1878,-0.0539177,-1.09426,262.947,0.200412,
2,0,0,1,0,62273.6,0.186735,0.186409,-9.93595,32,0.0157188,10,-0.00185215,-2.00279,-0.0967656,-0.609721,232.108,0.186409,
2,0,0,1,0,62273.6,0.172716,0.172392,-13.0008,32,0.0155575,10,-0.00224124,-1.88603,-0.142531,-0.413945,208.366,0.172392,
2,0,0,1,0,62273.6,0.158733,0.158368,-15.8336,32,0.0153552,10,-0.00250753,-1.80042,-0.181698,-0.324715,199.907,0.158368,
2,0,0,1,0,62273.6,0.144719,0.1444,-18.6737,32,0.0151137,10,-0.00269648,-1.72877,-0.205769,-0.28673,208.637,0.1444,
2,0,0,1,0,62273.6,0.130717,0.130394,-21.7201,32,0.014831,10,-0.00283217,-1.66314,-0.213251,-0.27667,235.062,0.130394,
2,0,0,1,0,62273.6,0.116733,0.116395,-25.3162,32,0.014502,10,-0.00294667,-1.5966,-0.210839,-0.279835,276.703,0.116395,
2,0,0,1,0,62273.6,0.102703,0.102394,-29.4593,32,0.0141189,10,-0.00301646,-1.53078,-0.223373,-0.264132,302.729,0.102394,
2,0,0,1,0,62273.7,0.0887173,0.0884212,-33.6273,32,0.0136768,10,-0.00297336,-1.47331,-0.262227,-0.224996,294.649,0.0884212,
2,0,0,1,0,62273.7,0.0747341,0.0744164,-37.6144,32,0.0131772,10,-0.00279913,-1.42465,-0.319893,-0.184437,269.957,0.0744164,
2,0,0,1,0,62273.7,0.0607011,0.0603766,-41.2027,32,0.0126248,10,-0.00248768,-1.38507,-0.407939,-0.144629,231.453,0.0603766,
2,0,0,1,0,62273.7,0.046718,0.0464556,-44.1097,32,0.0120271,10,-0.00204914,-1.35547,-0.523071,-0.112795,193.632,0.0464556,
2,0,0,1,0,62273.7,0.0327349,0.0324953,-46.5279,32,0.0113918,10,-0.00151194,-1.33229,-0.68478,-0.086159,156.162,0.03249532,
2,0,0,1,0,62273.7,0.0187018,0.0184958,-48.5382,32,0.0107259,10,-0.000897754,-1.31392,-0.871046,-0.0677347,128.052,0.01849583,
2,0,0,1,0,62273.7,0.00471873,0.00439985,-50.1184,32,0.0100348,10,-0.000220513,-1.3,-1.16384,-0.0506943,99.0189,0.00439985,
2,0,0,1,0,62273.8,-0.00926438,-0.00962933,-51.2733,32,0.00932422,10,0.000493728,-1.29011,-1.79619,-0.0328473,65.6563,-0.00962933,
2,0,0,1,0,62273.8,-0.0232974,-0.0236702,-52.0337,32,0.0086006,10,0.00123165,-1.28372,-3.10556,-0.0189982,38.5164,-0.0236702,
2,0,0,1,0,62273.8,-0.0372805,-0.0376601,-52.3544,32,0.00786953,10,0.00197167,-1.28105,-10.5918,-0.00557033,11.3683,-0.0376601,
2,0,0,1,0,62273.8,-0.0512636,-0.0516448,-52.3664,32,0.00713629,10,0.00270445,-1.28095,17.7516,0.00332364,-6.78767,-0.05164478,
2,0,0,1,0,62273.8,-0.0652967,-0.0656581,-52.2244,32,0.00640413,10,0.00342895,-1.28213,8.00185,0.00737329,-15.0176,-0.0656581,
2,0,0,1,0,62273.8,-0.0792798,-0.0796671,-51.9508,32,0.00567494,10,0.00413877,-1.28441,5.77324,0.0102196,-20.7148,-0.0796671,
2,0,0,1,0,62273.8,-0.0932629,-0.0936401,-51.6647,32,0.00494982,10,0.00483788,-1.28681,6.61136,0.00892403,-17.9928,-0.0936401,
2,0,0,1,0,62273.9,-0.107296,-0.107683,-51.4556,32,0.00422818,10,0.0055409,-1.28857,10.1817,0.00579471,-11.6368,-0.107683,
2,0,0,1,0,62273.9,-0.121279,-0.121639,-51.3054,32,0.00350897,10,0.00624074,-1.28984,15.7452,0.00374717,-7.5052,-0.121639,
2,0,0,1,0,62273.9,-0.135262,-0.135653,-51.272,32,0.00279113,10,0.00695522,-1.29012,-52.4197,-0.00112553,2.25314,-0.135653,
2,0,0,1,0,62273.9,-0.149295,-0.149657,-51.3976,32,0.00207253,10,0.00769202,-1.28906,-9.14423,-0.00645215,12.945,-0.149657,
2,0,0,1,0,62273.9,-0.163278,-0.163641,-51.6029,32,0.00135152,10,0.00844434,-1.28733,-6.61597,-0.00891781,17.9657,-0.163641,
2,0,0,1,0,62273.9,-0.177261,-0.177603,-51.8989,32,0.000627049,10,0.0092174,-1.28484,-5.39941,-0.0109271,22.1304,-0.177603,
2,0,0,1,0,62273.9,-0.191295,-0.191638,-52.236,32,-0.00010187,10,0.0100104,-1.28203,-5.06899,-0.0116394,23.7182,-0.191638,
2,0,0,0,1,62273.9,-0.199984,-0.200589,-52.1061,32,-0.000588428,10,0.0104519,-1.28311,-0.0459414,-1.28424,2348.52,-0.200589,
2,0,0,1,1,62274,-0.186686,-0.187117,-36.045,32,-0.00114712,10,0.00674463,-1.44316,-0.0957621,-0.61611,877.549,-0.187117,
2,0,0,1,1,62274,-0.172667,-0.173084,-25.9376,32,-0.00157626,10,0.00448938,-1.58607,-0.0954541,-0.618098,626.437,-0.173084,
2,0,0,1,1,62274,-0.158684,-0.159103,-18.0905,32,-0.00188192,10,0.00287825,-1.74255,-0.0804396,-0.73347,514.754,-0.159103,
2,0,0,1,1,62274,-0.14467,-0.145098,-11.4648,32,-0.0020872,10,0.00166352,-1.94063,-0.0588764,-1.0021,439.57,-0.145098,
2,0,0,1,1,62274,-0.130668,-0.131116,-5.67305,32,-0.00220579,10,0.000743827,-2.24618,-0.0305065,-1.93401,389.316,-0.131116,
2,0,0,1,1,62274,-0.116685,-0.117141,-0.481543,32,-0.00224783,10,5.64084e-05,-3.31736,-0.0925744,-0.637325,356.427,-0.117141,
2,1,0,1,1,62274,-0.102654,-0.10311,4.30562,32,-0.00222035,10,-0.00044395,-2.36596,0.0254979,2.31392,326.7,-0.10311,
2,1,0,1,1,62274.1,-0.0886685,-0.0891418,8.68936,32,-0.0021286,10,-0.000774586,-2.06101,0.063762,0.925316,303.842,-0.0891418,
2,1,0,1,1,62274.1,-0.0746854,-0.0751657,12.8016,32,-0.0019774,10,-0.000962243,-1.89273,0.102929,0.573212,282.222,-0.0751657,
2,1,0,1,1,62274.1,-0.0606523,-0.061145,16.663,32,-0.00177072,10,-0.00101886,-1.77825,0.143984,0.409768,263.803,-0.06114497,
2,1,0,1,1,62274.1,-0.0466692,-0.047119,20.1775,32,-0.00151217,10,-0.000950744,-1.69513,0.190417,0.309847,242.8,-0.047119,
2,1,0,1,1,62274.1,-0.0326861,-0.0330887,23.456,32,-0.00120613,10,-0.000776129,-1.62975,0.239484,0.246363,224.597,-0.0330887,
2,1,0,1,1,62274.1,-0.018653,-0.019068,26.501,32,-0.000856022,10,-0.000505322,-1.57674,0.291721,0.202248,208.419,-0.019068,
2,1,0,1,1,62274.1,-0.00466992,-0.00508867,29.25,32,-0.000465159,10,-0.000148844,-1.53387, , , ,-0.005088672,
2,1,0,0,1,62274.1,-0.000175352,-0.000554371,30.0822,32,-0.00033163,10,-1.66767e-05,-1.52169, , , ,-0.000554371,