File: Figure_codes/Fig_3-5/rawdata_trumpetplot_data/after 10th/20221101_1-115_003_TrumpetPlot_ParaChange_from10_every3_08_CV_C01_12.csv
mode,ox/red,error,control changes,counter inc.,time/s,control/V,Ewe/V,<I>/mA,cycle number,(Q-Qo)/C,I Range,P/W,log(|I|),Tafel slope mV/dec,alpha_eff,dI/d(E-IR),E-IR/V,
2,0,0,0,0,24816.6,2.44065e-05,-0.000439847,-4.01671,13,0.0000000E+000,10,1.76674e-06,-2.39613, , , ,-0.000439847,
2,1,0,1,0,24816.7,0.0072942,0.00698069,1.22022,13,-5.13462e-05,10,8.51797e-06,-2.91356,0.0081334,7.25404,285.799,0.00698069,
2,1,0,1,0,24816.8,0.0147816,0.0144261,2.49802,13,0.000133567,10,3.60367e-05,-2.6024,0.0533548,1.1058,106.769,0.0144261,
2,1,0,1,0,24816.9,0.0222707,0.0219714,3.08644,13,0.000398689,10,6.78135e-05,-2.51054,0.115288,0.51176,61.5458,0.02197139,
2,1,0,1,0,24817,0.0297581,0.0294417,3.50824,13,0.000708835,10,0.000103288,-2.45491,0.163981,0.359798,49.0809,0.02944169,
2,1,0,1,0,24817,0.0372544,0.0369167,3.86599,13,0.00105509,10,0.000142719,-2.41274,0.184224,0.320263,48.2194,0.0369167,
2,1,0,1,0,24817.1,0.0447507,0.0444552,4.19554,13,0.00143431,10,0.000186514,-2.37721,0.216898,0.272018,44.6475,0.04445523,
2,1,0,1,0,24817.2,0.0522381,0.0519095,4.53099,13,0.00184451,10,0.000235201,-2.34381,0.255733,0.23071,40.8209,0.0519095,
2,1,0,1,0,24817.3,0.0597273,0.0593945,4.84788,13,0.00228468,10,0.000287937,-2.31445,0.258405,0.228323,43.1473,0.05939446,
2,1,0,1,0,24817.4,0.0672147,0.0669384,5.13444,13,0.00275291,10,0.000343691,-2.28951,0.309727,0.19049,38.1515,0.0669384,
2,1,0,1,0,24817.5,0.0747038,0.0744315,5.39423,13,0.00324718,10,0.000401501,-2.26807,0.436493,0.135168,28.4811,0.0744315,
2,1,0,1,0,24817.6,0.0822055,0.0819376,5.62694,13,0.00376548,10,0.000461058,-2.24973,0.454884,0.129703,28.464,0.0819376,
2,1,0,1,0,24817.7,0.0896946,0.0893837,5.82678,13,0.00430306,10,0.000520819,-2.23457,0.435206,0.135568,30.8848,0.0893837,
2,1,0,1,0,24817.8,0.097182,0.096867,6.08436,13,0.00486169,10,0.000589374,-2.21578,0.374744,0.157441,37.4252,0.096867,
2,1,0,1,0,24817.9,0.104671,0.104339,6.45566,13,0.00544867,10,0.000673579,-2.19006,0.258535,0.228209,57.4624,0.104339,
2,1,0,1,0,24818,0.112159,0.111836,6.94016,13,0.00607585,10,0.000776161,-2.15863,0.229625,0.256941,69.6151,0.111836,
2,1,0,1,0,24818.1,0.119655,0.119324,7.44525,13,0.00675137,10,0.000888398,-2.12812,0.292851,0.201468,58.5061,0.119324,
2,1,0,1,0,24818.2,0.127149,0.126828,7.84493,13,0.00746997,10,0.000994954,-2.10541,0.427322,0.138069,42.2519,0.126828,
2,1,0,1,0,24818.3,0.134639,0.134309,8.12765,13,0.00821953,10,0.00109161,-2.09004,0.569383,0.103621,32.8675,0.134309,
2,1,0,1,0,24818.4,0.142126,0.14185,8.29828,13,0.00899109,10,0.00117711,-2.08101,2.18663,0.0269822,8.73278,0.14185,
2,1,0,1,0,24818.5,0.149615,0.149297,8.13511,13,0.0097657,10,0.00121455,-2.08964,-0.272861,-0.216227,-68.3694,0.149297,
2,1,0,1,0,24818.5,0.157103,0.156796,7.27692,13,0.0104932,10,0.00114099,-2.13805,-0.107797,-0.547324,-154.878,0.156796,
2,1,0,1,0,24818.6,0.164606,0.164313,5.9918,13,0.011117,10,0.000984533,-2.22244,-0.0837471,-0.704502,-164.899,0.164313,
2,1,0,1,0,24818.7,0.172095,0.171806,4.95395,13,0.011627,10,0.000851118,-2.30505,-0.0998353,-0.590973,-114.547,0.171806,
2,1,0,1,0,24818.8,0.179582,0.179247,4.31466,13,0.0120592,10,0.000773392,-2.36505,-0.156051,-0.378081,-63.7737,0.179247,
2,1,0,1,0,24818.9,0.18707,0.186767,3.92699,13,0.0124445,10,0.000733434,-2.40594,-0.240329,-0.245497,-37.6452,0.186767,
2,1,0,1,0,24819,0.194559,0.194247,3.68226,13,0.0128009,10,0.000715269,-2.43389,-0.312208,-0.188977,-27.2108,0.194247,
2,1,0,1,0,24819.1,0.202062,0.201789,3.52807,13,0.0131395,10,0.000711927,-2.45246,-0.451759,-0.130601,-17.9431,0.201789,
2,1,0,1,0,24819.2,0.20955,0.209223,3.40938,13,0.0134651,10,0.000713322,-2.46732,-0.667702,-0.0883627,-11.7864,0.209223,
2,1,0,1,0,24819.3,0.217039,0.216741,3.32734,13,0.0137818,10,0.000721171,-2.4779,-0.628657,-0.0938509,-12.2075,0.216741,
2,1,0,1,0,24819.4,0.224526,0.224196,3.27561,13,0.014092,10,0.000734378,-2.48471,-0.879049,-0.067118,-8.57317,0.224196,
2,1,0,1,0,24819.5,0.232016,0.231731,3.22495,13,0.0143971,10,0.000747323,-2.49148,-1.65632,-0.0356211,-4.48947,0.231731,
2,1,0,1,0,24819.6,0.23951,0.239237,3.18467,13,0.0146987,10,0.000761889,-2.49694,-1.08874,-0.0541913,-6.73732,0.239237,
2,1,0,1,0,24819.7,0.247006,0.246683,3.15934,13,0.014997,10,0.000779356,-2.5004,-1.39661,-0.0422451,-5.19826,0.246683,
2,1,0,1,0,24819.8,0.254494,0.2542,3.12811,13,0.015292,10,0.000795167,-2.50472,-2.39371,-0.0246479,-3.00671,0.2542,
2,1,0,1,0,24819.9,0.261983,0.261703,3.09594,13,0.0155845,10,0.000810219,-2.50921,-1.5049,-0.0392053,-4.74417,0.261703,
2,1,0,1,0,24820,0.26947,0.269192,3.07497,13,0.0158746,10,0.000827758,-2.51216,-1.77791,-0.0331851,-3.98196,0.269192,
2,1,0,1,0,24820,0.276959,0.276638,3.05348,13,0.0161622,10,0.000844708,-2.51521,-7.54927,-0.00781533,-0.929552,0.276638,
2,1,0,1,0,24820.1,0.284461,0.284181,3.02236,13,0.0164481,10,0.000858898,-2.51965,-2.09377,-0.0281788,-3.32159,0.284181,
2,1,0,1,0,24820.2,0.29195,0.291661,2.99781,13,0.0167308,10,0.000874343,-2.5232,-1.22584,-0.0481301,-5.63034,0.291661,
2,1,0,1,0,24820.3,0.299438,0.29918,2.96934,13,0.017011,10,0.000888366,-2.52734,-0.0261737,-2.25417,-237.227,0.29918,
2,0,0,1,0,24820.4,0.29424,0.293926,-0.502445,13,0.0170703,10,-0.000147682,-3.29891,-0.00334134,-17.6576,180.66,0.293926,
2,0,0,1,0,24820.5,0.286753,0.286421,-1.15796,13,0.0169849,10,-0.000331664,-2.93631,-0.0540743,-1.09109,48.9108,0.2864207,
2,0,0,1,0,24820.6,0.279264,0.278942,-1.4282,13,0.0168614,10,-0.000398385,-2.84521,-0.1125,-0.524444,29.2885,0.278942,
2,0,0,1,0,24820.7,0.271776,0.271468,-1.61062,13,0.0167176,10,-0.000437232,-2.79301,-0.17644,-0.334391,21.0399,0.271468,
2,0,0,1,0,24820.8,0.26428,0.263976,-1.75335,13,0.0165588,10,-0.000462841,-2.75613,-0.244269,-0.241537,16.4839,0.263976,
2,0,0,1,0,24820.9,0.256786,0.256477,-1.87016,13,0.016388,10,-0.000479652,-2.72812,-0.260689,-0.226323,16.4885,0.256477,
2,0,0,1,0,24821,0.249296,0.248994,-1.96732,13,0.0162071,10,-0.000489852,-2.70612,-0.374507,-0.15754,12.1169,0.248994,
2,0,0,1,0,24821.1,0.241809,0.241457,-2.06426,13,0.0160171,10,-0.000498431,-2.68524,-0.46216,-0.127661,10.2924,0.241457,
2,0,0,1,0,24821.2,0.23432,0.233992,-2.15354,13,0.0158189,10,-0.000503913,-2.66685,-0.360697,-0.163572,13.736,0.233992,
2,0,0,1,0,24821.2,0.226833,0.226491,-2.23066,13,0.0156127,10,-0.000505223,-2.65157,-0.39696,-0.14863,12.9548,0.226491,
2,0,0,1,0,24821.3,0.219329,0.218959,-2.32025,13,0.0153984,10,-0.000508039,-2.63447,-0.51589,-0.114365,10.3287,0.218959,
2,0,0,1,0,24821.4,0.21184,0.211505,-2.39877,13,0.015177,10,-0.000507352,-2.62001,-0.577847,-0.102103,9.51989,0.211505,
2,0,0,1,0,24821.5,0.204353,0.204054,-2.47491,13,0.0149481,10,-0.000505015,-2.60644,-0.622932,-0.0947133,9.16463,0.204054,
2,0,0,1,0,24821.6,0.196863,0.196552,-2.55499,13,0.0147115,10,-0.000502189,-2.59261,-0.63856,-0.0923953,9.23168,0.196552,
2,0,0,1,0,24821.7,0.189376,0.189047,-2.65753,13,0.0144667,10,-0.000502398,-2.57552,-0.429138,-0.137485,14.2622,0.189047,
2,0,0,1,0,24821.8,0.18188,0.181568,-2.75697,13,0.0142123,10,-0.000500576,-2.55957,-0.339501,-0.173784,18.7196,0.181568,
2,0,0,1,0,24821.9,0.174385,0.174039,-2.88356,13,0.013947,10,-0.000501852,-2.54007,-0.381308,-0.154731,17.418,0.174039,
2,0,0,1,0,24822,0.166896,0.166548,-3.05918,13,0.0136686,10,-0.000509499,-2.51439,-0.302702,-0.194911,23.1842,0.166548,
2,0,0,1,0,24822.1,0.159409,0.159065,-3.27818,13,0.0133722,10,-0.000521445,-2.48437,-0.202907,-0.290774,37.1827,0.159065,
2,0,0,1,0,24822.2,0.151919,0.151612,-3.6118,13,0.0130499,10,-0.000547592,-2.44228,-0.154058,-0.382972,54.1855,0.151612,
2,0,0,1,0,24822.3,0.144425,0.144102,-4.15988,13,0.0126866,10,-0.000599447,-2.38092,-0.10476,-0.563194,91.6193,0.144102,
2,0,0,1,0,24822.4,0.136929,0.136585,-4.98982,13,0.0122593,10,-0.000681534,-2.30192,-0.0891556,-0.661765,128.818,0.136585,
2,0,0,1,0,24822.5,0.129441,0.129066,-5.99409,13,0.011745,10,-0.00077363,-2.22228,-0.101191,-0.583057,136.393,0.129066,
2,0,0,1,0,24822.6,0.121952,0.121615,-6.96645,13,0.0111361,10,-0.000847227,-2.15699,-0.140152,-0.420972,114.213,0.121615,
2,0,0,1,0,24822.7,0.114465,0.11416,-7.71789,13,0.0104464,10,-0.000881075,-2.1125,-0.210171,-0.280724,84.3796,0.11416,
2,0,0,1,0,24822.7,0.106976,0.106691,-8.19496,13,0.00969878,10,-0.000874332,-2.08645,-0.42201,-0.139807,44.6801,0.106691,
2,0,0,1,0,24822.8,0.0994721,0.0991629,-8.39183,13,0.00891743,10,-0.000832158,-2.07614,-4.30237,-0.0137134,4.48362,0.0991629,
2,0,0,1,0,24822.9,0.0919847,0.0916776,-8.28515,13,0.00813429,10,-0.000759563,-2.0817,0.672421,0.0877427,-28.3265,0.0916776,
2,0,0,1,0,24823,0.0844974,0.0841848,-7.95873,13,0.00737228,10,-0.000670004,-2.09916,0.399157,0.147812,-45.9085,0.0841848,
2,0,0,1,0,24823.1,0.0770082,0.0766692,-7.62842,13,0.0066426,10,-0.000584864,-2.11757,0.412912,0.142888,-42.5111,0.0766692,
2,0,0,1,0,24823.2,0.0695208,0.0692163,-7.37216,13,0.0059408,10,-0.000510273,-2.13241,0.602613,0.0979069,-28.168,0.0692163,
2,0,0,1,0,24823.3,0.0620245,0.061744,-7.17762,13,0.00525837,10,-0.000443175,-2.14402,0.711918,0.0828748,-23.2242,0.061744,
2,0,0,1,0,24823.4,0.0545282,0.0541693,-6.99928,13,0.00459275,10,-0.000379146,-2.15495,0.684705,0.0861686,-23.5576,0.0541693,
2,0,0,1,0,24823.5,0.0470408,0.0467011,-6.82451,13,0.00394457,10,-0.000318712,-2.16593,0.612369,0.0963472,-25.6462,0.0467011,
2,0,0,1,0,24823.6,0.0395517,0.0392205,-6.62704,13,0.00331431,10,-0.000259916,-2.17868,0.60553,0.0974354,-25.1696,0.0392205,
2,0,0,1,0,24823.7,0.0320643,0.0317523,-6.3941,13,0.00270368,10,-0.000203027,-2.19422,0.42296,0.139493,-34.824,0.0317523,
2,0,0,1,0,24823.8,0.0245751,0.024221,-6.14229,13,0.00211599,10,-0.000148772,-2.21167,0.363983,0.162095,-38.8281,0.024221,
2,0,0,1,0,24823.9,0.0170735,0.0167132,-5.86972,13,0.001552,10,-9.81017e-05,-2.23138,0.42259,0.139615,-32.0318,0.0167132,
2,0,0,1,0,24824,0.00958429,0.00920402,-5.63409,13,0.00101254,10,-5.18563e-05,-2.24918,0.498105,0.118449,-26.0869,0.00920402,
2,0,0,1,0,24824.1,0.0020969,0.00170952,-5.51847,13,0.000492217,10,-9.43394e-06,-2.25818,1.02561,0.0575266,-12.2982,0.00170952,
2,0,0,1,0,24824.1,0.000199195,-0.000168808,-5.45364,13,0.000362054,10,9.20615e-07,-2.26331, , , ,-0.000168808,