File: Figure_codes/Fig_3-5/rawdata_trumpetplot_data/after 10th/20221101_1-115_003_TrumpetPlot_ParaChange_from10_every3_09_CV_C01_18.csv
mode,ox/red,error,control changes,counter inc.,time/s,control/V,Ewe/V,<I>/mA,cycle number,(Q-Qo)/C,I Range,P/W,log(|I|),Tafel slope mV/dec,alpha_eff,dI/d(E-IR),E-IR/V,
2,0,0,0,0,36644.9,2.44065e-05,-0.000248974,-5.31104,19,0.0000000E+000,10,1.32231e-06,-2.27482, , , ,-0.000248974,
2,1,0,1,0,36645,0.00978761,0.00943177,1.07445,19,-0.000117828,10,1.0134e-05,-2.96881,0.00702206,8.40209,289.739,0.00943177,
2,1,0,1,0,36645.1,0.0197755,0.019428,2.89179,19,9.42691e-05,10,5.61816e-05,-2.53883,0.0567979,1.03877,116.498,0.019428,
2,1,0,1,0,36645.2,0.0297635,0.0294535,3.79361,19,0.000431972,10,0.000111735,-2.42095,0.125556,0.469909,69.3533,0.0294535,
2,1,0,1,0,36645.3,0.0397514,0.0394336,4.42256,19,0.000843371,10,0.000174397,-2.35433,0.16264,0.362764,62.6177,0.0394336,
2,1,0,1,0,36645.4,0.0497484,0.0494483,4.98314,19,0.00131372,10,0.000246408,-2.3025,0.219453,0.26885,52.1915,0.0494483,
2,1,0,1,0,36645.5,0.0597273,0.0594123,5.48549,19,0.00183638,10,0.000325906,-2.26078,0.248685,0.237248,50.7572,0.0594123,
2,1,0,1,0,36645.6,0.0697152,0.0693845,5.95018,19,0.0024084,10,0.00041285,-2.22547,0.329152,0.179249,41.6494,0.0693845,
2,1,0,1,0,36645.7,0.0797031,0.0793586,6.36748,19,0.00302431,10,0.000505314,-2.19603,0.376691,0.156627,38.9148,0.0793586,
2,1,0,1,0,36645.8,0.0896911,0.089393,6.71361,19,0.00367854,10,0.00060015,-2.17304,0.463908,0.12718,33.3801,0.089393,
2,1,0,1,0,36645.9,0.099679,0.0993441,7.09272,19,0.00436699,10,0.00070462,-2.14919,0.376469,0.156719,43.344,0.0993441,
2,1,0,1,0,36646,0.109667,0.109354,7.62703,19,0.00510025,10,0.000834049,-2.11764,0.27855,0.211811,63.0949,0.109354,
2,1,0,1,0,36646.1,0.119655,0.119344,8.33561,19,0.00589683,10,0.000994803,-2.07906,0.27663,0.213281,69.3678,0.119344,
2,1,0,1,0,36646.2,0.129643,0.12929,8.97554,19,0.0067633,10,0.00116045,-2.04694,0.377805,0.156165,54.6922,0.12929,
2,1,0,1,0,36646.3,0.139631,0.13933,9.4149,19,0.00768426,10,0.00131178,-2.02618,0.643076,0.0917465,33.7175,0.13933,
2,1,0,1,0,36646.4,0.149619,0.149337,9.56472,19,0.00863564,10,0.00142837,-2.01933,-1.16927,-0.0504589,-18.7785,0.149337,
2,1,0,1,0,36646.5,0.159607,0.159277,8.82567,19,0.00956367,10,0.00140572,-2.05425,-0.154866,-0.380975,-130.894,0.159277,
2,1,0,1,0,36646.6,0.169595,0.169276,7.20362,19,0.010367,10,0.0012194,-2.14245,-0.102085,-0.577948,-162.433,0.169276,
2,1,0,1,0,36646.7,0.179582,0.179265,5.80619,19,0.0110117,10,0.00104084,-2.23611,-0.125175,-0.471339,-107.063,0.179265,
2,1,0,1,0,36646.8,0.18957,0.189237,4.99985,19,0.011548,10,0.000946158,-2.30104,-0.195878,-0.301207,-58.8587,0.189237,
2,1,0,1,0,36646.9,0.199558,0.199265,4.54679,19,0.0120225,10,0.000906018,-2.3423,-0.324092,-0.182047,-32.3073,0.199265,
2,1,0,1,0,36647,0.209546,0.209264,4.28029,19,0.0124623,10,0.00089571,-2.36853,-0.408869,-0.144301,-24.1214,0.209264,
2,1,0,1,0,36647.1,0.219534,0.219258,4.10355,19,0.0128802,10,0.000899735,-2.38684,-0.717543,-0.082225,-13.1668,0.219258,
2,1,0,1,0,36647.2,0.229522,0.229236,3.97824,19,0.0132841,10,0.000911955,-2.40031,-0.904617,-0.065221,-10.1374,0.229236,
2,1,0,1,0,36647.3,0.23951,0.239212,3.89782,19,0.013678,10,0.000932405,-2.40918,-1.82419,-0.0323432,-4.92634,0.239212,
2,1,0,1,0,36647.4,0.249498,0.249174,3.84037,19,0.0140644,10,0.000956918,-2.41563,-1.57356,-0.0374946,-5.61673,0.249174,
2,1,0,1,0,36647.5,0.259486,0.259163,3.78317,19,0.0144454,10,0.000980458,-2.42214,-1.43385,-0.041148,-6.07528,0.259163,
2,1,0,1,0,36647.6,0.269474,0.269178,3.7374,19,0.0148215,10,0.00100603,-2.42743,-1.62044,-0.0364098,-5.31251,0.269178,
2,1,0,1,0,36647.7,0.279462,0.279113,3.69548,19,0.0151932,10,0.00103146,-2.43233,-1.76771,-0.0333764,-4.81181,0.279113,
2,1,0,1,0,36647.8,0.28945,0.289201,3.65012,19,0.0155604,10,0.00105562,-2.43769,-3.43275,-0.0171874,-2.44606,0.289201,
2,1,0,1,0,36647.9,0.299438,0.299173,3.60611,19,0.0159229,10,0.00107885,-2.44296,-0.0362982,-1.62542,-213.535,0.299173,
2,0,0,1,0,36647.9,0.291747,0.291442,-0.602177,19,0.0160032,10,-0.0001755,-3.22028,-0.00633247,-9.31706,170.341,0.291442,
2,0,0,1,0,36648,0.281759,0.281433,-1.51493,19,0.0158881,10,-0.00042635,-2.81961,-0.0662459,-0.890622,52.2329,0.281433,
2,0,0,1,0,36648.1,0.271771,0.271446,-1.89892,19,0.0157154,10,-0.000515452,-2.72149,-0.143447,-0.411302,30.466,0.271446,
2,0,0,1,0,36648.2,0.261783,0.261426,-2.15019,19,0.0155121,10,-0.000562115,-2.66752,-0.239693,-0.246148,20.6274,0.261426,
2,0,0,1,0,36648.3,0.251795,0.251449,-2.33912,19,0.0152872,10,-0.000588171,-2.63095,-0.323715,-0.182259,16.6397,0.251449,
2,0,0,1,0,36648.4,0.241807,0.241491,-2.49616,19,0.0150448,10,-0.0006028,-2.60273,-0.370444,-0.159268,15.546,0.241491,
2,0,0,1,0,36648.5,0.231815,0.231504,-2.63842,19,0.0147875,10,-0.000610804,-2.57866,-0.375716,-0.157034,16.1855,0.231504,
2,0,0,1,0,36648.6,0.221831,0.221502,-2.77561,19,0.0145168,10,-0.000614802,-2.55664,-0.505679,-0.116675,12.6262,0.221502,
2,0,0,1,0,36648.7,0.211843,0.211486,-2.90143,19,0.0142331,10,-0.000613613,-2.53739,-0.661334,-0.0892137,10.0888,0.211486,
2,0,0,1,0,36648.8,0.201856,0.201545,-3.02428,19,0.0139367,10,-0.000609528,-2.51938,-0.562273,-0.104931,12.3965,0.201545,
2,0,0,1,0,36648.9,0.191868,0.191558,-3.15935,19,0.0136273,10,-0.0006052,-2.5004,-0.52748,-0.111853,13.8154,0.191558,
2,0,0,1,0,36649,0.18188,0.181563,-3.32022,19,0.0133041,10,-0.000602829,-2.47883,-0.39167,-0.150637,19.4643,0.181563,
2,0,0,1,0,36649.1,0.171892,0.171586,-3.49602,19,0.0129641,10,-0.000599869,-2.45643,-0.40494,-0.145701,19.8881,0.171586,
2,0,0,1,0,36649.2,0.161904,0.161538,-3.75293,19,0.0126027,10,-0.00060624,-2.42563,-0.276791,-0.213157,31.186,0.1615376,
2,0,0,1,0,36649.3,0.151916,0.15161,-4.13772,19,0.0122097,10,-0.000627319,-2.38324,-0.190611,-0.30953,50.1575,0.15161,
2,0,0,1,0,36649.4,0.141928,0.141591,-4.84797,19,0.0117636,10,-0.000686431,-2.31444,-0.117679,-0.501362,95.0132,0.141591,
2,0,0,1,0,36649.5,0.13194,0.131624,-6.00734,19,0.011225,10,-0.000790712,-2.22132,-0.100839,-0.585089,137.132,0.131624,
2,0,0,1,0,36649.6,0.121952,0.121649,-7.3687,19,0.010556,10,-0.000896397,-2.13261,-0.132654,-0.444765,127.69,0.121649,
2,0,0,1,0,36649.7,0.111964,0.111594,-8.50926,19,0.0097597,10,-0.000949583,-2.07011,-0.199231,-0.296139,98.2622,0.111594,
2,0,0,1,0,36649.8,0.101976,0.10166,-9.294,19,0.00886641,10,-0.000944832,-2.0318,-0.396332,-0.148865,53.8998,0.10166,
2,0,0,1,0,36649.9,0.0919883,0.0916477,-9.57626,19,0.0079192,10,-0.000877643,-2.0188,-4.32603,-0.0136384,5.09559,0.0916477,
2,0,0,1,0,36650,0.0820004,0.08168,-9.39499,19,0.00696894,10,-0.000767383,-2.0271,0.665025,0.0887185,-32.5087,0.08168,
2,0,0,1,0,36650.1,0.0720124,0.0716907,-9.02674,19,0.00604871,10,-0.000647133,-2.04447,0.59093,0.0998426,-35.1875,0.0716907,
2,0,0,1,0,36650.2,0.0620245,0.0616973,-8.73418,19,0.00516213,10,-0.000538875,-2.05878,0.736927,0.0800622,-27.293,0.0616973,
2,0,0,1,0,36650.3,0.0520366,0.0517306,-8.48136,19,0.00430206,10,-0.000438746,-2.07153,0.73472,0.0803027,-26.5819,0.0517306,
2,0,0,1,0,36650.4,0.0420486,0.0417709,-8.21268,19,0.00346752,10,-0.000343051,-2.08552,0.73305,0.0804857,-25.8134,0.0417709,
2,0,0,1,0,36650.5,0.0320607,0.0317239,-7.91236,19,0.00266198,10,-0.000251011,-2.10169,0.534802,0.110321,-34.0387,0.0317239,
2,0,0,1,0,36650.6,0.0220728,0.0217453,-7.53944,19,0.0018897,10,-0.000163947,-2.12266,0.428171,0.137796,-40.5302,0.0217453,
2,0,0,1,0,36650.7,0.0120848,0.011747,-7.14146,19,0.00115651,10,-8.38906e-05,-2.14621,0.411722,0.143301,-39.954,0.01174699,
2,0,0,1,0,36650.8,0.0020969,0.00168795,-6.85323,19,0.000460424,10,-1.15679e-05,-2.1641,0.77784,0.0758511,-20.1941,0.00168795,
2,0,0,1,0,36650.9,-0.00789103,-0.00830383,-6.59965,19,-0.000209913,10,5.48024e-05,-2.18048,1.11633,0.052852,-13.6438,-0.00830383,
2,0,0,1,0,36651,-0.017879,-0.0182035,-6.54323,19,-0.000864867,10,0.00011911,-2.18421,-5827.41,-1.01246e-05,0.00258268,-0.0182035,
2,0,0,1,0,36651.1,-0.0278669,-0.0282353,-6.58618,19,-0.00151939,10,0.000185963,-2.18137,-1.87875,-0.0314038,8.07835,-0.0282353,
2,0,0,1,0,36651.2,-0.0378548,-0.0382514,-6.72461,19,-0.00218334,10,0.000257226,-2.17233,-0.953873,-0.0618531,16.22,-0.0382514,
2,0,0,1,0,36651.3,-0.0478428,-0.0482211,-6.92705,19,-0.00286457,10,0.000334029,-2.15945,-0.58613,-0.10066,27.228,-0.0482211,
2,0,0,1,0,36651.4,-0.0578216,-0.058222,-7.19993,19,-0.00356895,10,0.000419194,-2.14267,-0.562623,-0.104866,29.4489,-0.058222,
2,0,0,1,0,36651.5,-0.0678187,-0.0681654,-7.53085,19,-0.00430396,10,0.000513344,-2.12316,-0.462411,-0.127592,37.492,-0.0681654,
2,0,0,1,0,36651.6,-0.0778066,-0.0782233,-7.93517,19,-0.00507576,10,0.000620715,-2.10044,-0.431768,-0.136648,42.3326,-0.0782233,
2,0,0,1,0,36651.7,-0.0877945,-0.0881909,-8.41403,19,-0.0058917,10,0.000742041,-2.075,-0.38159,-0.154616,50.7761,-0.0881909,
2,0,0,1,0,36651.8,-0.0977825,-0.0981835,-8.91599,19,-0.00675741,10,0.000875403,-2.04983,-0.390233,-0.151192,52.6647,-0.0981835,
2,0,0,1,1,36651.9,-0.0927386,-0.0930975,-2.81771,19,-0.00733769,10,0.000262322,-2.5501,-0.0124839,-4.72609,513.074,-0.0930975,
2,1,0,1,1,36652,-0.0827529,-0.0831027,0.726493,19,-0.00741982,10,-6.03736e-05,-3.13877,0.00510226,11.5635,250.705,-0.0831027,
2,1,0,1,1,36652.1,-0.0727627,-0.0731269,2.62721,19,-0.00724312,10,-0.000192119,-2.58051,0.0414912,1.42199,143.868,-0.0731269,
2,1,0,1,1,36652.2,-0.0627748,-0.0631599,3.74726,19,-0.00691967,10,-0.000236677,-2.42629,0.0995717,0.592538,86.3817,-0.0631599,
2,1,0,1,1,36652.3,-0.0527868,-0.05314,4.42777,19,-0.00650765,10,-0.000235292,-2.35381,0.203606,0.289775,49.9678,-0.05314,
2,1,0,1,1,36652.4,-0.0427989,-0.0431859,4.83078,19,-0.00604255,10,-0.000208622,-2.31598,0.340278,0.173388,32.6793,-0.0431859,
2,1,0,1,1,36652.5,-0.0328109,-0.0331551,5.06065,19,-0.00554696,10,-0.000167786,-2.29579,0.780371,0.0756051,14.9105,-0.0331551,
2,1,0,1,1,36652.6,-0.022823,-0.0231608,5.1673,19,-0.00503506,10,-0.000119679,-2.28674,1.90684,0.0309413,6.23513,-0.0231608,
2,1,0,1,1,36652.7,-0.0128351,-0.0131902,5.19522,19,-0.00451652,10,-6.8526e-05,-2.2844,7.62043,0.00774234,1.56971,-0.0131902,
2,1,0,1,1,36652.8,-0.00284713,-0.0031905,5.19946,19,-0.00399658,10,-1.65889e-05,-2.28404,-17.7122,-0.00333103,-0.675384,-0.0031905,
2,1,0,1,1,36652.9,-2.55332e-05,-0.000439847,5.20893,19,-0.00385038,10,-2.29113e-06,-2.28325, , , ,-0.000439847,