File: Figure_codes/Fig_3-5/rawdata_trumpetplot_data/after 10th/20221101_1-115_003_TrumpetPlot_ParaChange_from10_every3_05_CV_C01_19.csv
mode,ox/red,error,control changes,counter inc.,time/s,control/V,Ewe/V,<I>/mA,cycle number,(Q-Qo)/C,I Range,P/W,log(|I|),Tafel slope mV/dec,alpha_eff,dI/d(E-IR),E-IR/V,
2,0,0,1,0,38552.5,2.44065e-05,-0.000344411,-0.746238,20,0.0000000E+000,10,2.57013e-07,-3.12712, , , ,-0.000344411,
2,1,0,1,0,38552.9,0.00729063,0.00699027,0.68201,20,0.000141267,10,4.76744e-06,-3.16621,0.0472111,1.24971,32.4688,0.00699027,
2,1,0,1,0,38553.2,0.0147802,0.014516,0.834029,20,0.000434821,10,1.21068e-05,-3.07882,0.127115,0.464146,15.0809,0.014516,
2,1,0,1,0,38553.6,0.0222725,0.0219848,0.938725,20,0.000773076,10,2.06377e-05,-3.02746,0.169,0.349112,12.7207,0.0219848,
2,1,0,1,0,38554,0.0297644,0.0294205,1.0319,20,0.00114722,10,3.03589e-05,-2.98636,0.197607,0.298572,11.9785,0.0294205,
2,1,0,1,0,38554.4,0.0372544,0.036912,1.12083,20,0.00155648,10,4.1372e-05,-2.95046,0.217718,0.270993,11.8773,0.036912,
2,1,0,1,0,38554.7,0.0447449,0.0444135,1.21588,20,0.00200114,10,5.40013e-05,-2.91511,0.232607,0.253647,12.0445,0.0444135,
2,1,0,1,0,38555.1,0.0522363,0.0519424,1.30538,20,0.00248001,10,6.78044e-05,-2.88426,0.245024,0.240793,12.256,0.0519424,
2,1,0,1,0,38555.5,0.0597291,0.0594365,1.38602,20,0.00299057,10,8.238e-05,-2.85823,0.28808,0.204805,11.0808,0.05943647,
2,1,0,1,0,38555.9,0.0672182,0.0669142,1.458,20,0.00352959,10,9.75607e-05,-2.83624,0.370712,0.159153,9.04209,0.0669142,
2,1,0,1,0,38556.2,0.0747092,0.0743668,1.51846,20,0.0040935,10,0.000112923,-2.8186,0.514483,0.114678,6.79168,0.0743668,
2,1,0,1,0,38556.6,0.0822001,0.0818752,1.56765,20,0.00467806,10,0.000128352,-2.80475,0.556011,0.106113,6.49988,0.0818752,
2,1,0,1,0,38557,0.0896911,0.0893585,1.62562,20,0.00528207,10,0.000145263,-2.78898,0.386472,0.152663,9.71117,0.0893585,
2,1,0,1,0,38557.4,0.097182,0.0968596,1.71778,20,0.0059139,10,0.000166384,-2.76503,0.22792,0.258862,17.3745,0.0968596,
2,1,0,1,0,38557.7,0.104673,0.104351,1.86577,20,0.00658973,10,0.000194694,-2.72914,0.194155,0.303881,22.096,0.104351,
2,1,0,1,0,38558.1,0.112164,0.111786,2.02382,20,0.00732425,10,0.000226234,-2.69383,0.248523,0.237403,18.689,0.111786,
2,1,0,1,0,38558.5,0.119655,0.119308,2.14097,20,0.00811093,10,0.000255434,-2.66939,0.453174,0.130193,10.8606,0.119308,
2,1,0,1,0,38558.9,0.127146,0.126817,2.20103,20,0.00893149,10,0.00027913,-2.65737,0.799822,0.0737664,6.33909,0.126817,
2,1,0,1,0,38559.2,0.134637,0.134307,2.23995,20,0.00977211,10,0.000300841,-2.64976,-8.06326,-0.00731714,-0.639429,0.134307,
2,1,0,1,0,38559.6,0.142128,0.141797,2.15026,20,0.0106075,10,0.0003049,-2.66751,-0.190715,-0.309363,-25.8135,0.141797,
2,1,0,1,0,38560,0.149619,0.149282,1.82589,20,0.0113645,10,0.000272573,-2.73852,-0.0771387,-0.764856,-54.367,0.149282,
2,1,0,1,0,38560.3,0.157108,0.156801,1.4512,20,0.0119813,10,0.00022755,-2.83827,-0.0798853,-0.738559,-41.9833,0.156801,
2,1,0,1,0,38560.7,0.164601,0.164249,1.22421,20,0.012484,10,0.000201075,-2.91214,-0.130515,-0.452054,-21.6401,0.164249,
2,1,0,1,0,38561.1,0.172092,0.171759,1.107,20,0.0129247,10,0.000190138,-2.95585,-0.239774,-0.246065,-10.6797,0.171759,
2,1,0,1,0,38561.5,0.179582,0.179218,1.04698,20,0.0133334,10,0.000187638,-2.98006,-0.458819,-0.128591,-5.27478,0.179218,
2,1,0,1,0,38561.8,0.187073,0.186776,1.01376,20,0.0137249,10,0.000189346,-2.99407,-0.785379,-0.0751229,-2.96523,0.186776,
2,1,0,1,0,38562.2,0.194564,0.194212,0.991142,20,0.0141057,10,0.000192492,-3.00386,-0.780271,-0.0756148,-2.91685,0.194212,
2,1,0,1,0,38562.6,0.202057,0.201762,0.972887,20,0.014479,10,0.000196292,-3.01194,-0.792735,-0.0744259,-2.82082,0.201762,
2,1,0,1,0,38563,0.209546,0.20925,0.959417,20,0.0148468,10,0.000200758,-3.01799,-0.755881,-0.0780546,-2.93013,0.20925,
2,1,0,1,0,38563.3,0.217037,0.216726,0.946774,20,0.0152101,10,0.000205191,-3.02375,-1.87603,-0.0314493,-1.1648,0.216726,
2,1,0,1,0,38563.7,0.224528,0.224207,0.941527,20,0.0155701,10,0.000211097,-3.02617,-2.98214,-0.0197844,-0.727127,0.224207,
2,1,0,1,0,38564.1,0.232019,0.231693,0.933418,20,0.0159269,10,0.000216266,-3.02992,-4.20906,-0.0140174,-0.511033,0.231693,
2,1,0,1,0,38564.5,0.23951,0.239172,0.927812,20,0.0162814,10,0.000221907,-3.03254,-1.91281,-0.0308447,-1.11506,0.2391721,
2,1,0,1,0,38564.8,0.247001,0.246669,0.921201,20,0.0166333,10,0.000227232,-3.03565,-2.84139,-0.0207645,-0.745103,0.246669,
2,1,0,1,0,38565.2,0.254492,0.254171,0.913188,20,0.016983,10,0.000232106,-3.03944,-2.40192,-0.0245637,-0.875975,0.254171,
2,1,0,1,0,38565.6,0.261983,0.261662,0.907305,20,0.01733,10,0.000237407,-3.04225,-2.30295,-0.0256193,-0.907009,0.261662,
2,1,0,1,0,38566,0.269474,0.269182,0.901161,20,0.0176747,10,0.000242577,-3.0452,-11.4189,-0.00516687,-0.181686,0.269182,
2,1,0,1,0,38566.3,0.276965,0.276704,0.894212,20,0.0180169,10,0.000247432,-3.04856,-2.83088,-0.0208416,-0.726636,0.276704,
2,1,0,1,0,38566.7,0.284456,0.284136,0.885535,20,0.0183562,10,0.000251612,-3.05279,-5.49369,-0.0107396,-0.371209,0.284136,
2,1,0,1,0,38567.1,0.291947,0.291643,0.877159,20,0.0186926,10,0.000255817,-3.05692,-1.80766,-0.0326389,-1.11931,0.291643,
2,1,0,1,0,38567.5,0.299436,0.299157,0.867101,20,0.0190257,10,0.0002594,-3.06193,-0.00359412,-16.4157,-331.479,0.299157,
2,0,0,1,0,38567.8,0.293745,0.293382,-0.182315,20,0.0190479,10,-5.34881e-05,-3.73918,-0.0169073,-3.48961,23.2312,0.293382,
2,0,0,1,0,38568.2,0.286254,0.285959,-0.28894,20,0.0189504,10,-8.26252e-05,-3.53919,-0.0651488,-0.905619,10.263,0.285959,
2,0,0,1,0,38568.6,0.278763,0.27843,-0.356895,20,0.0188222,10,-9.93702e-05,-3.44746,-0.127924,-0.46121,6.4183,0.2784301,
2,0,0,1,0,38568.9,0.271272,0.270968,-0.406439,20,0.0186731,10,-0.000110132,-3.391,-0.136432,-0.432451,6.83252,0.270968,
2,0,0,1,0,38569.3,0.263781,0.263434,-0.444333,20,0.0185073,10,-0.000117052,-3.35229,-0.196498,-0.300257,5.22004,0.263434,
2,0,0,1,0,38569.7,0.25629,0.255961,-0.480769,20,0.0183272,10,-0.000123058,-3.31806,-0.322738,-0.182811,3.4198,0.255961,
2,0,0,1,0,38570.1,0.248799,0.248463,-0.51519,20,0.0181346,10,-0.000128006,-3.28803,-0.326405,-0.180757,3.61913,0.248463,
2,0,0,1,0,38570.4,0.241308,0.240988,-0.540897,20,0.0179308,10,-0.00013035,-3.26689,-0.309434,-0.190671,4.03579,0.240988,
2,0,0,1,0,38570.8,0.233817,0.233533,-0.566815,20,0.0177162,10,-0.00013237,-3.24656,-0.330262,-0.178646,3.97531,0.233533,
2,0,0,1,0,38571.2,0.226326,0.226033,-0.596707,20,0.0174916,10,-0.000134875,-3.22424,-0.34476,-0.171133,3.98854,0.226033,
2,0,0,1,0,38571.6,0.218835,0.218519,-0.623003,20,0.0172572,10,-0.000136138,-3.20551,-0.389958,-0.151298,3.67286,0.218519,
2,0,0,1,0,38571.9,0.211344,0.211014,-0.647769,20,0.0170135,10,-0.000136688,-3.18858,-0.426098,-0.138466,3.48795,0.211014,
2,0,0,1,0,38572.3,0.203855,0.203534,-0.671587,20,0.01676,10,-0.000136691,-3.1729,-0.499526,-0.118112,3.10215,0.203534,
2,0,0,1,0,38572.7,0.196362,0.196066,-0.700574,20,0.0164968,10,-0.000137359,-3.15455,-0.476809,-0.123739,3.38209,0.196066,
2,0,0,1,0,38573.1,0.188871,0.188514,-0.72916,20,0.0162226,10,-0.000137457,-3.13718,-0.333179,-0.177082,5.05404,0.188514,
2,0,0,1,0,38573.4,0.18138,0.181068,-0.763793,20,0.0159368,10,-0.000138298,-3.11702,-0.343505,-0.171759,5.13038,0.181068,
2,0,0,1,0,38573.8,0.173891,0.173554,-0.803641,20,0.0156374,10,-0.000139475,-3.09494,-0.269072,-0.219272,6.86709,0.173554,
2,0,0,1,0,38574.2,0.166398,0.166084,-0.854822,20,0.015321,10,-0.000141973,-3.06812,-0.275596,-0.214082,7.14708,0.166084,
2,0,0,1,0,38574.5,0.158906,0.158589,-0.92305,20,0.0149822,10,-0.000146385,-3.03477,-0.176743,-0.333819,12.0804,0.158589,
2,0,0,1,0,38574.9,0.151417,0.151131,-1.03551,20,0.01461,10,-0.000156498,-2.98484,-0.123856,-0.47636,19.348,0.151131,
2,0,0,1,0,38575.3,0.143926,0.143626,-1.2256,20,0.0141823,10,-0.000176028,-2.91165,-0.0837522,-0.704459,33.7997,0.143626,
2,0,0,1,0,38575.7,0.136435,0.136104,-1.51639,20,0.0136644,10,-0.000206387,-2.81919,-0.0820993,-0.718642,42.4615,0.136104,
2,0,0,1,0,38576,0.128942,0.128657,-1.83299,20,0.0130305,10,-0.000235828,-2.73684,-0.107912,-0.546742,38.9241,0.128657,
2,0,0,1,0,38576.4,0.121453,0.121145,-2.08595,20,0.0122881,10,-0.000252702,-2.6807,-0.176277,-0.334701,27.1625,0.121145,
2,0,0,1,0,38576.8,0.113962,0.113628,-2.2302,20,0.0114689,10,-0.000253413,-2.65166,-0.528114,-0.111718,9.71263,0.113628,
2,0,0,1,0,38577.2,0.106471,0.106154,-2.25924,20,0.0106177,10,-0.000239828,-2.64604,1.5148,0.038949,-3.42963,0.106154,
2,0,0,1,0,38577.5,0.0989799,0.0986531,-2.20419,20,0.00977407,10,-0.00021745,-2.65675,0.545691,0.10812,-9.28636,0.09865313,
2,0,0,1,0,38577.9,0.0914889,0.0911706,-2.12458,20,0.00895775,10,-0.000193699,-2.67273,0.520846,0.113277,-9.38747,0.0911706,
2,0,0,1,0,38578.3,0.083998,0.0836969,-2.05297,20,0.00816973,10,-0.000171827,-2.68762,0.509188,0.115871,-9.27871,0.0836969,
2,0,0,1,0,38578.7,0.076507,0.0761597,-1.99768,20,0.00740479,10,-0.000152142,-2.69948,0.561258,0.105121,-8.19133,0.0761597,
2,0,0,1,0,38579,0.069016,0.068672,-1.94052,20,0.00666094,10,-0.00013326,-2.71208,0.604012,0.0976801,-7.40374,0.068672,
2,0,0,1,0,38579.4,0.0615251,0.0612198,-1.88648,20,0.00593742,10,-0.00011549,-2.72435,0.578807,0.101934,-7.51173,0.0612198,
2,0,0,1,0,38579.8,0.0540341,0.0537189,-1.83042,20,0.00523536,10,-9.83283e-05,-2.73745,0.56874,0.103738,-7.39843,0.0537189,
2,0,0,1,0,38580.2,0.0465432,0.0462243,-1.76721,20,0.00455501,10,-8.1688e-05,-2.75271,0.537142,0.109841,-7.58069,0.0462243,
2,0,0,1,0,38580.5,0.0390523,0.0387157,-1.70263,20,0.0038987,10,-6.59186e-05,-2.76888,0.42195,0.139827,-9.28216,0.0387157,
2,0,0,1,0,38580.9,0.0315626,0.0312271,-1.63326,20,0.00326769,10,-5.10021e-05,-2.78694,0.411105,0.143516,-9.14888,0.0312271,
2,0,0,1,0,38581.3,0.0240704,0.023746,-1.56805,20,0.00266156,10,-3.72349e-05,-2.80464,0.461485,0.127848,-7.83173,0.023746,
2,0,0,1,0,38581.7,0.0165785,0.0162593,-1.51826,20,0.0020775,10,-2.46858e-05,-2.81866,0.653256,0.0903168,-5.35303,0.0162593,
2,0,0,1,0,38582,0.00908846,0.00877713,-1.48028,20,0.00151058,10,-1.29926e-05,-2.82966,0.843223,0.0699696,-4.04256,0.00877713,
2,0,0,1,0,38582.4,0.0015984,0.00125347,-1.48044,20,0.000953111,10,-1.85569e-06,-2.82961, , , ,0.00125347,
2,0,0,1,0,38582.5,0.000199195,-0.000164621,-1.46605,20,0.000848803,10,2.41342e-07,-2.83385, , , ,-0.000164621,