File: Figure_codes/Fig_3-5/rawdata_trumpetplot_data/after 10th/20221101_1-115_003_TrumpetPlot_ParaChange_from10_every3_12_CV_C01_34.csv
mode,ox/red,error,control changes,counter inc.,time/s,control/V,Ewe/V,<I>/mA,cycle number,(Q-Qo)/C,I Range,P/W,log(|I|),Tafel slope mV/dec,alpha_eff,dI/d(E-IR),E-IR/V,
2,1,0,1,0,68181,2.44065e-05,-0.000287149,14.5433,35,0.0000000E+000,10,-4.1761e-06,-1.83734, , , ,-0.0002871489,
2,1,0,1,0,68181,0.0104008,0.0100412,17.6386,35,0.000280244,10,0.000177113,-1.75354,0.188154,0.313574,214.776,0.0100412,
2,1,0,1,0,68181,0.0212099,0.0208786,19.6554,35,0.000616819,10,0.000410377,-1.70652,0.276193,0.213618,163.429,0.0208786,
2,1,0,1,0,68181,0.0320052,0.0316385,21.2737,35,0.000985648,10,0.000673069,-1.67216,0.351455,0.167873,139.13,0.0316385,
2,1,0,1,0,68181,0.0428033,0.042425,22.6843,35,0.00138156,10,0.000962382,-1.64427,0.422263,0.139723,123.565,0.042425,
2,1,0,1,0,68181,0.0535986,0.0532485,23.9636,35,0.00180155,10,0.00127602,-1.62045,0.475883,0.12398,115.891,0.0532485,
2,1,0,1,0,68181.1,0.0644077,0.0640721,25.1969,35,0.00224418,10,0.00161442,-1.59865,0.505279,0.116767,114.797,0.0640721,
2,1,0,1,0,68181.1,0.075203,0.0748596,26.419,35,0.00270892,10,0.00197772,-1.57808,0.531908,0.110921,114.385,0.0748596,
2,1,0,1,0,68181.1,0.0860011,0.0856355,27.6514,35,0.00319575,10,0.00236794,-1.55828,0.548973,0.107473,116.03,0.0856355,
2,1,0,1,0,68181.1,0.0968075,0.0964845,28.9174,35,0.00370512,10,0.00279008,-1.53884,0.574343,0.102726,115.93,0.0964845,
2,1,0,1,0,68181.1,0.107606,0.107247,30.1906,35,0.0042372,10,0.00323784,-1.52013,0.571638,0.103212,121.641,0.107247,
2,1,0,1,0,68181.2,0.118401,0.118044,31.5195,35,0.00479269,10,0.00372067,-1.50142,0.58307,0.101189,124.52,0.1180436,
2,1,0,1,0,68181.2,0.129207,0.128784,32.9027,35,0.00537265,10,0.00423736,-1.48277,0.561331,0.105107,135.124,0.128784,
2,1,0,1,0,68181.2,0.140005,0.139622,34.5052,35,0.00597931,10,0.00481768,-1.46212,0.532838,0.110728,149.03,0.139622,
2,1,0,1,0,68181.2,0.150803,0.150477,36.086,35,0.00661485,10,0.00543012,-1.44266,0.580866,0.101572,142.987,0.1504772,
2,1,0,1,0,68181.2,0.161604,0.16125,37.5786,35,0.00727812,10,0.00605955,-1.42506,0.675193,0.0873824,128.042,0.16125,
2,1,0,1,0,68181.2,0.172405,0.172061,38.836,35,0.00796637,10,0.00668214,-1.41077,0.875921,0.0673577,101.953,0.172061,
2,1,0,1,0,68181.3,0.183203,0.182862,39.6844,35,0.00867395,10,0.00725676,-1.40138,1.76724,0.0333853,51.6236,0.182862,
2,1,0,1,0,68181.3,0.194001,0.193668,39.9071,35,0.00939132,10,0.00772871,-1.39895,-8.95411,-0.00658916,-10.2474,0.193668,
2,1,0,1,0,68181.3,0.204808,0.204472,39.4593,35,0.0101067,10,0.00806833,-1.40385,-1.26599,-0.046604,-71.6676,0.204472,
2,1,0,1,0,68181.3,0.215603,0.215266,38.3604,35,0.010808,10,0.00825769,-1.41612,-0.688436,-0.0857015,-128.135,0.215266,
2,1,0,1,0,68181.3,0.226401,0.226073,36.6979,35,0.0114841,10,0.00829638,-1.43536,-0.481633,-0.1225,-175.283,0.226073,
2,1,0,1,0,68181.3,0.237207,0.23688,34.6884,35,0.0121268,10,0.00821699,-1.45982,-0.40799,-0.144612,-195.65,0.23688,
2,1,0,1,0,68181.4,0.248005,0.247671,32.5707,35,0.0127319,10,0.00806681,-1.48717,-0.385318,-0.15312,-194.596,0.247671,
2,1,0,1,0,68181.4,0.258801,0.258478,30.5269,35,0.0132992,10,0.00789052,-1.51532,-0.389402,-0.151515,-180.533,0.258478,
2,1,0,1,0,68181.4,0.26961,0.269278,28.6863,35,0.0138315,10,0.00772458,-1.54233,-0.409287,-0.144153,-161.41,0.269278,
2,1,0,1,0,68181.4,0.280405,0.280057,27.0576,35,0.0143326,10,0.00757768,-1.56771,-0.451351,-0.130719,-138.124,0.280057,
2,1,0,1,0,68181.4,0.291203,0.290862,25.6772,35,0.0148067,10,0.00746853,-1.59045,-0.490895,-0.120189,-120.511,0.290862,
2,1,0,0,0,68181.5,0.300012,0.299727,24.6639,35,0.0151766,10,0.00739244,-1.60794,0.00253935,23.2343,20254.3,0.299727,
2,1,0,1,0,68181.5,0.290842,0.290578,14.2118,35,0.0154607,10,0.00412963,-1.84735,0.0404021,1.46032,815.033,0.290578,
2,1,0,1,0,68181.5,0.280047,0.279803,7.23593,35,0.0156488,10,0.00202464,-2.14051,0.0306584,1.92443,534.247,0.279803,
2,1,0,1,0,68181.5,0.269244,0.269003,2.32668,35,0.015732,10,0.000625884,-2.63326,0.0109345,5.39575,390.332,0.269003,
2,0,0,1,0,68181.5,0.258443,0.258122,-1.32888,35,0.0157391,10,-0.000343013,-2.87651,-0.00802038,-7.35626,296.006,0.258122,
2,0,0,1,0,68181.5,0.247645,0.24736,-4.1559,35,0.0156884,10,-0.001028,-2.38133,-0.0394919,-1.49398,233.688,0.2473602,
2,0,0,1,0,68181.6,0.236849,0.236554,-6.41039,35,0.0155922,10,-0.0015164,-2.19312,-0.0773618,-0.762651,188.588,0.236554,
2,0,0,1,0,68181.6,0.22604,0.225713,-8.26661,35,0.0154594,10,-0.00186588,-2.08267,-0.122446,-0.481844,154.373,0.225713,
2,0,0,1,0,68181.6,0.215245,0.214935,-9.8081,35,0.0152962,10,-0.00210811,-2.00841,-0.169265,-0.348565,132.896,0.214935,
2,0,0,1,0,68181.6,0.204447,0.204089,-11.1416,35,0.0151074,10,-0.00227388,-1.95305,-0.222607,-0.265041,114.892,0.204089,
2,0,0,1,0,68181.6,0.19364,0.19331,-12.3146,35,0.0148961,10,-0.00238054,-1.90958,-0.275318,-0.214298,102.716,0.19331,
2,0,0,1,0,68181.6,0.182842,0.182486,-13.3615,35,0.0146649,10,-0.00243829,-1.87414,-0.318256,-0.185385,96.6183,0.182486,
2,0,0,1,0,68181.7,0.172047,0.171728,-14.365,35,0.0144151,10,-0.00246687,-1.84269,-0.352637,-0.167311,93.8286,0.171728,
2,0,0,1,0,68181.7,0.161241,0.160947,-15.3888,35,0.0141472,10,-0.00247677,-1.8128,-0.368098,-0.160283,96.3301,0.160947,
2,0,0,1,0,68181.7,0.150443,0.150135,-16.5062,35,0.0138603,10,-0.00247816,-1.78235,-0.342125,-0.172451,111.234,0.1501347,
2,0,0,1,0,68181.7,0.139645,0.139377,-17.8703,35,0.0135512,10,-0.00249071,-1.74787,-0.283022,-0.208465,145.759,0.139377,
2,0,0,1,0,68181.7,0.128849,0.128537,-19.696,35,0.0132137,10,-0.00253167,-1.70562,-0.232424,-0.253847,195.706,0.1285374,
2,0,0,1,0,68181.8,0.118043,0.117701,-22.1331,35,0.0128377,10,-0.00260509,-1.65496,-0.207466,-0.284384,245.729,0.1177011,
2,0,0,1,0,68181.8,0.107245,0.106964,-24.9214,35,0.0124142,10,-0.00266571,-1.60343,-0.21562,-0.273629,266.005,0.106964,
2,0,0,1,0,68181.8,0.0964468,0.0962268,-27.714,35,0.0119397,10,-0.00266683,-1.5573,-0.25023,-0.235783,255.026,0.0962268,
2,0,0,1,0,68181.8,0.0856404,0.0854075,-30.4033,35,0.0114159,10,-0.00259667,-1.51708,-0.304342,-0.193861,229.63,0.0854075,
2,0,0,1,0,68181.8,0.0748451,0.0745616,-32.6696,35,0.0108473,10,-0.0024359,-1.48586,-0.392576,-0.150289,191.313,0.0745616,
2,0,0,1,0,68181.8,0.0640471,0.0637847,-34.4802,35,0.010242,10,-0.00219931,-1.46243,-0.532125,-0.110876,149.045,0.0637847,
2,0,0,1,0,68181.9,0.0532407,0.0529495,-35.8776,35,0.00960801,10,-0.0018997,-1.44518,-0.771083,-0.0765158,107.006,0.0529495,
2,0,0,1,0,68181.9,0.0424426,0.0421408,-36.8513,35,0.00895281,10,-0.00155294,-1.43355,-1.14814,-0.0513875,73.842,0.0421408,
2,0,0,1,0,68181.9,0.0316473,0.0313278,-37.4921,35,0.00828315,10,-0.00117455,-1.42606,-1.84205,-0.0320296,46.8414,0.03132781,
2,0,0,1,0,68181.9,0.0208437,0.0204883,-37.8677,35,0.00760449,10,-0.000775846,-1.42173,-3.95993,-0.0148992,22.0047,0.0204883,
2,0,0,1,0,68181.9,0.0100429,0.0097496,-37.996,35,0.00692138,10,-0.000370445,-1.42026,514.862,0.000114594,-0.169777,0.0097496,
2,0,0,1,0,68182,-0.000755207,-0.00111533,-37.9269,35,0.0062379,10,4.23008e-05,-1.42105,5.20752,0.0113298,-16.747,-0.00111533,
2,0,0,1,0,68182,-0.0115505,-0.0118689,-37.5863,35,0.00555812,10,0.000446109,-1.42497,2.15265,0.027408,-40.1805,-0.0118689,
2,0,0,1,0,68182,-0.0223597,-0.0226946,-37.0775,35,0.00488602,10,0.00084146,-1.43089,1.62151,0.0363858,-52.6272,-0.02269461,
2,0,0,1,0,68182,-0.033155,-0.0334842,-36.4642,35,0.00422412,10,0.00122098,-1.43813,1.51526,0.0389371,-55.4171,-0.0334842,
2,0,0,1,0,68182,-0.043953,-0.0442834,-35.8457,35,0.00357342,10,0.00158737,-1.44556,1.49918,0.0393549,-55.0776,-0.0442834,
2,0,0,1,0,68182,-0.0547594,-0.0551261,-35.3075,35,0.00293325,10,0.00194636,-1.45213,1.74543,0.0338026,-46.5905,-0.0551261,
2,0,0,1,0,68182.1,-0.0655575,-0.0659115,-34.8715,35,0.00230179,10,0.00229843,-1.45753,2.57542,0.0229089,-31.2046,-0.0659115,
2,0,0,1,0,68182.1,-0.0763528,-0.0767308,-34.6082,35,0.00167656,10,0.00265551,-1.46082,4.53707,0.013004,-17.5768,-0.0767308,
2,0,0,1,0,68182.1,-0.0871592,-0.0875406,-34.5084,35,0.00105476,10,0.00302089,-1.46207,14.7336,0.00400445,-5.39462,-0.0875406,
2,0,0,1,0,68182.1,-0.0979573,-0.0983175,-34.5462,35,0.000433552,10,0.0033965,-1.4616,46.641,0.00126498,-1.70321,-0.0983175,
2,0,0,1,1,68182.1,-0.0955546,-0.0959666,-26.9309,35,8.62309e-05,10,0.00258446,-1.56975,-0.0464802,-1.26936,1361.4,-0.0959666,
2,0,0,1,1,68182.1,-0.0847538,-0.085177,-16.2778,35,-0.000294311,10,0.0013865,-1.7884,-0.0466096,-1.26583,803.979,-0.085177,
2,0,0,1,1,68182.2,-0.0739557,-0.074382,-8.79278,35,-0.000516415,10,0.000654025,-2.05587,-0.0325717,-1.81139,609.672,-0.074382,
2,0,0,1,1,68182.2,-0.0631604,-0.0635786,-2.90373,35,-0.000619255,10,0.000184615,-2.53704,-0.0103904,-5.6783,493.899,-0.0635786,
2,1,0,1,1,68182.2,-0.0523512,-0.0527603,1.94057,35,-0.000626134,10,-0.000102385,-2.71207,0.00625894,9.42652,407.227,-0.0527603,
2,1,0,1,1,68182.2,-0.0415559,-0.0419961,5.96757,35,-0.00055363,10,-0.000250615,-2.2242,0.0384163,1.53581,344.959,-0.0419961,
2,1,0,1,1,68182.2,-0.0307579,-0.0312139,9.38935,35,-0.00041415,10,-0.000293078,-2.02736,0.0734416,0.803359,290.984,-0.0312139,
2,1,0,1,1,68182.3,-0.0199515,-0.0203691,12.3001,35,-0.000217906,10,-0.000250543,-1.91009,0.114643,0.514642,245.367,-0.0203691,
2,1,0,1,1,68182.3,-0.0091534,-0.00955511,14.7509,35,2.64467e-05,10,-0.000140946,-1.83118,0.161296,0.365788,209.69,-0.009555107,
2,1,0,0,1,68182.3,-7.54729e-05,-0.000325324,16.4603,35,0.0002629,10,-5.35493e-06,-1.78356, , , ,-0.000325324,