File: Figure_codes/Fig_3-5/rawdata_trumpetplot_data/after 10th/20221101_1-115_003_TrumpetPlot_ParaChange_from10_every3_13_CV_C01_8.csv
mode,ox/red,error,control changes,counter inc.,time/s,control/V,Ewe/V,<I>/mA,cycle number,(Q-Qo)/C,I Range,P/W,log(|I|),Tafel slope mV/dec,alpha_eff,dI/d(E-IR),E-IR/V,
2,1,0,1,0,16958.9,2.44065e-05,-0.000306236,24.8591,9,0.0000000E+000,10,-7.61277e-06,-1.60451, , , ,-0.000306236,
2,1,0,1,0,16958.9,0.0122624,0.0119287,29.3403,9,0.000415355,10,0.000349992,-1.53254,0.253398,0.232835,264.877,0.0119287,
2,1,0,1,0,16958.9,0.0250636,0.0247374,32.2002,9,0.000909216,10,0.00079655,-1.49214,0.378428,0.155908,195.393,0.0247374,
2,1,0,1,0,16958.9,0.0378704,0.0375322,34.4715,9,0.0014432,10,0.00129379,-1.46254,0.48202,0.122402,164.422,0.0375322,
2,1,0,1,0,16959,0.0506632,0.0502932,36.518,9,0.00201132,10,0.00183661,-1.43749,0.517602,0.113987,162.41,0.0502932,
2,1,0,1,0,16959,0.0634672,0.0631188,38.5995,9,0.00261243,10,0.00243635,-1.41342,0.534995,0.110281,166.177,0.0631188,
2,1,0,1,0,16959,0.0762629,0.0758659,40.822,9,0.00324796,10,0.003097,-1.38911,0.522172,0.112989,180.047,0.0758659,
2,1,0,1,0,16959,0.0890668,0.0886831,43.1964,9,0.0039202,10,0.00383079,-1.36455,0.514805,0.114606,193.296,0.0886831,
2,1,0,1,0,16959,0.10186,0.101501,45.7337,9,0.00463183,10,0.00464203,-1.33976,0.532228,0.110855,197.782,0.101501,
2,1,0,1,0,16959,0.114666,0.114255,48.3141,9,0.00538411,10,0.00552011,-1.31593,0.518953,0.11369,214.554,0.114255,
2,1,0,1,0,16959.1,0.127462,0.127128,51.1296,9,0.00618004,10,0.00650002,-1.29133,0.525513,0.112271,224.203,0.127128,
2,1,0,1,0,16959.1,0.140263,0.139902,54.1836,9,0.00702258,10,0.00758038,-1.26613,0.496352,0.118867,251.49,0.139902,
2,1,0,1,0,16959.1,0.153064,0.152665,57.5153,9,0.00791637,10,0.00878056,-1.24022,0.511573,0.115331,258.683,0.152665,
2,1,0,1,0,16959.1,0.165866,0.165537,60.7194,9,0.00886297,10,0.0100513,-1.21667,0.594468,0.0992485,234.878,0.165537,
2,1,0,1,0,16959.1,0.178667,0.178349,63.4154,9,0.00985731,10,0.0113101,-1.19781,0.826262,0.0714059,176.346,0.178349,
2,1,0,1,0,16959.1,0.191463,0.191123,65.02,9,0.0108871,10,0.0124268,-1.18695,2.6635,0.0221513,55.9952,0.191123,
2,1,0,1,0,16959.2,0.204269,0.20393,64.5885,9,0.0119275,10,0.0131716,-1.18984,-1.05455,-0.0559482,-140.246,0.20393,
2,1,0,1,0,16959.2,0.217062,0.216762,61.3719,9,0.0129386,10,0.0133031,-1.21203,-0.396267,-0.148889,-354.683,0.216762,
2,1,0,1,0,16959.2,0.229866,0.229557,55.8053,9,0.0138779,10,0.0128105,-1.25332,-0.263405,-0.223989,-486.253,0.229557,
2,1,0,1,0,16959.2,0.242662,0.242399,49.3212,9,0.0147183,10,0.0119554,-1.30697,-0.229131,-0.257494,-495.734,0.242399,
2,1,0,1,0,16959.2,0.255466,0.255171,43.3863,9,0.0154581,10,0.0110709,-1.36265,-0.239538,-0.246307,-418.172,0.255171,
2,1,0,1,0,16959.2,0.268259,0.267973,38.6788,9,0.0161126,10,0.0103649,-1.41253,-0.28065,-0.210226,-318.421,0.267973,
2,1,0,1,0,16959.3,0.281065,0.280752,35.1982,9,0.0167021,10,0.00988198,-1.45348,-0.349088,-0.169012,-232.82,0.280752,
2,1,0,1,0,16959.3,0.293861,0.293541,32.6548,9,0.0172436,10,0.00958553,-1.48605,-0.439383,-0.134279,-171.772,0.293541,
2,1,0,1,0,16959.3,0.298983,0.298901,28.8559,9,0.0175295,10,0.00862507,-1.53977,0.0242961,2.42838,2210.64,0.298901,
2,1,0,1,0,16959.3,0.286187,0.285942,8.56866,9,0.0178033,10,0.00245014,-2.06709,0.016588,3.55679,1069.16,0.285942,
2,0,0,1,0,16959.3,0.273386,0.273151,-1.59895,9,0.0178504,10,-0.000436754,-2.79617,-0.0495407,-1.19094,609.71,0.2731514,
2,0,0,1,0,16959.3,0.260585,0.260326,-7.67969,9,0.0177717,10,-0.00199922,-2.11466,-0.0436536,-1.35155,377.145,0.260326,
2,0,0,1,0,16959.3,0.247783,0.247486,-11.6416,9,0.0176147,10,-0.00288114,-1.93399,-0.102309,-0.576687,256.787,0.247486,
2,0,0,1,0,16959.4,0.234982,0.234659,-14.4051,9,0.0174049,10,-0.00338028,-1.84148,-0.17851,-0.330513,184.166,0.234659,
2,0,0,1,0,16959.4,0.222187,0.22192,-16.4639,9,0.017157,10,-0.00365367,-1.78347,-0.260479,-0.226506,144.991,0.22192,
2,0,0,1,0,16959.4,0.20938,0.209076,-18.141,9,0.0168794,10,-0.00379285,-1.74134,-0.343119,-0.171952,121.564,0.209076,
2,0,0,1,0,16959.4,0.196587,0.196288,-19.6016,9,0.016577,10,-0.00384756,-1.70771,-0.414766,-0.142249,108.76,0.196288,
2,0,0,1,0,16959.4,0.183783,0.183495,-20.9911,9,0.016252,10,-0.00385177,-1.67796,-0.440221,-0.134023,109.801,0.183495,
2,0,0,1,0,16959.4,0.170987,0.170674,-22.447,9,0.0159046,10,-0.00383112,-1.64884,-0.418074,-0.141123,123.841,0.170674,
2,0,0,1,0,16959.5,0.158183,0.157884,-24.2248,9,0.0155315,10,-0.00382471,-1.61574,-0.35168,-0.167766,159.04,0.157884,
2,0,0,1,0,16959.5,0.145385,0.145101,-26.6178,9,0.0151255,10,-0.00386227,-1.57483,-0.272832,-0.21625,225.675,0.145101,
2,0,0,1,0,16959.5,0.132584,0.13232,-30.0961,9,0.0146729,10,-0.00398231,-1.52149,-0.214996,-0.274423,323.681,0.13232,
2,0,0,1,0,16959.5,0.119782,0.119493,-34.9582,9,0.014154,10,-0.00417727,-1.45645,-0.190483,-0.309739,422.77,0.119493,
2,0,0,1,0,16959.5,0.106987,0.106751,-40.7071,9,0.0135488,10,-0.00434554,-1.39033,-0.203659,-0.2897,459.332,0.106751,
2,0,0,1,0,16959.5,0.0941801,0.0939904,-46.434,9,0.0128506,10,-0.00436435,-1.33316,-0.246964,-0.238902,432.05,0.0939904,
2,0,0,1,0,16959.5,0.0813844,0.0811871,-51.6239,9,0.0120641,10,-0.00419119,-1.28715,-0.324392,-0.181879,365.241,0.0811871,
2,0,0,1,0,16959.6,0.0685832,0.068389,-55.7786,9,0.011203,10,-0.00381464,-1.25353,-0.45229,-0.130447,283.185,0.068389,
2,0,0,1,0,16959.6,0.0557876,0.0555008,-58.7388,9,0.0102844,10,-0.00326005,-1.23107,-0.783012,-0.07535,172.187,0.0555008,
2,0,0,1,0,16959.6,0.0429808,0.0427028,-60.2761,9,0.00933041,10,-0.00257396,-1.21986,-1.88413,-0.0313142,73.4912,0.0427028,
2,0,0,1,0,16959.6,0.030188,0.0298814,-60.7118,9,0.00836124,10,-0.00181415,-1.21673,-27.3917,-0.00215393,5.09757,0.0298814,
2,0,0,1,0,16959.6,0.017384,0.0170473,-60.4998,9,0.00739073,10,-0.00103136,-1.21825,4.01902,0.0146802,-34.6346,0.0170473,
2,0,0,1,0,16959.6,0.00458834,0.00427472,-59.8489,9,0.00642738,10,-0.000255837,-1.22294,2.24414,0.0262907,-61.3944,0.00427472,
2,0,0,1,0,16959.7,-0.00821564,-0.0085562,-58.8655,9,0.00547674,10,0.000503665,-1.23014,1.35816,0.043441,-99.6859,-0.008556203,
2,0,0,1,0,16959.7,-0.0210196,-0.0213543,-57.3298,9,0.00454665,10,0.00122423,-1.24162,0.930805,0.063386,-141.644,-0.0213543,
2,0,0,1,0,16959.7,-0.0338153,-0.0341534,-55.3295,9,0.00364507,10,0.00188969,-1.25704,0.778094,0.0758263,-163.666,-0.0341534,
2,0,0,1,0,16959.7,-0.0466193,-0.0469875,-53.1936,9,0.00277714,10,0.00249943,-1.27414,0.767834,0.0768395,-159.635,-0.04698747,
2,0,0,1,0,16959.7,-0.0594121,-0.0597749,-51.3528,9,0.0019414,10,0.00306961,-1.28944,0.970119,0.0608173,-122.074,-0.05977492,
2,0,0,1,0,16959.7,-0.0722189,-0.0725486,-50.0977,9,0.00113059,10,0.00363452,-1.30018,1.52368,0.038722,-75.8119,-0.0725486,
2,0,0,1,0,16959.8,-0.0850146,-0.0853848,-49.4285,9,0.000335243,10,0.00422044,-1.30602,3.77637,0.0156235,-30.1759,-0.0853848,
2,0,0,1,0,16959.8,-0.0978158,-0.0981733,-49.3194,9,-0.000454057,10,0.00484185,-1.30698,-9.8535,-0.00598772,11.5372,-0.0981733,
2,0,0,1,0,16959.8,-0.110611,-0.110968,-49.6601,9,-0.00124546,10,0.00551069,-1.30399,-2.65317,-0.0222375,43.1516,-0.110968,
2,0,0,1,0,16959.8,-0.123418,-0.123799,-50.4146,9,-0.00204588,10,0.00624128,-1.29744,-1.61788,-0.0364674,71.8106,-0.1237991,
2,0,0,1,0,16959.8,-0.136214,-0.136499,-51.4609,9,-0.00286073,10,0.00702434,-1.28852,-1.34467,-0.043877,88.1511,-0.136499,
2,0,0,1,0,16959.8,-0.149015,-0.149362,-52.6831,9,-0.00369391,10,0.00786887,-1.27833,-1.20453,-0.0489817,100.715,-0.149362,
2,0,0,1,0,16959.9,-0.161816,-0.162134,-53.9827,9,-0.00454742,10,0.00875242,-1.26775,-1.2265,-0.0481044,101.34,-0.162134,
2,0,0,1,0,16959.9,-0.174615,-0.174926,-55.25,9,-0.00542165,10,0.00966464,-1.25767,-1.29268,-0.0456415,98.4272,-0.174926,
2,0,0,1,0,16959.9,-0.187419,-0.187746,-56.4901,9,-0.00631593,10,0.0106058,-1.24803,-1.39018,-0.0424404,93.5557,-0.187746,
2,0,0,1,0,16959.9,-0.199647,-0.199964,-57.6113,9,-0.00718915,10,0.0115202,-1.23949,0.255704,0.230735,-501.879,-0.1999644,
2,0,0,1,1,16959.9,-0.192535,-0.192982,-41.43,9,-0.00768486,10,0.00799525,-1.38269,-0.0566145,-1.04214,1721.59,-0.192982,
2,0,0,1,1,16959.9,-0.179739,-0.180114,-24.6908,9,-0.00820281,10,0.00444715,-1.60747,-0.0523971,-1.12602,1081.46,-0.180114,
2,0,0,1,1,16959.9,-0.166932,-0.167319,-12.7639,9,-0.00849698,10,0.00213564,-1.89402,-0.0344956,-1.71036,822.796,-0.167319,
2,0,0,1,1,16960,-0.154139,-0.154539,-3.35991,9,-0.00862238,10,0.000519237,-2.47367,-0.0123297,-4.78519,666.872,-0.154539,
2,1,0,1,1,16960,-0.141335,-0.141815,4.43438,9,-0.00861108,10,-0.000628864,-2.35317,0.0122688,4.80894,561.344,-0.141815,
2,1,0,1,1,16960,-0.12854,-0.128995,11.0793,9,-0.00848499,10,-0.00142917,-1.95549,0.0508158,1.16106,484.3,-0.128995,
2,1,0,1,1,16960,-0.115736,-0.11618,16.8938,9,-0.00825956,10,-0.00196272,-1.77227,0.0905461,0.651602,423.503,-0.11618,
2,1,0,1,1,16960,-0.102932,-0.103344,21.971,9,-0.00794724,10,-0.00227057,-1.65815,0.136024,0.433748,369.076,-0.103344,
2,1,0,1,1,16960,-0.0901362,-0.0905554,26.41,9,-0.00755896,10,-0.00239157,-1.57823,0.184425,0.319913,328.366,-0.0905554,
2,1,0,1,1,16960.1,-0.0773322,-0.0777711,30.359,9,-0.00710372,10,-0.00236105,-1.51771,0.241965,0.243837,287.943,-0.07777109,
2,1,0,1,1,16960.1,-0.0645393,-0.0649412,33.8083,9,-0.00658943,10,-0.00219556,-1.47098,0.30818,0.191447,251.996,-0.06494122,
2,1,0,1,1,16960.1,-0.0517325,-0.0521039,36.8256,9,-0.00602345,10,-0.00191876,-1.43385,0.38618,0.152778,219.113,-0.0521039,
2,1,0,1,1,16960.1,-0.0389369,-0.0393441,39.4017,9,-0.00541282,10,-0.00155022,-1.40449,0.491915,0.119939,184.137,-0.0393441,
2,1,0,1,1,16960.1,-0.0261357,-0.0265121,41.5489,9,-0.00476437,10,-0.00110155,-1.38144,0.62945,0.0937326,151.807,-0.0265121,
2,1,0,1,1,16960.1,-0.01334,-0.0137543,43.274,9,-0.00408496,10,-0.000595205,-1.36377,0.83696,0.0704932,118.941,-0.0137543,
2,1,0,1,1,16960.1,-0.000774628,-0.00116835,44.5957,9,-0.00339449,10,-5.21032e-05,-1.35071, , , ,-0.00116835,
2,1,0,0,1,16960.1,-0.000125413,-0.000516197,44.6601,9,-0.00335879,10,-2.30534e-05,-1.35008, , , ,-0.000516197,