File: Figure_codes/Fig_3-5/rawdata_trumpetplot_data/after 10th/20221101_1-115_003_TrumpetPlot_ParaChange_from10_every3_09_CV_C01_6.csv
mode,ox/red,error,control changes,counter inc.,time/s,control/V,Ewe/V,<I>/mA,cycle number,(Q-Qo)/C,I Range,P/W,log(|I|),Tafel slope mV/dec,alpha_eff,dI/d(E-IR),E-IR/V,
2,0,0,0,0,13003.3,2.44065e-05,-0.000229887,-5.37591,7,0.0000000E+000,10,1.23585e-06,-2.26955, , , ,-0.000229887,
2,1,0,1,0,13003.4,0.00978761,0.009463,1.95704,7,-4.68499e-05,10,1.85195e-05,-2.7084,0.0153986,3.83152,272.617,0.009463,
2,1,0,1,0,13003.5,0.0197755,0.0194637,3.50891,7,0.000240531,10,6.82962e-05,-2.45483,0.0856174,0.689112,94.1931,0.0194637,
2,1,0,1,0,13003.6,0.0297635,0.0294643,4.28865,7,0.00063341,10,0.000126362,-2.36768,0.155371,0.379737,63.3954,0.0294643,
2,1,0,1,0,13003.7,0.0397514,0.0394373,4.89373,7,0.00109346,10,0.000192995,-2.31036,0.179487,0.328714,62.8785,0.0394373,
2,1,0,1,0,13003.8,0.0497484,0.049457,5.48043,7,0.00161268,10,0.000271046,-2.26119,0.223402,0.264098,56.37,0.049457,
2,1,0,1,0,13003.9,0.0597273,0.0594297,6.00348,7,0.00218639,10,0.000356785,-2.2216,0.275764,0.213951,50.1045,0.05942969,
2,1,0,1,0,13004,0.0697152,0.0694089,6.48748,7,0.00281181,10,0.000450289,-2.18792,0.335135,0.176048,44.624,0.0694089,
2,1,0,1,0,13004.1,0.0797031,0.0794163,6.93,7,0.00348372,10,0.000550355,-2.15927,0.375449,0.157145,42.514,0.0794163,
2,1,0,1,0,13004.2,0.0896911,0.0893776,7.31857,7,0.0041969,10,0.000654116,-2.13557,0.407672,0.144724,41.3822,0.08937759,
2,1,0,1,0,13004.3,0.099679,0.0993511,7.80008,7,0.00495052,10,0.000774947,-2.1079,0.325016,0.18153,55.1845,0.09935113,
2,1,0,1,0,13004.4,0.109667,0.10935,8.49051,7,0.00576204,10,0.000928437,-2.07107,0.240027,0.245806,81.4883,0.10935,
2,1,0,1,0,13004.5,0.119655,0.119377,9.34539,7,0.00665391,10,0.00111563,-2.0294,0.276667,0.213253,77.7314,0.119377,
2,1,0,1,0,13004.6,0.129643,0.129324,10.045,7,0.00762496,10,0.00129906,-1.99805,0.378582,0.155845,61.0423,0.129324,
2,1,0,1,0,13004.7,0.139631,0.139324,10.5523,7,0.00865603,10,0.00147019,-1.97665,0.567552,0.103955,42.803,0.1393237,
2,1,0,1,0,13004.8,0.149619,0.149308,10.7,7,0.00972347,10,0.0015976,-1.97061,-0.743393,-0.0793658,-33.0226,0.149308,
2,1,0,1,0,13004.9,0.159607,0.159316,9.51522,7,0.010748,10,0.00151593,-2.02158,-0.107027,-0.551264,-204.167,0.159316,
2,1,0,1,0,13005,0.169595,0.169292,7.3194,7,0.0115886,10,0.00123911,-2.13552,-0.0845048,-0.698185,-199.626,0.169292,
2,1,0,1,0,13005.1,0.179582,0.179324,5.83828,7,0.0122383,10,0.00104694,-2.23371,-0.128637,-0.458655,-104.879,0.179324,
2,1,0,1,0,13005.2,0.18957,0.189298,5.08798,7,0.0127811,10,0.000963142,-2.29345,-0.208855,-0.282492,-56.15,0.1892976,
2,1,0,1,0,13005.3,0.199558,0.199238,4.66335,7,0.0132666,10,0.000929114,-2.3313,-0.333262,-0.177038,-32.2103,0.199238,
2,1,0,1,0,13005.4,0.209546,0.209255,4.40438,7,0.0137189,10,0.000921637,-2.35612,-0.404005,-0.146038,-25.0858,0.209255,
2,1,0,1,0,13005.5,0.219534,0.219214,4.21791,7,0.0141493,10,0.000924623,-2.3749,-0.732873,-0.0805051,-13.2574,0.219214,
2,1,0,1,0,13005.6,0.229522,0.229222,4.08997,7,0.0145651,10,0.000937511,-2.38828,-0.81623,-0.0722835,-11.5526,0.229222,
2,1,0,1,0,13005.7,0.23951,0.239241,4.00308,7,0.0149702,10,0.000957702,-2.39761,-1.8559,-0.0317905,-4.97171,0.239241,
2,1,0,1,0,13005.8,0.249498,0.249205,3.93812,7,0.0153672,10,0.000981399,-2.40471,-1.48085,-0.0398419,-6.12298,0.2492048,
2,1,0,1,0,13005.9,0.259486,0.259224,3.88219,7,0.0157584,10,0.00100636,-2.41092,-1.1189,-0.0527304,-7.98326,0.259224,
2,1,0,1,0,13006,0.269474,0.269172,3.82355,7,0.0161441,10,0.00102919,-2.41753,-2.23219,-0.0264315,-3.94888,0.2691718,
2,1,0,1,0,13006.1,0.279462,0.279159,3.77404,7,0.0165248,10,0.00105356,-2.42319,-1.90483,-0.0309739,-4.56825,0.279159,
2,1,0,1,0,13006.2,0.28945,0.289135,3.7291,7,0.0169005,10,0.00107821,-2.4284,-2.54017,-0.0232268,-3.3805,0.289135,
2,1,0,1,0,13006.3,0.299438,0.299139,3.68187,7,0.0172711,10,0.00110139,-2.43393,-0.0295346,-1.99766,-262.974,0.299139,
2,0,0,1,0,13006.4,0.291747,0.291394,-1.01437,7,0.0173136,10,-0.000295581,-2.9938,-0.0169625,-3.47826,128.709,0.291394,
2,0,0,1,0,13006.5,0.281759,0.281434,-1.68042,7,0.0171721,10,-0.000472928,-2.77458,-0.0971076,-0.607574,39.7187,0.281434,
2,0,0,1,0,13006.6,0.271771,0.271402,-2.00132,7,0.0169869,10,-0.000543162,-2.69868,-0.166563,-0.354221,27.5857,0.271402,
2,0,0,1,0,13006.7,0.261783,0.261477,-2.22913,7,0.016775,10,-0.000582866,-2.65186,-0.282866,-0.208579,18.128,0.261477,
2,0,0,1,0,13006.8,0.251795,0.251443,-2.40735,7,0.0165429,10,-0.000605311,-2.61846,-0.32117,-0.183703,17.2723,0.251443,
2,0,0,1,0,13006.9,0.241807,0.241502,-2.56282,7,0.0162939,10,-0.000618926,-2.59128,-0.37144,-0.158841,15.935,0.241502,
2,0,0,1,0,13007,0.231815,0.231478,-2.71511,7,0.0160299,10,-0.00062849,-2.56621,-0.388536,-0.151852,16.0854,0.231478,
2,0,0,1,0,13007.1,0.221831,0.221563,-2.84996,7,0.0157523,10,-0.000631448,-2.54516,-0.508895,-0.115937,12.874,0.221563,
2,0,0,1,0,13007.2,0.211843,0.211488,-2.97995,7,0.015461,10,-0.000630226,-2.52579,-0.611358,-0.0965065,11.2156,0.211488,
2,0,0,1,0,13007.3,0.201856,0.201523,-3.11359,7,0.015156,10,-0.000627461,-2.50674,-0.498722,-0.118302,14.4133,0.201523,
2,0,0,1,0,13007.4,0.191868,0.191505,-3.27269,7,0.0148366,10,-0.000626736,-2.4851,-0.409291,-0.144152,18.4479,0.191505,
2,0,0,1,0,13007.5,0.18188,0.181539,-3.46348,7,0.014501,10,-0.000628756,-2.46049,-0.337032,-0.175058,23.5862,0.181539,
2,0,0,1,0,13007.6,0.171892,0.171561,-3.69691,7,0.0141442,10,-0.000634244,-2.43216,-0.306737,-0.192347,27.7407,0.171561,
2,0,0,1,0,13007.7,0.161904,0.161572,-4.05008,7,0.0137586,10,-0.000654378,-2.39254,-0.215175,-0.274195,43.3464,0.161572,
2,0,0,1,0,13007.8,0.151916,0.151572,-4.62603,7,0.0133274,10,-0.000701178,-2.33479,-0.141293,-0.417571,75.6329,0.151572,
2,0,0,1,0,13007.9,0.141928,0.141606,-5.67609,7,0.0128173,10,-0.00080377,-2.24595,-0.0956146,-0.617061,136.693,0.1416063,
2,0,0,1,0,13008,0.13194,0.131656,-7.26609,7,0.0121751,10,-0.000956621,-2.1387,-0.0953292,-0.618908,175.261,0.131656,
2,0,0,1,0,13008.1,0.121952,0.121616,-8.95622,7,0.0113633,10,-0.00108922,-2.04788,-0.14051,-0.419899,146.401,0.121616,
2,0,0,1,0,13008.2,0.111964,0.111663,-10.1864,7,0.0104023,10,-0.00113745,-1.99198,-0.245789,-0.240043,95.3274,0.111663,
2,0,0,1,0,13008.3,0.101976,0.101674,-10.8286,7,0.00934723,10,-0.00110098,-1.96543,-0.826444,-0.0713902,30.1159,0.101674,
2,0,0,1,0,13008.4,0.0919883,0.0916602,-10.8113,7,0.00826068,10,-0.000990969,-1.96612,0.844017,0.0699038,-29.4844,0.0916602,
2,0,0,1,0,13008.5,0.0820004,0.0816343,-10.2469,7,0.00720627,10,-0.0008365,-1.98941,0.335001,0.176119,-70.4158,0.08163435,
2,0,0,1,0,13008.6,0.0720124,0.0717679,-9.60172,7,0.00621618,10,-0.000689096,-2.01765,0.41876,0.140892,-52.857,0.0717679,
2,0,0,1,0,13008.7,0.0620245,0.0616728,-9.17167,7,0.00527967,10,-0.000565642,-2.03755,0.57992,0.101738,-36.4258,0.0616728,
2,0,0,1,0,13008.8,0.0520366,0.0517141,-8.84915,7,0.00437959,10,-0.000457626,-2.0531,0.63192,0.0933663,-32.2215,0.0517141,
2,0,0,1,0,13008.9,0.0420486,0.0417863,-8.52518,7,0.00351121,10,-0.000356235,-2.0693,0.621974,0.0948593,-31.5839,0.0417863,
2,0,0,1,0,13009,0.0320607,0.0317302,-8.17397,7,0.00267706,10,-0.000259361,-2.08757,0.462965,0.127439,-40.6087,0.0317302,
2,0,0,1,0,13009.1,0.0220728,0.0217444,-7.7199,7,0.00188264,10,-0.000167865,-2.11239,0.368108,0.160279,-48.2883,0.0217444,
2,0,0,1,0,13009.2,0.0120848,0.0117599,-7.25564,7,0.00113488,10,-8.53253e-05,-2.13932,0.372061,0.158576,-44.9097,0.0117599,
2,0,0,1,0,13009.3,0.0020969,0.00173871,-6.93369,7,0.000429908,10,-1.20557e-05,-2.15904,0.742906,0.0794178,-21.3801,0.00173871,
2,0,0,1,0,13009.4,-0.00789103,-0.00824781,-6.67465,7,-0.000247691,10,5.50512e-05,-2.17557,1.37343,0.0429582,-11.2161,-0.00824781,
2,0,0,1,0,13009.5,-0.017879,-0.0182637,-6.64586,7,-0.000911354,10,0.000121378,-2.17745,-4.19449,-0.0140661,3.64457,-0.0182637,
2,0,0,1,0,13009.6,-0.0278669,-0.0282384,-6.71952,7,-0.00157797,10,0.000189748,-2.17266,-1.33648,-0.0441457,11.5915,-0.0282384,
2,0,0,1,0,13009.7,-0.0378548,-0.0382539,-6.89644,7,-0.0022577,10,0.000263816,-2.16138,-0.79552,-0.0741653,19.9561,-0.0382539,
2,0,0,1,0,13009.8,-0.0478428,-0.0481989,-7.14141,7,-0.00295871,10,0.000344208,-2.14622,-0.510642,-0.115541,32.2386,-0.0481989,
2,0,0,1,0,13009.9,-0.0578216,-0.058186,-7.45632,7,-0.00368702,10,0.000433853,-2.12748,-0.470686,-0.125349,36.4832,-0.05818595,
2,0,0,1,0,13010,-0.0678186,-0.0682077,-7.84678,7,-0.00445102,10,0.000535211,-2.10531,-0.404443,-0.14588,44.6836,-0.0682077,
2,0,0,1,0,13010.1,-0.0778066,-0.078104,-8.32294,7,-0.00525834,10,0.000650055,-2.07972,-0.376617,-0.156658,50.9097,-0.078104,
2,0,0,1,0,13010.2,-0.0877945,-0.0881648,-8.88286,7,-0.0061175,10,0.000783155,-2.05145,-0.34705,-0.170004,58.9324,-0.0881648,
2,0,0,1,0,13010.3,-0.0977825,-0.0981435,-9.45276,7,-0.00703412,10,0.000927727,-2.02444,-0.379842,-0.155328,57.3314,-0.0981435,
2,0,0,1,1,13010.4,-0.0927386,-0.0930581,-1.82502,7,-0.00759496,10,0.000169833,-2.73873,-0.00653907,-9.02269,594.734,-0.0930581,
2,1,0,1,1,13010.5,-0.0827529,-0.0831357,1.86271,7,-0.0075636,10,-0.000154858,-2.72985,0.0178455,3.30616,230.723,-0.0831357,
2,1,0,1,1,13010.6,-0.0727627,-0.0731323,3.52094,7,-0.00728443,10,-0.000257494,-2.45334,0.0689451,0.855754,116.599,-0.0731323,
2,1,0,1,1,13010.7,-0.0627748,-0.0631213,4.38133,7,-0.00688464,10,-0.000276555,-2.35839,0.159779,0.369261,63.0178,-0.0631213,
2,1,0,1,1,13010.8,-0.0527868,-0.0531698,4.85892,7,-0.00641977,10,-0.000258348,-2.31346,0.336158,0.175513,33.2393,-0.0531698,
2,1,0,1,1,13010.9,-0.0427989,-0.0431395,5.11371,7,-0.00591927,10,-0.000220603,-2.29126,0.573702,0.102841,20.5397,-0.0431395,
2,1,0,1,1,13011,-0.0328109,-0.0331434,5.24454,7,-0.00540066,10,-0.000173822,-2.28029,1.50849,0.0391119,7.99778,-0.0331434,
2,1,0,1,1,13011.1,-0.022823,-0.0231944,5.28593,7,-0.00487382,10,-0.000122604,-2.27688,4.76403,0.0123845,2.55347,-0.0231944,
2,1,0,1,1,13011.2,-0.0128351,-0.0131568,5.28131,7,-0.00434481,10,-6.94851e-05,-2.27726,-4.30193,-0.0137148,-2.82974,-0.0131568,
2,1,0,1,1,13011.3,-0.00284713,-0.00320585,5.28865,7,-0.00381569,10,-1.69546e-05,-2.27666,75.4928,0.000781532,0.161311,-0.00320585,
2,1,0,1,1,13011.3,-2.55332e-05,-0.000306236,5.3196,7,-0.00366674,10,-1.62905e-06,-2.27412, , , ,-0.000306236,