File: Figure_codes/Fig_3-5/rawdata_trumpetplot_data/after 10th/20221101_1-115_003_TrumpetPlot_ParaChange_from10_every3_03_CV_C01_3.csv
mode,ox/red,error,control changes,counter inc.,time/s,control/V,Ewe/V,<I>/mA,cycle number,(Q-Qo)/C,I Range,P/W,log(|I|),Tafel slope mV/dec,alpha_eff,dI/d(E-IR),E-IR/V,
2,0,0,1,0,6850.41,2.44065e-05,-0.000382585,-0.107026,4,0.0000000E+000,10,4.09468e-08,-3.97051, , , ,-0.000382585,
2,1,0,1,0,6851.86,0.00729041,0.00698601,0.211057,4,0.000283878,10,1.47445e-06,-3.6756,0.0900192,0.655416,5.37202,0.00698601,
2,1,0,1,0,6853.36,0.0147815,0.0144481,0.24115,4,0.000653173,10,3.48416e-06,-3.61771,0.168272,0.350624,3.31205,0.0144481,
2,1,0,1,0,6854.86,0.0222725,0.0219401,0.267356,4,0.00106328,10,5.86581e-06,-3.57291,0.172214,0.342598,3.57505,0.0219401,
2,1,0,1,0,6856.35,0.0297635,0.0294392,0.29437,4,0.00151182,10,8.66602e-06,-3.53111,0.17535,0.33647,3.85173,0.0294392,
2,1,0,1,0,6857.85,0.0372545,0.0369491,0.321482,4,0.00200044,10,1.18785e-05,-3.49284,0.182526,0.323241,4.05939,0.0369491,
2,1,0,1,0,6859.35,0.0447456,0.0443986,0.350629,4,0.0025315,10,1.55674e-05,-3.45515,0.218307,0.270262,3.68535,0.0443986,
2,1,0,1,0,6860.85,0.0522367,0.0519202,0.376219,4,0.00310383,10,1.95334e-05,-3.42456,0.203731,0.289598,4.23083,0.05192019,
2,1,0,1,0,6862.35,0.0597277,0.0594183,0.402755,4,0.00371618,10,2.3931e-05,-3.39496,0.262575,0.224698,3.52926,0.0594183,
2,1,0,1,0,6863.85,0.0672187,0.0669092,0.427184,4,0.00436612,10,2.85825e-05,-3.36939,0.316206,0.186587,3.09603,0.0669092,
2,1,0,1,0,6865.34,0.0747092,0.0743899,0.44844,4,0.00504906,10,3.33594e-05,-3.3483,0.398828,0.147934,2.58078,0.07438986,
2,1,0,0,0,6866.84,0.0822001,0.0819124,0.464999,4,0.00576256,10,3.80892e-05,-3.33255,0.402405,0.146619,2.67402,0.0819124,
2,1,0,1,0,6868.34,0.0896911,0.0893395,0.491023,4,0.00650832,10,4.38677e-05,-3.3089,0.259298,0.227537,4.36663,0.0893395,
2,1,0,0,0,6869.84,0.097182,0.0968514,0.526698,4,0.00729915,10,5.10115e-05,-3.27844,0.177569,0.332265,6.83477,0.0968514,
2,1,0,1,0,6871.34,0.104673,0.104364,0.579063,4,0.00815368,10,6.04336e-05,-3.23727,0.190122,0.310327,6.96613,0.104364,
2,1,0,0,0,6872.83,0.112164,0.111839,0.623808,4,0.00908247,10,6.97662e-05,-3.20495,0.302292,0.195176,4.73127,0.111839,
2,1,0,1,0,6874.33,0.119655,0.119391,0.662887,4,0.010076,10,7.9143e-05,-3.17856,0.364865,0.161704,4.18638,0.1193914,
2,1,0,0,0,6875.83,0.127146,0.126849,0.694359,4,0.0111242,10,8.80789e-05,-3.15842,0.380753,0.154956,4.21641,0.126849,
2,1,0,1,0,6877.33,0.134637,0.13434,0.717197,4,0.0122196,10,9.63482e-05,-3.14436,-2.43901,-0.0241902,-0.675787,0.13434,
2,1,0,1,0,6878.83,0.142127,0.141806,0.667901,4,0.0132979,10,9.47123e-05,-3.17529,-0.131938,-0.447179,-11.5735,0.141806,
2,1,0,1,0,6880.33,0.149618,0.149274,0.545376,4,0.0142399,10,8.14107e-05,-3.2633,-0.0784195,-0.752363,-16.0508,0.149274,
2,1,0,1,0,6881.82,0.157109,0.156809,0.43842,4,0.0150005,10,6.87481e-05,-3.35811,-0.0900292,-0.655343,-11.2626,0.156809,
2,1,0,1,0,6883.32,0.1646,0.164316,0.377968,4,0.0156368,10,6.21063e-05,-3.42255,-0.145802,-0.404658,-5.97383,0.164316,
2,1,0,1,0,6884.82,0.172091,0.17178,0.342812,4,0.0162026,10,5.88881e-05,-3.46494,-0.227802,-0.258996,-3.47459,0.17178,
2,1,0,1,0,6886.32,0.179582,0.179315,0.324401,4,0.0167289,10,5.81699e-05,-3.48892,-0.36989,-0.159507,-2.01307,0.179315,
2,1,0,1,0,6887.82,0.187074,0.186788,0.310775,4,0.0172315,10,5.80489e-05,-3.50755,-0.417354,-0.141367,-1.71385,0.186788,
2,1,0,1,0,6889.31,0.194564,0.194292,0.301329,4,0.0177182,10,5.85459e-05,-3.52096,-0.969751,-0.0608404,-0.718294,0.194292,
2,1,0,1,0,6890.81,0.202056,0.20175,0.295996,4,0.0181934,10,5.97174e-05,-3.52871,-0.881811,-0.0669078,-0.769231,0.20175,
2,1,0,1,0,6892.31,0.209547,0.209276,0.291822,4,0.0186598,10,6.10714e-05,-3.53488,-1.50496,-0.0392038,-0.444365,0.209276,
2,1,0,1,0,6893.81,0.217038,0.216722,0.285445,4,0.0191189,10,6.18622e-05,-3.54448,-1.11393,-0.0529657,-0.591779,0.216722,
2,1,0,1,0,6895.31,0.224529,0.224196,0.282267,4,0.019572,10,6.32831e-05,-3.54934,-3.41176,-0.0172931,-0.189619,0.224196,
2,1,0,1,0,6896.81,0.232019,0.231718,0.27929,4,0.0200201,10,6.47165e-05,-3.55394,49.9019,0.00118232,0.012901,0.231718,
2,1,0,0,0,6898.3,0.23951,0.239225,0.276348,4,0.0204641,10,6.61092e-05,-3.55854,-4.2947,-0.0137379,-0.147848,0.239225,
2,1,0,1,0,6899.8,0.247001,0.246723,0.273327,4,0.0209039,10,6.74359e-05,-3.56332,-1.72833,-0.034137,-0.365087,0.246723,
2,1,0,0,0,6901.3,0.254492,0.254202,0.270737,4,0.0213401,10,6.88218e-05,-3.56745,-2.00876,-0.0293713,-0.311289,0.254202,
2,1,0,1,0,6902.8,0.261983,0.261717,0.270498,4,0.0217734,10,7.0794e-05,-3.56784,25.0094,0.00235911,0.0248331,0.261717,
2,1,0,0,0,6904.3,0.269474,0.26916,0.267848,4,0.0222037,10,7.2094e-05,-3.57211,-3.51836,-0.0167692,-0.174848,0.26916,
2,1,0,1,0,6905.79,0.276965,0.276656,0.265099,4,0.022631,10,7.33413e-05,-3.57659,4.11442,0.0143398,0.149064,0.276656,
2,1,0,0,0,6907.29,0.284456,0.284169,0.265283,4,0.0230555,10,7.53853e-05,-3.57629,-39.6868,-0.00148664,-0.0153314,0.284169,
2,1,0,1,0,6908.79,0.291947,0.291662,0.262869,4,0.0234776,10,7.66688e-05,-3.58026,-1.63327,-0.0361239,-0.37161,0.291662,
2,1,0,1,0,6910.29,0.299437,0.299167,0.25885,4,0.0238966,10,7.74393e-05,-3.58695,-0.00214764,-27.472,-125.976,0.299167,
2,0,0,1,0,6911.66,0.293744,0.293448,-0.0204206,4,0.0239188,10,-5.9924e-06,-4.68993,-0.00670262,-8.80253,5.48636,0.2934483,
2,0,0,1,0,6913.16,0.286253,0.285955,-0.0471355,4,0.0238397,10,-1.34786e-05,-4.32665,-0.0372573,-1.58358,2.9381,0.285955,
2,0,0,0,0,6914.65,0.278763,0.278499,-0.0675905,4,0.0237256,10,-1.88239e-05,-4.17011,-0.0744963,-0.791986,2.04419,0.278499,
2,0,0,1,0,6916.15,0.271272,0.270955,-0.0826953,4,0.0235853,10,-2.24067e-05,-4.08252,-0.109364,-0.539484,1.75676,0.270955,
2,0,0,0,0,6917.65,0.263781,0.263484,-0.0963567,4,0.0234232,10,-2.53884e-05,-4.01612,-0.133368,-0.442384,1.64918,0.263484,
2,0,0,1,0,6919.15,0.25629,0.255995,-0.107989,4,0.0232425,10,-2.76447e-05,-3.96662,-0.217229,-0.271602,1.13408,0.255995,
2,0,0,0,0,6920.65,0.248799,0.24846,-0.117088,4,0.0230456,10,-2.90917e-05,-3.93149,-0.220927,-0.267056,1.23848,0.24846,
2,0,0,1,0,6922.15,0.241308,0.241006,-0.12825,4,0.0228333,10,-3.0909e-05,-3.89194,-0.23713,-0.248808,1.25115,0.241006,
2,0,0,0,0,6923.64,0.233817,0.233506,-0.137627,4,0.0226066,10,-3.21366e-05,-3.8613,-0.444049,-0.132868,0.710113,0.233506,
2,0,0,1,0,6925.14,0.226326,0.226015,-0.147066,4,0.0223661,10,-3.32391e-05,-3.83249,-0.250656,-0.235383,1.34969,0.226015,
2,0,0,0,0,6926.64,0.218835,0.218562,-0.157084,4,0.0221114,10,-3.43326e-05,-3.80387,-0.381393,-0.154696,0.934711,0.218562,
2,0,0,1,0,6928.14,0.211344,0.211096,-0.164091,4,0.0218432,10,-3.46391e-05,-3.78491,-0.344909,-0.17106,1.10129,0.211096,
2,0,0,1,0,6929.64,0.203854,0.203519,-0.17431,4,0.0215597,10,-3.54754e-05,-3.75868,-0.340218,-0.173418,1.18957,0.203519,
2,0,0,1,0,6931.13,0.196363,0.196041,-0.186557,4,0.0212607,10,-3.65728e-05,-3.72919,-0.214973,-0.274454,1.9899,0.196041,
2,0,0,1,0,6932.63,0.188871,0.188568,-0.199202,4,0.0209431,10,-3.75632e-05,-3.70071,-0.191815,-0.307589,2.38794,0.188568,
2,0,0,1,0,6934.13,0.181381,0.181047,-0.21502,4,0.0206042,10,-3.89288e-05,-3.66752,-0.250578,-0.235456,1.97323,0.181047,
2,0,0,1,0,6935.63,0.173889,0.17359,-0.236214,4,0.0202388,10,-4.10043e-05,-3.62669,-0.160879,-0.366734,3.35853,0.17359,
2,0,0,1,0,6937.13,0.166398,0.166087,-0.263439,4,0.0198374,10,-4.37538e-05,-3.57932,-0.129246,-0.456495,4.72681,0.166087,
2,0,0,1,0,6938.63,0.158907,0.158594,-0.30395,4,0.0193844,10,-4.82049e-05,-3.5172,-0.100802,-0.585308,6.99884,0.158594,
2,0,0,1,0,6940.12,0.151416,0.151119,-0.37451,4,0.0188492,10,-5.65955e-05,-3.42654,-0.0750521,-0.78612,11.5245,0.151119,
2,0,0,1,0,6941.62,0.143925,0.143624,-0.482121,4,0.0181832,10,-6.92444e-05,-3.31684,-0.063969,-0.922321,17.3337,0.143624,
2,0,0,1,0,6943.12,0.136434,0.136082,-0.614797,4,0.0173337,10,-8.36626e-05,-3.21127,-0.0865146,-0.681965,16.2036,0.136082,
2,0,0,1,0,6944.62,0.128943,0.128624,-0.702937,4,0.0163112,10,-9.04146e-05,-3.15308,-0.241846,-0.243957,6.65806,0.128624,
2,0,0,0,0,6946.12,0.121453,0.121143,-0.728581,4,0.0152019,10,-8.82626e-05,-3.13752,3.6734,0.0160614,-0.455764,0.121143,
2,0,0,1,0,6947.61,0.113962,0.113659,-0.706571,4,0.0140906,10,-8.0308e-05,-3.15084,0.483375,0.122058,-3.38435,0.113659,
2,0,0,0,0,6949.11,0.106471,0.106162,-0.679866,4,0.013019,10,-7.21758e-05,-3.16758,0.38625,0.152751,-4.0632,0.106162,
2,0,0,1,0,6950.61,0.0989799,0.0986785,-0.645535,4,0.0119976,10,-6.37004e-05,-3.19008,0.328154,0.179794,-4.5103,0.09867847,
2,0,0,0,0,6952.11,0.0914889,0.0911549,-0.610115,4,0.0110313,10,-5.56149e-05,-3.21459,0.31147,0.189424,-4.49581,0.0911549,
2,0,0,1,0,6953.61,0.083998,0.0836801,-0.575068,4,0.0101158,10,-4.81217e-05,-3.24028,0.306019,0.192798,-4.32999,0.0836801,
2,0,0,0,0,6955.11,0.076507,0.076218,-0.552808,4,0.00924168,10,-4.21339e-05,-3.25743,0.441592,0.133608,-2.88431,0.076218,
2,0,0,1,0,6956.6,0.0690161,0.0686912,-0.530662,4,0.00840071,10,-3.64518e-05,-3.27518,0.517221,0.114071,-2.37436,0.0686912,
2,0,0,0,0,6958.1,0.0615251,0.061209,-0.513293,4,0.00758795,10,-3.14182e-05,-3.28963,0.487114,0.121121,-2.43285,0.061209,
2,0,0,1,0,6959.6,0.0540342,0.0537787,-0.495415,4,0.00680386,10,-2.66428e-05,-3.30503,0.519967,0.113469,-2.18856,0.0537787,
2,0,0,1,0,6961.1,0.0465436,0.0461994,-0.474017,4,0.00604941,10,-2.18993e-05,-3.32421,0.515122,0.114536,-2.12714,0.0461994,
2,0,0,1,0,6962.6,0.0390526,0.0386864,-0.454917,4,0.00532442,10,-1.75991e-05,-3.34207,0.365532,0.161409,-2.85795,0.0386864,
2,0,0,1,0,6964.09,0.0315615,0.0312716,-0.43696,4,0.00462856,10,-1.36645e-05,-3.35956,0.38832,0.151936,-2.59149,0.0312716,
2,0,0,1,0,6965.59,0.0240706,0.0237269,-0.421184,4,0.00395842,10,-9.9934e-06,-3.37553,0.597125,0.0988068,-1.62917,0.0237269,
2,0,0,1,0,6967.09,0.0165795,0.0163083,-0.411346,4,0.00330745,10,-6.70837e-06,-3.38579,1.5273,0.0386302,-0.62048,0.0163083,
2,0,0,1,0,6968.59,0.00908846,0.00877184,-0.408277,4,0.00266626,10,-3.58134e-06,-3.38904,-7.62626,-0.00773643,0.123201,0.00877184,
2,0,0,1,0,6970.09,0.00159739,0.00125465,-0.412755,4,0.00202385,10,-5.17863e-07,-3.38431, , , ,0.00125465,
2,0,0,0,0,6970.37,0.000199195,-0.000168808,-0.41268,4,0.00190322,10,6.96634e-08,-3.38439, , , ,-0.000168808,