File: Figure_codes/Fig_3-5/rawdata_trumpetplot_data/after 10th/20221101_1-115_003_TrumpetPlot_ParaChange_from10_every3_13_CV_C01_31.csv
mode,ox/red,error,control changes,counter inc.,time/s,control/V,Ewe/V,<I>/mA,cycle number,(Q-Qo)/C,I Range,P/W,log(|I|),Tafel slope mV/dec,alpha_eff,dI/d(E-IR),E-IR/V,
2,1,0,1,0,62271.9,2.44065e-05,-0.000363498,13.8869,32,0.0000000E+000,10,-5.04788e-06,-1.85739, , , ,-0.000363498,
2,1,0,1,0,62271.9,0.0122624,0.0118778,17.6414,32,0.000242516,10,0.000209542,-1.75347,0.167717,0.351782,240.236,0.0118778,
2,1,0,1,0,62271.9,0.0250636,0.0246981,20.3715,32,0.000547701,10,0.000503138,-1.69098,0.23908,0.246779,195.558,0.0246981,
2,1,0,1,0,62271.9,0.0378704,0.0374654,22.7187,32,0.000893107,10,0.000851168,-1.64362,0.303334,0.194505,172.094,0.0374654,
2,1,0,1,0,62272,0.0506632,0.0502497,24.808,32,0.0012738,10,0.00124659,-1.60541,0.364046,0.162068,156.748,0.0502497,
2,1,0,1,0,62272,0.0634672,0.0631082,26.7678,32,0.00168673,10,0.00168927,-1.57239,0.414194,0.142445,148.652,0.0631082,
2,1,0,1,0,62272,0.0762629,0.0758734,28.6414,32,0.00213022,10,0.00217312,-1.54301,0.451069,0.1308,146.123,0.0758734,
2,1,0,1,0,62272,0.0890668,0.0887117,30.4874,32,0.0026035,10,0.00270459,-1.51588,0.484355,0.121811,144.929,0.0887117,
2,1,0,1,0,62272,0.10186,0.101481,32.3337,32,0.00310635,10,0.00328126,-1.49034,0.517359,0.114041,143.903,0.101481,
2,1,0,1,0,62272,0.114666,0.114274,34.1931,32,0.00363882,10,0.00390738,-1.46606,0.542618,0.108732,145.064,0.114274,
2,1,0,1,0,62272.1,0.127462,0.12708,36.0713,32,0.00420101,10,0.00458396,-1.44284,0.550253,0.107223,150.968,0.12708,
2,1,0,1,0,62272.1,0.140263,0.139864,38.0747,32,0.00479414,10,0.00532527,-1.41936,0.541709,0.108915,161.837,0.139864,
2,1,0,1,0,62272.1,0.153064,0.152631,40.1453,32,0.00542022,10,0.00612741,-1.39637,0.575791,0.102468,160.503,0.1526309,
2,1,0,1,0,62272.1,0.165866,0.165422,42.2175,32,0.00607918,10,0.00698368,-1.37451,0.618195,0.0954392,157.073,0.165422,
2,1,0,1,0,62272.1,0.178667,0.178263,44.0768,32,0.00677016,10,0.00785726,-1.35579,0.772835,0.0763423,131.163,0.178263,
2,1,0,1,0,62272.1,0.191463,0.191025,45.556,32,0.00748805,10,0.00870233,-1.34145,1.09963,0.0536543,95.2208,0.191025,
2,1,0,1,0,62272.2,0.204269,0.203844,46.4482,32,0.00822509,10,0.0094682,-1.33303,2.49103,0.023685,42.8535,0.203844,
2,1,0,1,0,62272.2,0.217062,0.216713,46.634,32,0.00897079,10,0.0101062,-1.3313,-7.95377,-0.00741786,-13.4758,0.216713,
2,1,0,1,0,62272.2,0.229866,0.229499,46.1116,32,0.00971369,10,0.0105826,-1.33619,-1.55113,-0.0380367,-68.3206,0.229499,
2,1,0,1,0,62272.2,0.242662,0.242276,44.9011,32,0.0104425,10,0.0108784,-1.34774,-0.876791,-0.0672908,-117.732,0.242276,
2,1,0,1,0,62272.2,0.255466,0.25513,43.1447,32,0.0111474,10,0.0110075,-1.36507,-0.646457,-0.0912667,-153.48,0.25513,
2,1,0,1,0,62272.2,0.268259,0.267921,41.0291,32,0.0118209,10,0.0109926,-1.38691,-0.551538,-0.106974,-171.19,0.267921,
2,1,0,1,0,62272.2,0.281065,0.280703,38.8027,32,0.0124595,10,0.010892,-1.41114,-0.518271,-0.11384,-172.407,0.280703,
2,1,0,1,0,62272.3,0.293861,0.29353,36.6422,32,0.0130627,10,0.0107556,-1.43602,-0.521424,-0.113152,-162.144,0.29353,
2,1,0,1,0,62272.3,0.298983,0.298743,33.8433,32,0.0133855,10,0.0101104,-1.47053,0.0525354,1.12305,1348.27,0.298743,
2,1,0,1,0,62272.3,0.286187,0.285913,20.7914,32,0.0138098,10,0.00594454,-1.68212,0.0614755,0.959732,781.752,0.285913,
2,1,0,1,0,62272.3,0.273386,0.273053,12.4051,32,0.014071,10,0.00338726,-1.9064,0.0504175,1.17023,562.198,0.273053,
2,1,0,1,0,62272.3,0.260585,0.260322,6.1128,32,0.0142164,10,0.00159129,-2.21376,0.0310443,1.90051,434.214,0.260322,
2,1,0,1,0,62272.3,0.247783,0.24747,1.2032,32,0.0142729,10,0.000297756,-2.91966,0.0212396,2.77784,342.268,0.24747,
2,0,0,1,0,62272.4,0.234982,0.23464,-2.73592,32,0.014259,10,-0.000641956,-2.5629,-0.018232,-3.23606,276.662,0.23464,
2,0,0,1,0,62272.4,0.222187,0.221895,-5.96152,32,0.0141883,10,-0.00132283,-2.22464,-0.0579297,-1.01848,229.447,0.221895,
2,0,0,1,0,62272.4,0.20938,0.209012,-8.66812,32,0.0140703,10,-0.00181174,-2.06208,-0.101059,-0.583816,194.917,0.209012,
2,0,0,1,0,62272.4,0.196587,0.196232,-10.9686,32,0.0139125,10,-0.00215239,-1.95985,-0.149558,-0.394497,167.832,0.1962316,
2,0,0,1,0,62272.4,0.183783,0.183476,-12.9828,32,0.0137203,10,-0.00238203,-1.88663,-0.198632,-0.297031,150.052,0.183476,
2,0,0,1,0,62272.4,0.170987,0.170655,-14.8048,32,0.0134975,10,-0.00252651,-1.8296,-0.246845,-0.239017,137.982,0.170655,
2,0,0,1,0,62272.5,0.158183,0.157859,-16.5677,32,0.0132462,10,-0.00261536,-1.78074,-0.278405,-0.211921,136.934,0.1578587,
2,0,0,1,0,62272.5,0.145385,0.145044,-18.388,32,0.0129666,10,-0.00266706,-1.73547,-0.280429,-0.210392,151.073,0.145044,
2,0,0,1,0,62272.5,0.132584,0.132258,-20.4958,32,0.0126559,10,-0.00271074,-1.68833,-0.255957,-0.230508,184.799,0.132258,
2,0,0,1,0,62272.5,0.119783,0.119475,-23.1446,32,0.0123072,10,-0.0027652,-1.63555,-0.230603,-0.255851,231.595,0.119475,
2,0,0,1,0,62272.5,0.106987,0.106709,-26.3694,32,0.0119113,10,-0.00281385,-1.5789,-0.228403,-0.258315,265.833,0.106709,
2,0,0,1,0,62272.5,0.0941801,0.0938526,-29.8571,32,0.0114612,10,-0.00280216,-1.52495,-0.255223,-0.231171,268.818,0.0938526,
2,0,0,1,0,62272.5,0.0813844,0.0810863,-33.2048,32,0.010956,10,-0.00269246,-1.4788,-0.305039,-0.193418,249.948,0.08108633,
2,0,0,1,0,62272.6,0.0685832,0.0683201,-36.2141,32,0.0104001,10,-0.00247415,-1.44112,-0.377287,-0.15638,220.464,0.0683201,
2,0,0,1,0,62272.6,0.0557876,0.0555008,-38.7438,32,0.00979929,10,-0.00215032,-1.4118,-0.503282,-0.117231,176.958,0.0555008,
2,0,0,1,0,62272.6,0.0429808,0.0427495,-40.7778,32,0.00916221,10,-0.00174323,-1.38958,-0.663546,-0.0889163,141.309,0.04274945,
2,0,0,1,0,62272.6,0.030188,0.0299026,-42.4024,32,0.00849612,10,-0.00126794,-1.37261,-0.884745,-0.0666859,110.188,0.0299026,
2,0,0,1,0,62272.6,0.017384,0.0170452,-43.6168,32,0.00780731,10,-0.000743457,-1.36035,-1.23563,-0.0477488,81.1867,0.0170452,
2,0,0,1,0,62272.6,0.00458834,0.00427472,-44.4603,32,0.00710206,10,-0.000190055,-1.35203,-1.85326,-0.0318359,55.2177,0.00427472,
2,0,0,1,0,62272.7,-0.00821564,-0.00859013,-44.9946,32,0.00638558,10,0.00038651,-1.34684,-3.98648,-0.0148,25.9709,-0.00859013,
2,0,0,1,0,62272.7,-0.0210196,-0.0213999,-45.1753,32,0.0056637,10,0.000966744,-1.3451,-157.745,-0.000374021,0.658811,-0.02139985,
2,0,0,1,0,62272.7,-0.0338153,-0.0342032,-45.0544,32,0.00494155,10,0.00154101,-1.34626,5.66855,0.0104083,-18.2875,-0.0342032,
2,0,0,1,0,62272.7,-0.0466193,-0.0469991,-44.7289,32,0.00422315,10,0.00210222,-1.34941,3.37011,0.0175068,-30.5458,-0.0469991,
2,0,0,1,0,62272.7,-0.0594121,-0.0597792,-44.2923,32,0.00351093,10,0.00264775,-1.35367,3.00503,0.0196337,-33.9402,-0.0597792,
2,0,0,1,0,62272.7,-0.0722189,-0.0726101,-43.8661,32,0.00280569,10,0.00318512,-1.35787,3.21449,0.0183544,-31.4294,-0.07261008,
2,0,0,1,0,62272.8,-0.0850145,-0.0854198,-43.5088,32,0.0021068,10,0.00371651,-1.36142,4.30541,0.0137037,-23.2788,-0.0854198,
2,0,0,1,0,62272.8,-0.0978158,-0.098186,-43.28,32,0.00141263,10,0.00424949,-1.36371,8.11962,0.00726635,-12.279,-0.098186,
2,0,0,1,0,62272.8,-0.110611,-0.110988,-43.2002,32,0.000720981,10,0.00479472,-1.36451,-248.395,-0.000237525,0.400674,-0.110988,
2,0,0,1,0,62272.8,-0.123418,-0.123802,-43.3029,32,2.91282e-05,10,0.005361,-1.36348,-6.90908,-0.00853948,14.4366,-0.1238023,
2,0,0,1,0,62272.8,-0.136214,-0.136602,-43.5571,32,-0.000665575,10,0.00595001,-1.36094,-3.75937,-0.0156941,26.6934,-0.136602,
2,0,0,1,0,62272.8,-0.149015,-0.149373,-43.9623,32,-0.00136576,10,0.00656678,-1.35692,-2.8289,-0.0208561,35.7986,-0.149373,
2,0,0,1,0,62272.9,-0.161816,-0.162157,-44.4546,32,-0.00207314,10,0.00720864,-1.35208,-2.67381,-0.0220659,38.2827,-0.162157,
2,0,0,1,0,62272.9,-0.174615,-0.174976,-44.9416,32,-0.00278847,10,0.00786373,-1.34735,-2.86375,-0.0206024,36.1263,-0.174976,
2,0,0,1,0,62272.9,-0.187419,-0.187776,-45.3762,32,-0.00351117,10,0.00852055,-1.34317,-3.49114,-0.0168999,29.913,-0.187776,
2,0,0,1,0,62272.9,-0.199647,-0.200022,-45.673,32,-0.00420799,10,0.00913559,-1.34034,0.257243,0.229355,-398.268,-0.200022,
2,0,0,1,1,62272.9,-0.192535,-0.192952,-35.4826,32,-0.00461385,10,0.00684645,-1.44999,-0.0789262,-0.747533,1057.7,-0.1929525,
2,0,0,1,1,62272.9,-0.179739,-0.180147,-25.3456,32,-0.00509387,10,0.00456594,-1.5961,-0.0886162,-0.665792,660.402,-0.180147,
2,0,0,1,1,62272.9,-0.166932,-0.167351,-17.9101,32,-0.00543683,10,0.00299727,-1.7469,-0.0790578,-0.746289,520.569,-0.167351,
2,0,0,1,1,62273,-0.154139,-0.154549,-11.8417,32,-0.00567294,10,0.00183013,-1.92658,-0.0614038,-0.960853,439.496,-0.154549,
2,0,0,1,1,62273,-0.141335,-0.141737,-6.59847,32,-0.00581899,10,0.000935248,-2.18056,-0.0380069,-1.55235,384.836,-0.141737,
2,0,0,1,1,62273,-0.12854,-0.128988,-1.94682,32,-0.00588613,10,0.000251116,-2.71067,-0.00995125,-5.9289,346.283,-0.128988,
2,1,0,1,1,62273,-0.115736,-0.116153,2.2805,32,-0.00588244,10,-0.000264885,-2.64197,0.00992696,5.94341,316.004,-0.116153,
2,1,0,1,1,62273,-0.102932,-0.10345,6.17259,32,-0.00581409,10,-0.000638553,-2.20953,0.0468802,1.25853,291.547,-0.1034499,
2,1,0,1,1,62273,-0.0901362,-0.0905967,9.77889,32,-0.0056858,10,-0.000885935,-2.00971,0.081068,0.727784,273.805,-0.0905967,
2,1,0,1,1,62273.1,-0.0773322,-0.0777817,13.1527,32,-0.00550172,10,-0.00102304,-1.88099,0.119062,0.495539,252.365,-0.0777817,
2,1,0,1,1,62273.1,-0.0645393,-0.064954,16.2609,32,-0.00526569,10,-0.00105621,-1.78886,0.158701,0.371768,234.986,-0.064954,
2,1,0,1,1,62273.1,-0.0517325,-0.0521591,19.1626,32,-0.00498159,10,-0.000999504,-1.71755,0.202032,0.292033,217.71,-0.0521591,
2,1,0,1,1,62273.1,-0.0389369,-0.0393589,21.8308,32,-0.00465304,10,-0.000859237,-1.66093,0.252757,0.233426,198.409,-0.0393589,
2,1,0,1,1,62273.1,-0.0261357,-0.0265513,24.2806,32,-0.00428359,10,-0.000644681,-1.61474,0.303974,0.194096,183.554,-0.0265513,
2,1,0,1,1,62273.1,-0.01334,-0.0137989,26.4978,32,-0.00387682,10,-0.000365639,-1.57679,0.370655,0.159178,164.372,-0.0137989,
2,1,0,1,1,62273.1,-0.000774629,-0.00120811,28.4598,32,-0.00344486,10,-3.43827e-05,-1.54577, , , ,-0.00120811,
2,1,0,0,1,62273.1,-0.000125413,-0.000592546,28.5685,32,-0.00342206,10,-1.69281e-05,-1.54411, , , ,-0.000592546,