File: Figure_codes/Fig_3-5/rawdata_trumpetplot_data/after 10th/20221101_1-115_003_TrumpetPlot_ParaChange_from10_every3_11_CV_C01_34.csv
mode,ox/red,error,control changes,counter inc.,time/s,control/V,Ewe/V,<I>/mA,cycle number,(Q-Qo)/C,I Range,P/W,log(|I|),Tafel slope mV/dec,alpha_eff,dI/d(E-IR),E-IR/V,
2,1,0,1,0,68179,2.44065e-05,-0.00042076,9.46843,35,0.0000000E+000,10,-3.98394e-06,-2.02372, , , ,-0.00042076,
2,1,0,1,0,68179,0.0101427,0.0097952,12.5755,35,0.000284718,10,0.000123179,-1.90048,0.141013,0.418403,204.571,0.0097952,
2,1,0,1,0,68179,0.0205441,0.0201999,14.3494,35,0.000636277,10,0.000289857,-1.84316,0.228246,0.258494,144.528,0.0201999,
2,1,0,1,0,68179,0.0309482,0.0306301,15.6834,35,0.0010275,10,0.000480383,-1.80456,0.316512,0.186407,113.952,0.0306301,
2,1,0,1,0,68179.1,0.0413439,0.0410146,16.7772,35,0.00144997,10,0.00068811,-1.77528,0.391956,0.150527,98.5617,0.0410146,
2,1,0,1,0,68179.1,0.0517425,0.0513865,17.7689,35,0.00189944,10,0.000913081,-1.75034,0.433866,0.135987,94.3392,0.0513865,
2,1,0,1,0,68179.1,0.0621438,0.0617869,18.7306,35,0.00237404,10,0.00115731,-1.72745,0.475542,0.124069,90.6278,0.0617869,
2,1,0,1,0,68179.1,0.0725479,0.0721683,19.6715,35,0.00287325,10,0.00141966,-1.70616,0.494102,0.119408,91.6773,0.0721683,
2,1,0,1,0,68179.2,0.0829437,0.0825762,20.6246,35,0.00339724,10,0.0017031,-1.68561,0.507672,0.116217,93.5738,0.0825762,
2,1,0,1,0,68179.2,0.0933422,0.0930074,21.6197,35,0.00394646,10,0.00201079,-1.66515,0.528285,0.111682,94.1621,0.0930074,
2,1,0,1,0,68179.2,0.103749,0.103361,22.5666,35,0.00452095,10,0.00233251,-1.64653,0.586031,0.100677,88.6382,0.103361,
2,1,0,1,0,68179.2,0.114148,0.113819,23.5699,35,0.00512041,10,0.0026827,-1.62764,0.528045,0.111733,102.787,0.113819,
2,1,0,1,0,68179.3,0.124543,0.124252,24.6772,35,0.00574751,10,0.00306619,-1.6077,0.511377,0.115375,111.098,0.124252,
2,1,0,1,0,68179.3,0.134942,0.134579,25.8957,35,0.00640493,10,0.003485,-1.58677,0.491537,0.120032,121.351,0.134579,
2,1,0,1,0,68179.3,0.145349,0.145009,27.1698,35,0.007095,10,0.00393986,-1.56591,0.536078,0.110059,116.653,0.1450087,
2,1,0,1,0,68179.3,0.155747,0.155416,28.3242,35,0.00781672,10,0.00440201,-1.54784,0.632558,0.0932721,103.017,0.155416,
2,1,0,1,0,68179.4,0.166143,0.165824,29.2245,35,0.00856566,10,0.00484613,-1.53425,1.02651,0.0574764,65.4963,0.165824,
2,1,0,1,0,68179.4,0.176542,0.176205,29.599,35,0.00933194,10,0.00521548,-1.52872,20.5838,0.00286633,3.30806,0.176205,
2,1,0,1,0,68179.4,0.186949,0.186569,29.2475,35,0.0100986,10,0.00545668,-1.53391,-0.939722,-0.0627845,-71.5738,0.1865692,
2,1,0,1,0,68179.4,0.197347,0.197023,28.127,35,0.0108459,10,0.00554165,-1.55088,-0.460083,-0.128238,-140.556,0.197023,
2,1,0,1,0,68179.5,0.207743,0.207462,26.41,35,0.0115556,10,0.00547909,-1.57823,-0.328361,-0.17968,-185.038,0.207462,
2,1,0,1,0,68179.5,0.218141,0.217846,24.4089,35,0.0122163,10,0.00531738,-1.61245,-0.292506,-0.201705,-192.226,0.217846,
2,1,0,1,0,68179.5,0.228548,0.228242,22.4855,35,0.0128254,10,0.00513214,-1.6481,-0.293343,-0.20113,-176.448,0.228242,
2,1,0,1,0,68179.6,0.238947,0.238632,20.778,35,0.0133868,10,0.00495829,-1.6824,-0.320068,-0.184336,-149.469,0.238632,
2,1,0,1,0,68179.6,0.249343,0.249004,19.352,35,0.0139078,10,0.00481873,-1.71327,-0.360667,-0.163586,-123.686,0.249004,
2,1,0,1,0,68179.6,0.259741,0.259425,18.2038,35,0.0143954,10,0.00472253,-1.73984,-0.42383,-0.139207,-98.9353,0.259425,
2,1,0,1,0,68179.6,0.270148,0.269815,17.2644,35,0.014856,10,0.0046582,-1.76285,-0.477099,-0.123664,-83.3336,0.269815,
2,1,0,1,0,68179.7,0.280547,0.280207,16.4744,35,0.0152943,10,0.00461626,-1.78319,-0.543136,-0.108628,-69.9139,0.280207,
2,1,0,1,0,68179.7,0.290942,0.290634,15.8308,35,0.0157141,10,0.00460098,-1.8005,-0.653934,-0.0902232,-55.7647,0.290634,
2,1,0,0,0,68179.7,0.300012,0.299842,15.3466,35,0.0160678,10,0.00460157,-1.81399,0.0022279,26.4823,14258.9,0.299842,
2,1,0,1,0,68179.7,0.290704,0.2904,6.57813,35,0.0163038,10,0.00191029,-2.1819,0.0246948,2.38916,611.452,0.2904,
2,1,0,1,0,68179.8,0.280305,0.280027,1.69316,35,0.0164055,10,0.000474129,-2.7713,0.0091975,6.41479,367.988,0.280027,
2,0,0,1,0,68179.8,0.269909,0.269581,-1.42955,35,0.0164061,10,-0.000385379,-2.8448,-0.0112485,-5.24512,247.4,0.269581,
2,0,0,1,0,68179.8,0.2595,0.259184,-3.5857,35,0.0163392,10,-0.000929354,-2.44543,-0.0466335,-1.26518,174.493,0.2591837,
2,0,0,1,0,68179.8,0.249104,0.248852,-5.18309,35,0.016224,10,-0.00128982,-2.28541,-0.0898182,-0.656882,132.113,0.248852,
2,0,0,1,0,68179.9,0.238706,0.238365,-6.41137,35,0.0160726,10,-0.00152825,-2.19305,-0.13974,-0.422214,105.261,0.238365,
2,0,0,1,0,68179.9,0.22831,0.227987,-7.38344,35,0.0158926,10,-0.00168333,-2.13174,-0.199215,-0.296163,85.3785,0.227987,
2,0,0,1,0,68179.9,0.2179,0.217569,-8.21933,35,0.0156893,10,-0.00178827,-2.08516,-0.259334,-0.227506,72.8536,0.217569,
2,0,0,1,0,68179.9,0.207504,0.207218,-8.92822,35,0.0154663,10,-0.00185009,-2.04923,-0.325228,-0.181411,63.1823,0.2072185,
2,0,0,1,0,68180,0.197106,0.196762,-9.55977,35,0.0152257,10,-0.001881,-2.01955,-0.377883,-0.156133,58.2823,0.196762,
2,0,0,1,0,68180,0.18671,0.186396,-10.1488,35,0.0149692,10,-0.0018917,-1.99359,-0.421127,-0.1401,55.5152,0.186396,
2,0,0,1,0,68180,0.1763,0.176003,-10.7407,35,0.0146976,10,-0.00189041,-1.96897,-0.428311,-0.13775,57.7094,0.176003,
2,0,0,1,0,68180,0.165905,0.165601,-11.3518,35,0.0144106,10,-0.00187986,-1.94494,-0.433956,-0.135958,60.1787,0.165601,
2,0,0,1,0,68180.1,0.155506,0.155175,-12.0321,35,0.0141069,10,-0.00186708,-1.91966,-0.363283,-0.162408,76.3666,0.155175,
2,0,0,1,0,68180.1,0.145105,0.144791,-12.93,35,0.0137829,10,-0.00187215,-1.8884,-0.294628,-0.200253,101.201,0.144791,
2,0,0,1,0,68180.1,0.134701,0.134386,-14.2283,35,0.0134309,10,-0.00191207,-1.84685,-0.215833,-0.273359,151.898,0.134386,
2,0,0,1,0,68180.1,0.124305,0.124013,-16.0811,35,0.0130379,10,-0.00199426,-1.79368,-0.182958,-0.322478,202.692,0.124013,
2,0,0,1,0,68180.2,0.113906,0.113597,-18.3741,35,0.0125902,10,-0.00208725,-1.73579,-0.183677,-0.321217,230.345,0.113597,
2,0,0,1,0,68180.2,0.103505,0.103233,-20.7386,35,0.0120817,10,-0.0021409,-1.68322,-0.213612,-0.276202,223.152,0.103233,
2,0,0,1,0,68180.2,0.0931009,0.0928399,-22.917,35,0.0115134,10,-0.00212761,-1.63984,-0.270001,-0.218518,195.239,0.0928399,
2,0,0,1,0,68180.2,0.0827051,0.0824542,-24.7232,35,0.0108928,10,-0.00203854,-1.60689,-0.374587,-0.157507,151.903,0.0824542,
2,0,0,1,0,68180.3,0.0723065,0.0720114,-26.0973,35,0.0102309,10,-0.0018793,-1.5834,-0.550595,-0.107157,109.033,0.0720114,
2,0,0,1,0,68180.3,0.0618997,0.0616109,-26.9965,35,0.00953963,10,-0.00166328,-1.56869,-1.00592,-0.058653,61.727,0.0616109,
2,0,0,1,0,68180.3,0.0515011,0.0511203,-27.4629,35,0.00883102,10,-0.00140391,-1.56125,-1.97317,-0.0299012,32.033,0.0511203,
2,0,0,1,0,68180.4,0.0411053,0.0407962,-27.6524,35,0.00811397,10,-0.00112811,-1.55827,-8.217,-0.00718023,7.74904,0.0407962,
2,0,0,1,0,68180.4,0.0307068,0.0303862,-27.6485,35,0.00739457,10,-0.000840134,-1.55833,8.57458,0.0068808,-7.42446,0.03038617,
2,0,0,1,0,68180.4,0.0202999,0.0199857,-27.5092,35,0.00667727,10,-0.00054979,-1.56052,2.828,0.0208628,-22.3849,0.0199857,
2,0,0,1,0,68180.4,0.00990136,0.00959478,-27.1925,35,0.00596588,10,-0.000260906,-1.56555,1.73024,0.0340993,-36.1861,0.00959478,
2,0,0,1,0,68180.5,-0.000494411,-0.000906427,-26.7576,35,0.0052643,10,2.42538e-05,-1.57255,1.22268,0.0482546,-50.327,-0.000906427,
2,0,0,1,0,68180.5,-0.010893,-0.011239,-26.1287,35,0.00457669,10,0.000293661,-1.58288,0.943379,0.0625411,-63.7582,-0.011239,
2,0,0,1,0,68180.5,-0.0212998,-0.0216756,-25.4492,35,0.00390622,10,0.000551625,-1.59433,0.925566,0.0637448,-63.3339,-0.0216756,
2,0,0,1,0,68180.5,-0.0316984,-0.0320442,-24.8334,35,0.00325281,10,0.000795767,-1.60496,1.07704,0.0547797,-53.0844,-0.0320442,
2,0,0,1,0,68180.6,-0.0420942,-0.0424892,-24.3416,35,0.00261396,10,0.00103425,-1.61365,1.36052,0.0433657,-41.2061,-0.0424892,
2,0,0,1,0,68180.6,-0.0524927,-0.0528293,-24.0021,35,0.00198578,10,0.00126802,-1.61975,2.47287,0.0238589,-22.3701,-0.0528293,
2,0,0,1,0,68180.6,-0.0628996,-0.063252,-23.8579,35,0.00136395,10,0.00150906,-1.62237,9.0559,0.00651509,-6.06509,-0.063252,
2,0,0,1,0,68180.6,-0.0732981,-0.0736344,-23.8404,35,0.000744229,10,0.00175548,-1.62269,-8.14895,-0.00724019,6.73785,-0.0736344,
2,0,0,1,0,68180.7,-0.0836939,-0.0840922,-23.961,35,0.000122962,10,0.00201493,-1.6205,-3.19831,-0.0184473,17.2624,-0.08409217,
2,0,0,1,0,68180.7,-0.0940925,-0.094446,-24.2174,35,-0.000503274,10,0.00228723,-1.61587,-1.73838,-0.0339396,32.0889,-0.094446,
2,0,0,1,1,68180.7,-0.0978574,-0.0982825,-20.5,35,-0.000987594,10,0.00201479,-1.68825,-0.0321936,-1.83266,1453.46,-0.0982825,
2,0,0,1,1,68180.7,-0.0874588,-0.0878789,-10.7057,35,-0.00137898,10,0.000940807,-1.97038,-0.0341368,-1.72834,719.624,-0.08787889,
2,0,0,1,1,68180.8,-0.077052,-0.0774561,-4.409,35,-0.0015704,10,0.000341504,-2.35566,-0.0189013,-3.12148,519.32,-0.0774561,
2,1,0,1,1,68180.8,-0.0666562,-0.0670822,0.341447,35,-0.00162028,10,-2.2905e-05,-3.46668,0.0324457,1.81842,402.813,-0.0670822,
2,1,0,1,1,68180.8,-0.0562576,-0.0567061,4.06916,35,-0.00156084,10,-0.000230746,-2.3905,0.0282903,2.08552,322.049,-0.0567061,
2,1,0,1,1,68180.8,-0.0458563,-0.0462855,7.10883,35,-0.00141387,10,-0.000329035,-2.1482,0.0618829,0.953414,262.273,-0.0462855,
2,1,0,1,1,68180.9,-0.0354522,-0.0358214,9.57963,35,-0.00119574,10,-0.000343156,-2.01865,0.102965,0.57301,212.933,-0.0358214,
2,1,0,1,1,68180.9,-0.0250564,-0.0254347,11.5488,35,-0.000919949,10,-0.000293741,-1.93746,0.156592,0.376775,169.529,-0.0254347,
2,1,0,1,1,68180.9,-0.0146579,-0.0150501,13.1351,35,-0.00059794,10,-0.000197685,-1.88157,0.216945,0.271958,139.365,-0.0150501,
2,1,0,1,1,68180.9,-0.00425653,-0.00462421,14.4211,35,-0.00023885,10,-6.66864e-05,-1.841,0.305012,0.193435,108.724,-0.00462421,
2,1,0,0,1,68181,-7.54729e-05,-0.000535284,14.8429,35,-8.50679e-05,10,-7.94517e-06,-1.82848, , , ,-0.000535284,