File: Figure_codes/Fig_3-5/rawdata_trumpetplot_data/after 10th/20221101_1-115_003_TrumpetPlot_ParaChange_from10_every3_06_CV_C01_14.csv
mode,ox/red,error,control changes,counter inc.,time/s,control/V,Ewe/V,<I>/mA,cycle number,(Q-Qo)/C,I Range,P/W,log(|I|),Tafel slope mV/dec,alpha_eff,dI/d(E-IR),E-IR/V,
2,0,0,0,0,28731.8,2.44065e-05,-0.000268062,-1.42679,15,0.0000000E+000,10,3.82468e-07,-2.84564, , , ,-0.000268062,
2,1,0,1,0,28732,0.00729063,0.00694541,1.09877,15,6.95733e-05,10,7.63138e-06,-2.95909,0.0252059,2.34072,95.5806,0.00694541,
2,1,0,1,0,28732.2,0.014778,0.0144602,1.49747,15,0.000321961,10,2.16536e-05,-2.82464,0.0947642,0.622598,36.3705,0.0144602,
2,1,0,1,0,28732.4,0.0222743,0.0219663,1.72301,15,0.00062758,10,3.7848e-05,-2.76371,0.146906,0.401617,26.8816,0.0219663,
2,1,0,1,0,28732.6,0.0297626,0.0294269,1.90637,15,0.000969793,10,5.60986e-05,-2.71979,0.189433,0.311455,23.1199,0.0294269,
2,1,0,1,0,28732.8,0.0372544,0.0369196,2.08376,15,0.00134628,10,7.69315e-05,-2.68115,0.207497,0.284341,23.1276,0.0369196,
2,1,0,1,0,28733,0.0447472,0.044408,2.26185,15,0.00175625,10,0.000100444,-2.64554,0.217594,0.271147,23.9031,0.044408,
2,1,0,1,0,28733.1,0.0522345,0.0518991,2.43022,15,0.00219843,10,0.000126127,-2.61435,0.240316,0.24551,23.2976,0.0518991,
2,1,0,1,0,28733.3,0.0597309,0.0593762,2.58913,15,0.00267196,10,0.000153733,-2.58685,0.271812,0.217062,21.9148,0.0593762,
2,1,0,1,0,28733.5,0.0672182,0.0669189,2.73884,15,0.00317309,10,0.00018328,-2.56243,0.302764,0.194871,20.7592,0.0669189,
2,1,0,1,0,28733.7,0.0747074,0.0743966,2.85865,15,0.00369987,10,0.000212674,-2.54384,0.469442,0.125681,14.0251,0.0743966,
2,1,0,1,0,28733.9,0.0822019,0.0819052,2.96389,15,0.00424876,10,0.000242758,-2.52814,0.530703,0.111173,12.8622,0.0819052,
2,1,0,1,0,28734.1,0.0896911,0.0893476,3.06446,15,0.00481611,10,0.000273802,-2.51365,0.438867,0.134437,16.1179,0.0893476,
2,1,0,1,0,28734.3,0.097182,0.0968479,3.21334,15,0.00540665,10,0.000311206,-2.49304,0.294452,0.200372,25.2167,0.0968479,
2,1,0,1,0,28734.5,0.104675,0.104357,3.45262,15,0.00603219,10,0.000360303,-2.46185,0.213571,0.276255,37.1285,0.1043565,
2,1,0,1,0,28734.6,0.112162,0.111825,3.73086,15,0.00670667,10,0.000417204,-2.42819,0.233562,0.25261,36.7549,0.111825,
2,1,0,1,0,28734.8,0.119655,0.119343,3.98699,15,0.00743331,10,0.000475818,-2.39935,0.356455,0.165519,25.7221,0.119343,
2,1,0,1,0,28735,0.127146,0.126823,4.14332,15,0.00819877,10,0.000525467,-2.38265,0.583541,0.101107,16.3534,0.126823,
2,1,0,1,0,28735.2,0.134635,0.134289,4.25727,15,0.00898928,10,0.000571705,-2.37087,0.996955,0.0591802,9.83916,0.134289,
2,1,0,1,0,28735.4,0.14213,0.141855,4.26649,15,0.00979437,10,0.000605224,-2.36993,-0.624153,-0.0945281,-15.6875,0.141855,
2,1,0,1,0,28735.6,0.149619,0.149286,3.92381,15,0.0105709,10,0.000585768,-2.40629,-0.119305,-0.494531,-75.4493,0.149286,
2,1,0,1,0,28735.8,0.157106,0.156783,3.24158,15,0.0112468,10,0.000508225,-2.48924,-0.0789493,-0.747315,-94.6383,0.156783,
2,1,0,1,0,28736,0.164602,0.164308,2.64913,15,0.0117976,10,0.000435273,-2.5769,-0.0959797,-0.614713,-63.6063,0.164308,
2,1,0,1,0,28736.1,0.172091,0.171788,2.28696,15,0.0122591,10,0.000392873,-2.64074,-0.145362,-0.405883,-36.2934,0.171788,
2,1,0,1,0,28736.3,0.179582,0.17925,2.08051,15,0.0126693,10,0.000372932,-2.68183,-0.239256,-0.246598,-20.1034,0.17925,
2,1,0,1,0,28736.5,0.187074,0.186766,1.9648,15,0.0130502,10,0.000366957,-2.70668,-0.397325,-0.148493,-11.3742,0.186766,
2,1,0,1,0,28736.7,0.194563,0.194218,1.89174,15,0.0134134,10,0.000367408,-2.72314,-0.563969,-0.104616,-7.73978,0.194218,
2,1,0,1,0,28736.9,0.202059,0.201779,1.84361,15,0.0137659,10,0.000372,-2.73433,-0.662287,-0.0890852,-6.40219,0.201779,
2,1,0,1,0,28737.1,0.209546,0.20922,1.81103,15,0.0141104,10,0.000378904,-2.74207,-0.786482,-0.0750176,-5.29419,0.20922,
2,1,0,1,0,28737.3,0.217035,0.216733,1.77764,15,0.0144489,10,0.000385273,-2.75016,-1.30781,-0.0451135,-3.14467,0.216733,
2,1,0,1,0,28737.5,0.22453,0.224236,1.75905,15,0.0147834,10,0.000394443,-2.75472,-1.84754,-0.0319344,-2.19289,0.224236,
2,1,0,1,0,28737.6,0.232019,0.231726,1.74117,15,0.0151139,10,0.000403473,-2.75916,-2.5333,-0.0232897,-1.5815,0.231726,
2,1,0,1,0,28737.8,0.23951,0.239204,1.72266,15,0.0154414,10,0.000412068,-2.7638,-2.46041,-0.0239797,-1.61534,0.239204,
2,1,0,1,0,28738,0.247003,0.246688,1.7111,15,0.0157659,10,0.000422107,-2.76673,-1.93968,-0.0304174,-2.02558,0.246688,
2,1,0,1,0,28738.2,0.25449,0.254221,1.69557,15,0.0160876,10,0.00043105,-2.77068,-1.60452,-0.0367711,-2.43645,0.254221,
2,1,0,1,0,28738.4,0.261983,0.261696,1.68038,15,0.0164068,10,0.000439749,-2.77459,-2.56257,-0.0230237,-1.51365,0.261696,
2,1,0,1,0,28738.6,0.269474,0.269148,1.66983,15,0.0167234,10,0.000449432,-2.77733,-3.52522,-0.0167365,-1.08939,0.269148,
2,1,0,1,0,28738.8,0.276963,0.27665,1.65482,15,0.0170374,10,0.000457805,-2.78125,-3.23262,-0.0182514,-1.17845,0.27665,
2,1,0,1,0,28739,0.284458,0.284177,1.64244,15,0.0173489,10,0.000466743,-2.78451,-3.44117,-0.0171454,-1.09809,0.284177,
2,1,0,1,0,28739.1,0.291947,0.291634,1.62762,15,0.0176572,10,0.000474669,-2.78845,-0.997455,-0.0591505,-3.74329,0.291634,
2,1,0,1,0,28739.3,0.299434,0.299115,1.6059,15,0.0179626,10,0.000480348,-2.79428,-0.0161088,-3.6626,-197.499,0.2991153,
2,0,0,1,0,28739.5,0.294196,0.29389,-0.288787,15,0.0180087,10,-8.48715e-05,-3.53942,-0.00783364,-7.53162,66.4017,0.29389,
2,0,0,1,0,28739.7,0.286701,0.286402,-0.54323,15,0.0179235,10,-0.000155582,-3.26502,-0.0563028,-1.04791,22.1513,0.286402,
2,0,0,1,0,28739.9,0.279212,0.278915,-0.6802,15,0.0178048,10,-0.000189718,-3.16736,-0.110391,-0.534462,14.1528,0.278915,
2,0,0,1,0,28740,0.271725,0.271448,-0.776891,15,0.0176652,10,-0.000210886,-3.10964,-0.134492,-0.438687,13.209,0.271448,
2,0,0,1,0,28740.2,0.264228,0.263926,-0.849707,15,0.0175092,10,-0.00022426,-3.07073,-0.190463,-0.309771,10.315,0.263926,
2,0,0,1,0,28740.4,0.256741,0.25641,-0.919975,15,0.0173402,10,-0.00023589,-3.03622,-0.261839,-0.225329,8.05062,0.25641,
2,0,0,1,0,28740.6,0.249248,0.248919,-0.978484,15,0.0171595,10,-0.000243563,-3.00945,-0.295844,-0.199429,7.57244,0.248919,
2,0,0,1,0,28740.8,0.241756,0.241435,-1.02412,15,0.0169684,10,-0.000247259,-2.98965,-0.362174,-0.162905,6.56002,0.241435,
2,0,0,1,0,28741,0.234268,0.233967,-1.08097,15,0.0167679,10,-0.000252911,-2.96619,-0.357605,-0.164987,6.95159,0.233967,
2,0,0,1,0,28741.2,0.226772,0.226461,-1.12659,15,0.0165579,10,-0.000255129,-2.94823,-0.352627,-0.167316,7.34793,0.2264608,
2,0,0,1,0,28741.4,0.219284,0.218995,-1.1734,15,0.0163396,10,-0.000256969,-2.93055,-0.466704,-0.126418,5.78063,0.218995,
2,0,0,1,0,28741.5,0.211796,0.211516,-1.22428,15,0.0161127,10,-0.000258954,-2.91212,-0.451257,-0.130746,6.2026,0.211516,
2,0,0,1,0,28741.7,0.204301,0.203974,-1.26531,15,0.0158766,10,-0.00025809,-2.8978,-0.818052,-0.0721225,3.57152,0.203974,
2,0,0,1,0,28741.9,0.196812,0.196495,-1.30933,15,0.0156323,10,-0.000257278,-2.88295,-0.465838,-0.126653,6.48851,0.196495,
2,0,0,1,0,28742.1,0.189321,0.189005,-1.36436,15,0.0153784,10,-0.000257871,-2.86507,-0.409673,-0.144017,7.65692,0.189005,
2,0,0,1,0,28742.3,0.181828,0.181521,-1.41899,15,0.0151144,10,-0.000257576,-2.84802,-0.359333,-0.164193,9.13548,0.181521,
2,0,0,1,0,28742.5,0.174341,0.173981,-1.49397,15,0.0148384,10,-0.000259923,-2.82566,-0.345893,-0.170573,9.95061,0.173981,
2,0,0,1,0,28742.7,0.166848,0.166523,-1.586,15,0.0145474,10,-0.000264106,-2.7997,-0.28825,-0.204683,12.6412,0.166523,
2,0,0,1,0,28742.9,0.159357,0.159018,-1.70587,15,0.0142366,10,-0.000271263,-2.76805,-0.203341,-0.290153,19.3914,0.159018,
2,0,0,1,0,28743,0.151868,0.15154,-1.89908,15,0.0138968,10,-0.000287786,-2.72146,-0.134963,-0.437158,32.5109,0.15154,
2,0,0,1,0,28743.2,0.144373,0.144058,-2.21958,15,0.01351,10,-0.000319749,-2.65373,-0.0948775,-0.621855,54.0108,0.144058,
2,0,0,1,0,28743.4,0.136884,0.13653,-2.70795,15,0.0130477,10,-0.000369718,-2.56736,-0.083113,-0.709877,75.1073,0.1365304,
2,0,0,1,0,28743.6,0.129393,0.129049,-3.28613,15,0.0124832,10,-0.000424071,-2.48331,-0.101787,-0.579642,74.0836,0.129049,
2,0,0,1,0,28743.8,0.1219,0.121601,-3.78453,15,0.0118159,10,-0.000460204,-2.42199,-0.155932,-0.378371,55.8383,0.121601,
2,0,0,1,0,28744,0.114413,0.114094,-4.13581,15,0.0110683,10,-0.000471871,-2.38344,-0.282307,-0.208993,33.6956,0.114094,
2,0,0,1,0,28744.2,0.10692,0.106599,-4.30418,15,0.0102722,10,-0.000458823,-2.36611,-1.00298,-0.0588246,9.85868,0.106599,
2,0,0,1,0,28744.4,0.0994284,0.0991179,-4.2841,15,0.00946216,10,-0.000424631,-2.36814,0.834011,0.0707424,-11.8284,0.0991179,
2,0,0,1,0,28744.5,0.0919401,0.0915885,-4.14542,15,0.00866878,10,-0.000379672,-2.38243,0.442961,0.133194,-21.5306,0.09158846,
2,0,0,1,0,28744.7,0.0844447,0.0841231,-3.97328,15,0.0079052,10,-0.000334245,-2.40085,0.485242,0.121589,-18.8637,0.0841231,
2,0,0,1,0,28744.9,0.0769565,0.0766187,-3.84372,15,0.00717077,10,-0.000294501,-2.41525,0.572797,0.103003,-15.4672,0.0766187,
2,0,0,1,0,28745.1,0.0694682,0.0691469,-3.74611,15,0.00645701,10,-0.000259032,-2.42642,0.668948,0.0881982,-12.8907,0.0691469,
2,0,0,1,0,28745.3,0.0619728,0.0616647,-3.65479,15,0.00576011,10,-0.000225371,-2.43714,0.602628,0.0979045,-13.9632,0.06166466,
2,0,0,1,0,28745.5,0.0544836,0.0541662,-3.55419,15,0.00508179,10,-0.000192517,-2.44926,0.782153,0.0754328,-10.4789,0.0541662,
2,0,0,1,0,28745.7,0.0469927,0.0466673,-3.4616,15,0.00442171,10,-0.000161543,-2.46072,0.563038,0.104789,-14.1081,0.0466673,
2,0,0,1,0,28745.9,0.0394999,0.039166,-3.34375,15,0.00378214,10,-0.000130961,-2.47577,0.501064,0.117749,-15.349,0.039166,
2,0,0,1,0,28746,0.0320125,0.0317231,-3.21655,15,0.00316501,10,-0.000102039,-2.49261,0.433636,0.136059,-17.0823,0.0317231,
2,0,0,1,0,28746.2,0.0245198,0.0242136,-3.08357,15,0.00257192,10,-7.46643e-05,-2.51095,0.387857,0.152118,-18.3091,0.0242136,
2,0,0,1,0,28746.4,0.0170289,0.0166764,-2.95671,15,0.00200266,10,-4.93072e-05,-2.52919,0.43691,0.135039,-15.6662,0.0166764,
2,0,0,1,0,28746.6,0.0095397,0.00921271,-2.86887,15,0.00145359,10,-2.64301e-05,-2.54229,0.693803,0.0850386,-9.52659,0.00921271,
2,0,0,1,0,28746.8,0.00204518,0.00163948,-2.8454,15,0.000918514,10,-4.66497e-06,-2.54586,2.28377,0.0258345,-2.83873,0.00163948,
2,0,0,1,0,28746.8,0.000177222,-0.00022836,-2.80985,15,0.000785759,10,6.41658e-07,-2.55132, , , ,-0.00022836,