File: Figure_codes/Fig_3-5/rawdata_trumpetplot_data/after 10th/20221101_1-115_003_TrumpetPlot_ParaChange_from10_every3_13_CV_C01_28.csv
mode,ox/red,error,control changes,counter inc.,time/s,control/V,Ewe/V,<I>/mA,cycle number,(Q-Qo)/C,I Range,P/W,log(|I|),Tafel slope mV/dec,alpha_eff,dI/d(E-IR),E-IR/V,
2,1,0,1,0,56361.5,2.44065e-05,-0.000325324,14.6953,29,0.0000000E+000,10,-4.78074e-06,-1.83282, , , ,-0.000325324,
2,1,0,1,0,56361.5,0.0122624,0.0118715,18.5069,29,0.000255273,10,0.000219704,-1.73267,0.174538,0.338035,242.118,0.0118715,
2,1,0,1,0,56361.5,0.0250636,0.024661,21.2446,29,0.000574328,10,0.000523913,-1.67275,0.248901,0.237042,195.863,0.024661,
2,1,0,1,0,56361.6,0.0378704,0.0374877,23.5759,29,0.000933587,10,0.000883805,-1.62753,0.316989,0.186126,170.931,0.0374877,
2,1,0,1,0,56361.6,0.0506632,0.0502794,25.6593,29,0.00132797,10,0.00129013,-1.59076,0.376884,0.156547,156.596,0.0502794,
2,1,0,1,0,56361.6,0.0634672,0.0631018,27.6088,29,0.0017545,10,0.00174217,-1.55895,0.427262,0.138088,148.669,0.0631018,
2,1,0,1,0,56361.6,0.0762629,0.0758638,29.4976,29,0.00221157,10,0.0022378,-1.53021,0.463671,0.127245,146.392,0.0758638,
2,1,0,1,0,56361.6,0.0890668,0.0886852,31.3657,29,0.00269863,10,0.00278168,-1.50354,0.491393,0.120067,146.943,0.0886852,
2,1,0,1,0,56361.6,0.10186,0.101472,33.23,29,0.00321568,10,0.0033719,-1.47847,0.521754,0.11308,146.679,0.101472,
2,1,0,1,0,56361.7,0.114666,0.114265,35.1248,29,0.00376283,10,0.00401354,-1.45439,0.542728,0.10871,149.033,0.114265,
2,1,0,1,0,56361.7,0.127462,0.127049,37.0516,29,0.00434041,10,0.00470736,-1.43119,0.552154,0.106854,154.586,0.127049,
2,1,0,1,0,56361.7,0.140263,0.139876,39.1269,29,0.00494991,10,0.00547293,-1.40752,0.54319,0.108618,165.827,0.139876,
2,1,0,1,0,56361.7,0.153064,0.152587,41.2134,29,0.00559307,10,0.00628865,-1.38496,0.561881,0.105005,169.094,0.152587,
2,1,0,1,0,56361.7,0.165866,0.165409,43.408,29,0.00627087,10,0.00718006,-1.36243,0.626456,0.0941806,159.402,0.165409,
2,1,0,1,0,56361.7,0.178667,0.17825,45.3076,29,0.00698125,10,0.00807608,-1.34383,0.774123,0.0762153,134.599,0.1782503,
2,1,0,1,0,56361.7,0.191463,0.191064,46.7978,29,0.00771902,10,0.0089414,-1.32977,1.17124,0.0503739,91.816,0.191064,
2,1,0,1,0,56361.8,0.204269,0.203878,47.6208,29,0.0084754,10,0.00970885,-1.3222,3.19703,0.0184546,34.221,0.203878,
2,1,0,1,0,56361.8,0.217062,0.216672,47.6471,29,0.00923861,10,0.0103238,-1.32196,-3.86334,-0.0152718,-28.3407,0.216672,
2,1,0,1,0,56361.8,0.229866,0.229502,46.8941,29,0.00999597,10,0.0107623,-1.32888,-1.22728,-0.048074,-87.8138,0.229502,
2,1,0,1,0,56361.8,0.242662,0.242263,45.4158,29,0.0107353,10,0.0110026,-1.34279,-0.740905,-0.0796323,-140.913,0.2422628,
2,1,0,1,0,56361.8,0.255466,0.255099,43.3745,29,0.0114461,10,0.0110648,-1.36277,-0.572599,-0.103039,-174.211,0.255099,
2,1,0,1,0,56361.8,0.268259,0.267908,41.0155,29,0.0121212,10,0.0109884,-1.38705,-0.500292,-0.117931,-188.669,0.267908,
2,1,0,1,0,56361.9,0.281065,0.280696,38.601,29,0.0127578,10,0.0108352,-1.4134,-0.484345,-0.121814,-183.544,0.280696,
2,1,0,1,0,56361.9,0.293861,0.293518,36.3175,29,0.0133568,10,0.0106598,-1.43988,-0.491638,-0.120007,-170.496,0.293518,
2,1,0,1,0,56361.9,0.298983,0.298778,33.3939,29,0.0136764,10,0.00997736,-1.47633,0.0486867,1.21183,1426.97,0.298778,
2,1,0,1,0,56361.9,0.286187,0.285895,19.8402,29,0.0140886,10,0.00567223,-1.70245,0.0568724,1.03741,805.986,0.285895,
2,1,0,1,0,56361.9,0.273386,0.273074,11.2706,29,0.0143328,10,0.00307771,-1.94805,0.0450662,1.30919,569.738,0.273074,
2,1,0,1,0,56361.9,0.260585,0.26029,4.94172,29,0.0144596,10,0.00128628,-2.30612,0.0244419,2.41389,431.945,0.26029,
2,1,0,1,0,56361.9,0.247783,0.247459,0.0614514,29,0.0144976,10,1.52067e-05,-4.21147,0.166947,0.353405,338.838,0.247459,
2,0,0,1,0,56362,0.234982,0.234618,-3.80704,29,0.0144661,10,-0.0008932,-2.41941,-0.0291814,-2.02184,270.355,0.234618,
2,0,0,1,0,56362,0.222187,0.221892,-6.93398,29,0.014379,10,-0.0015386,-2.15902,-0.069753,-0.845842,223.738,0.221892,
2,0,0,1,0,56362,0.20938,0.209049,-9.55931,29,0.0142461,10,-0.00199836,-2.01957,-0.116459,-0.506616,186.91,0.209049,
2,0,0,1,0,56362,0.196587,0.196241,-11.7732,29,0.0140748,10,-0.00231039,-1.9291,-0.166933,-0.353434,161.439,0.196241,
2,0,0,1,0,56362,0.183783,0.183455,-13.7122,29,0.0138704,10,-0.00251556,-1.86289,-0.218112,-0.270503,144.332,0.183455,
2,0,0,1,0,56362,0.170987,0.17068,-15.4702,29,0.0136365,10,-0.00264046,-1.8105,-0.265778,-0.22199,133.919,0.17068,
2,0,0,1,0,56362.1,0.158183,0.157841,-17.1713,29,0.013375,10,-0.00271032,-1.7652,-0.293872,-0.200768,134.596,0.157841,
2,0,0,1,0,56362.1,0.145385,0.145053,-18.99,29,0.0130858,10,-0.00275457,-1.72147,-0.287788,-0.205012,152.081,0.145053,
2,0,0,1,0,56362.1,0.132584,0.132241,-21.137,29,0.0127651,10,-0.00279519,-1.67496,-0.256321,-0.23018,190.371,0.1322414,
2,0,0,1,0,56362.1,0.119782,0.119435,-23.9119,29,0.0124054,10,-0.00285591,-1.62139,-0.228229,-0.258512,241.62,0.119435,
2,0,0,1,0,56362.1,0.106987,0.106665,-27.2728,29,0.0119962,10,-0.00290907,-1.56427,-0.225667,-0.261447,278.244,0.106665,
2,0,0,1,0,56362.1,0.0941801,0.0938504,-30.8898,29,0.0115304,10,-0.00289902,-1.51018,-0.254091,-0.232201,279.479,0.0938504,
2,0,0,1,0,56362.2,0.0813844,0.0811033,-34.3405,29,0.0110077,10,-0.00278512,-1.46419,-0.310364,-0.190099,254.151,0.0811033,
2,0,0,1,0,56362.2,0.0685832,0.0683084,-37.4079,29,0.010433,10,-0.00255527,-1.42704,-0.385373,-0.153098,222.926,0.06830842,
2,0,0,1,0,56362.2,0.0557876,0.0554966,-39.9453,29,0.00981304,10,-0.00221683,-1.39853,-0.523397,-0.112725,175.391,0.0554966,
2,0,0,1,0,56362.2,0.0429808,0.0427145,-41.9359,29,0.00915704,10,-0.00179127,-1.37741,-0.69027,-0.0854738,139.746,0.0427145,
2,0,0,1,0,56362.2,0.030188,0.0298888,-43.5191,29,0.0084725,10,-0.00130074,-1.36132,-0.954424,-0.0618174,104.855,0.0298888,
2,0,0,1,0,56362.2,0.017384,0.017007,-44.6676,29,0.00776631,10,-0.000759663,-1.35001,-1.38425,-0.0426224,74.2095,0.017007,
2,0,0,1,0,56362.3,0.00458834,0.00423655,-45.4304,29,0.00704496,10,-0.000192468,-1.34265,-2.14439,-0.0275137,48.7517,0.00423655,
2,0,0,1,0,56362.3,-0.00821564,-0.00858802,-45.8719,29,0.00631377,10,0.000393948,-1.33845,-5.82319,-0.0101319,18.1226,-0.00858802,
2,0,0,1,0,56362.3,-0.0210196,-0.0213988,-45.9388,29,0.00557884,10,0.000983034,-1.33782,13.1423,0.00448931,-8.04123,-0.0213988,
2,0,0,1,0,56362.3,-0.0338153,-0.0341947,-45.6932,29,0.00484539,10,0.00156247,-1.34015,3.8798,0.015207,-27.1055,-0.0341947,
2,0,0,1,0,56362.3,-0.0466193,-0.0469419,-45.2729,29,0.00411751,10,0.00212519,-1.34416,2.67816,0.0220301,-38.9042,-0.0469419,
2,0,0,1,0,56362.3,-0.0594121,-0.0597929,-44.7475,29,0.00339739,10,0.00267559,-1.34923,2.56165,0.0230321,-40.2172,-0.0597929,
2,0,0,1,0,56362.3,-0.0722189,-0.0726005,-44.2497,29,0.00268555,10,0.00321255,-1.35409,2.8999,0.0203455,-35.1434,-0.0726005,
2,0,0,1,0,56362.4,-0.0850146,-0.0854134,-43.8411,29,0.001981,10,0.00374462,-1.35812,3.88212,0.0151979,-26.0203,-0.0854134,
2,0,0,1,0,56362.4,-0.0978158,-0.0982242,-43.5943,29,0.00128165,10,0.00428202,-1.36057,7.91433,0.00745483,-12.6913,-0.0982242,
2,0,0,1,0,56362.4,-0.110611,-0.110989,-43.521,29,0.000584902,10,0.00483037,-1.3613,-178.207,-0.000331076,0.562627,-0.1109894,
2,0,0,1,0,56362.4,-0.123418,-0.123834,-43.6455,29,-0.000112238,10,0.0054048,-1.36006,-5.64483,-0.010452,17.81,-0.123834,
2,0,0,1,0,56362.4,-0.136214,-0.136605,-43.938,29,-0.000812711,10,0.00600214,-1.35716,-3.5114,-0.0168024,28.8263,-0.136605,
2,0,0,1,0,56362.4,-0.149015,-0.149372,-44.3785,29,-0.00151924,10,0.0066289,-1.35283,-2.59969,-0.022695,39.3214,-0.149372,
2,0,0,1,0,56362.5,-0.161816,-0.162205,-44.9092,29,-0.00223365,10,0.0072845,-1.34766,-2.44991,-0.0240825,42.2141,-0.162205,
2,0,0,1,0,56362.5,-0.174615,-0.174988,-45.447,29,-0.0029567,10,0.00795269,-1.34249,-2.65164,-0.0222504,39.4554,-0.174988,
2,0,0,1,0,56362.5,-0.187419,-0.187764,-45.9274,29,-0.00368784,10,0.00862352,-1.33793,-3.07304,-0.0191992,34.3999,-0.187764,
2,0,0,1,0,56362.5,-0.199647,-0.200007,-46.2952,29,-0.00439359,10,0.00925938,-1.33446,0.253282,0.232942,-409.56,-0.200007,
2,0,0,1,1,56362.5,-0.192535,-0.192977,-35.7126,29,-0.00480353,10,0.00689171,-1.44718,-0.0768268,-0.767961,1094.23,-0.192977,
2,0,0,1,1,56362.5,-0.179739,-0.180144,-25.2205,29,-0.00528421,10,0.00454332,-1.59825,-0.0848672,-0.695204,686.033,-0.180144,
2,0,0,1,1,56362.5,-0.166932,-0.167328,-17.535,29,-0.00562303,10,0.00293409,-1.75609,-0.0749543,-0.787146,536.979,-0.167328,
2,0,0,1,1,56362.6,-0.154139,-0.154553,-11.2737,29,-0.00585146,10,0.00174238,-1.94793,-0.0565936,-1.04252,452.773,-0.154553,
2,0,0,1,1,56362.6,-0.141335,-0.141773,-5.87704,29,-0.00598716,10,0.000833205,-2.23084,-0.0325153,-1.81453,395.141,-0.141773,
2,0,0,1,1,56362.6,-0.12854,-0.12898,-1.10485,29,-0.00604181,10,0.000142504,-2.95669,-0.0261777,-2.25383,353.393,-0.12898,
2,1,0,1,1,56362.6,-0.115736,-0.11618,3.20992,29,-0.0060239,10,-0.000372928,-2.49351,0.0189045,3.12095,323.987,-0.11618,
2,1,0,1,1,56362.6,-0.102932,-0.103413,7.17766,29,-0.00593993,10,-0.000742262,-2.14402,0.0537977,1.0967,298.511,-0.103413,
2,1,0,1,1,56362.6,-0.0901361,-0.0906264,10.8601,29,-0.00579485,10,-0.000984212,-1.96417,0.0894457,0.659618,276.105,-0.0906264,
2,1,0,1,1,56362.7,-0.0773322,-0.0777541,14.2819,29,-0.00559313,10,-0.00111048,-1.84521,0.127331,0.46336,256.302,-0.0777541,
2,1,0,1,1,56362.7,-0.0645393,-0.0649868,17.4253,29,-0.00533881,10,-0.00113242,-1.75882,0.169085,0.348938,236.301,-0.0649868,
2,1,0,1,1,56362.7,-0.0517325,-0.0521548,20.3365,29,-0.00503603,10,-0.00106065,-1.69172,0.213053,0.276927,219.176,-0.0521548,
2,1,0,1,1,56362.7,-0.0389369,-0.0393748,23.0134,29,-0.00468855,10,-0.000906147,-1.63802,0.264347,0.223192,200.098,-0.0393748,
2,1,0,1,1,56362.7,-0.0261357,-0.0265609,25.4693,29,-0.00430005,10,-0.000676486,-1.59398,0.322507,0.182942,181.506,-0.0265609,
2,1,0,1,1,56362.7,-0.01334,-0.013766,27.6739,29,-0.00387439,10,-0.000380958,-1.55793,0.389869,0.151333,163.19,-0.013766,
2,1,0,1,1,56362.8,-0.000774628,-0.00116835,29.6156,29,-0.00342418,10,-3.46013e-05,-1.52848, , , ,-0.00116835,
2,1,0,0,1,56362.8,-0.000125413,-0.000516197,29.7337,29,-0.00340046,10,-1.53484e-05,-1.52675, , , ,-0.000516197,