File: Figure_codes/Fig_3-5/rawdata_trumpetplot_data/after 10th/20221101_1-115_003_TrumpetPlot_ParaChange_from10_every3_08_CV_C01_10.csv
mode,ox/red,error,control changes,counter inc.,time/s,control/V,Ewe/V,<I>/mA,cycle number,(Q-Qo)/C,I Range,P/W,log(|I|),Tafel slope mV/dec,alpha_eff,dI/d(E-IR),E-IR/V,
2,0,0,0,0,20876.3,2.44065e-05,-0.000325324,-4.04279,11,0.0000000E+000,10,1.31522e-06,-2.39332, , , ,-0.000325324,
2,1,0,1,0,20876.4,0.0072942,0.00695922,1.14521,11,-5.75577e-05,10,7.96974e-06,-2.94112,0.00747014,7.89811,288.126,0.00695922,
2,1,0,1,0,20876.5,0.0147816,0.0144346,2.43745,11,0.000121168,10,3.51836e-05,-2.61306,0.0528684,1.11598,104.862,0.0144346,
2,1,0,1,0,20876.6,0.0222707,0.0219997,3.0271,11,0.000380072,10,6.65952e-05,-2.51897,0.105923,0.557009,65.5811,0.02199968,
2,1,0,1,0,20876.7,0.0297581,0.0294645,3.43873,11,0.000684329,10,0.00010132,-2.4636,0.161673,0.364933,48.96,0.0294645,
2,1,0,1,0,20876.8,0.0372544,0.0368953,3.81245,11,0.00102534,10,0.000140662,-2.4188,0.19884,0.296721,44.0954,0.0368953,
2,1,0,1,0,20876.9,0.0447507,0.0444389,4.15427,11,0.00139979,10,0.000184611,-2.38151,0.20262,0.291185,47.2467,0.0444389,
2,1,0,1,0,20877,0.0522381,0.0519446,4.47881,11,0.00180564,10,0.00023265,-2.34884,0.24613,0.23971,41.9785,0.0519446,
2,1,0,1,0,20877.1,0.0597273,0.0594207,4.80556,11,0.00224174,10,0.00028555,-2.31826,0.287824,0.204986,38.4068,0.0594207,
2,1,0,1,0,20877.2,0.0672147,0.0669019,5.10255,11,0.00270621,10,0.00034137,-2.29221,0.286114,0.206212,40.9769,0.0669019,
2,1,0,1,0,20877.3,0.0747038,0.0743777,5.35621,11,0.00319697,10,0.000398382,-2.27114,0.36595,0.161224,33.733,0.0743777,
2,1,0,1,0,20877.3,0.0822055,0.0818558,5.5965,11,0.00371213,10,0.000458106,-2.25208,0.484193,0.121852,26.6022,0.0818558,
2,1,0,1,0,20877.4,0.0896946,0.0893667,5.80833,11,0.00424685,10,0.000519071,-2.23595,0.459394,0.12843,29.1348,0.0893667,
2,1,0,1,0,20877.5,0.097182,0.0968813,6.06255,11,0.00480309,10,0.000587347,-2.21734,0.329513,0.179052,42.3894,0.0968813,
2,1,0,1,0,20877.6,0.104671,0.104358,6.4329,11,0.00538796,10,0.000671325,-2.19159,0.262412,0.224837,56.4545,0.104358,
2,1,0,1,0,20877.7,0.112159,0.111852,6.92318,11,0.00601319,10,0.000774372,-2.15969,0.227835,0.258959,69.9278,0.1118522,
2,1,0,1,0,20877.8,0.119655,0.119335,7.42767,11,0.0066868,10,0.000886381,-2.12915,0.270235,0.218328,63.2471,0.119335,
2,1,0,1,0,20877.9,0.127149,0.126866,7.82645,11,0.00740364,10,0.000992909,-2.10643,0.417231,0.141408,43.187,0.126866,
2,1,0,1,0,20878,0.134639,0.134293,8.13155,11,0.00815222,10,0.00109201,-2.08983,0.559342,0.105481,33.4517,0.134293,
2,1,0,1,0,20878.1,0.142126,0.141796,8.32099,11,0.00892452,10,0.00117988,-2.07983,1.17218,0.0503336,16.3354,0.141796,
2,1,0,1,0,20878.2,0.149615,0.149272,8.19243,11,0.00970307,10,0.0012229,-2.08659,-0.309552,-0.190598,-60.7216,0.149272,
2,1,0,1,0,20878.3,0.157103,0.156799,7.37232,11,0.0104382,10,0.00115597,-2.1324,-0.107472,-0.548979,-157.279,0.156799,
2,1,0,1,0,20878.4,0.164606,0.164292,6.05307,11,0.011069,10,0.000994468,-2.21802,-0.0831606,-0.70947,-167.63,0.164292,
2,1,0,1,0,20878.5,0.172095,0.17175,4.9672,11,0.011582,10,0.000853115,-2.30389,-0.100049,-0.589712,-114.586,0.17175,
2,1,0,1,0,20878.6,0.179582,0.179269,4.31462,11,0.0120147,10,0.000773477,-2.36506,-0.150467,-0.392113,-66.1984,0.179269,
2,1,0,1,0,20878.7,0.18707,0.186823,3.93132,11,0.0124001,10,0.000734461,-2.40546,-0.248292,-0.237623,-36.498,0.1868231,
2,1,0,1,0,20878.8,0.194559,0.194282,3.68991,11,0.012757,10,0.000716883,-2.43298,-0.34356,-0.171731,-24.7712,0.194282,
2,1,0,1,0,20878.8,0.202062,0.201737,3.53715,11,0.0130965,10,0.000713574,-2.45135,-0.431781,-0.136643,-18.8542,0.201737,
2,1,0,1,0,20878.9,0.20955,0.209278,3.43705,11,0.0134234,10,0.000719297,-2.46381,-0.554735,-0.106357,-14.2515,0.209278,
2,1,0,1,0,20879,0.217039,0.216762,3.34577,11,0.0137418,10,0.000725234,-2.4755,-0.85627,-0.0689035,-9.02325,0.216762,
2,1,0,1,0,20879.1,0.224526,0.224227,3.29148,11,0.0140539,10,0.000738038,-2.48261,-0.805881,-0.0732118,-9.42745,0.224227,
2,1,0,1,0,20879.2,0.232016,0.231717,3.2559,11,0.0143611,10,0.000754449,-2.48733,-3.25309,-0.0181366,-2.29838,0.2317175,
2,1,0,1,0,20879.3,0.23951,0.239201,3.20568,11,0.0146649,10,0.000766803,-2.49408,-2.6941,-0.0218997,-2.74465,0.239201,
2,1,0,1,0,20879.4,0.247006,0.246698,3.17688,11,0.0149653,10,0.00078373,-2.498,-1.13357,-0.0520482,-6.45389,0.246698,
2,1,0,1,0,20879.5,0.254494,0.25418,3.14987,11,0.0152625,10,0.000800634,-2.50171,-1.7581,-0.033559,-4.12397,0.25418,
2,1,0,1,0,20879.6,0.261983,0.261713,3.11381,11,0.0155569,10,0.000814922,-2.50671,-2.13627,-0.0276183,-3.36393,0.261713,
2,1,0,1,0,20879.7,0.26947,0.269164,3.08768,11,0.0158488,10,0.000831093,-2.51037,-1.4778,-0.0399241,-4.82158,0.269164,
2,1,0,1,0,20879.8,0.276959,0.276642,3.06558,11,0.0161382,10,0.000848069,-2.51349,-1.65195,-0.0357153,-4.27408,0.276642,
2,1,0,1,0,20879.9,0.284461,0.284129,3.03896,11,0.0164256,10,0.000863457,-2.51728,-3.28477,-0.0179617,-2.12944,0.284129,
2,1,0,1,0,20880,0.29195,0.291669,3.00364,11,0.0167096,10,0.00087607,-2.52235,-1.1696,-0.0504446,-5.91991,0.291669,
2,1,0,1,0,20880.1,0.299438,0.299182,2.98152,11,0.016991,10,0.000892017,-2.52556,-0.0269875,-2.1862,-232.125,0.299182,
2,0,0,1,0,20880.1,0.29424,0.293954,-0.45961,11,0.0170528,10,-0.000135104,-3.33761,-0.00208336,-28.3196,178.358,0.293954,
2,0,0,1,0,20880.2,0.286753,0.286447,-1.10982,11,0.0169717,10,-0.000317905,-2.95475,-0.0535407,-1.10197,47.2877,0.286447,
2,0,0,1,0,20880.3,0.279264,0.278952,-1.38409,11,0.016853,10,-0.000386095,-2.85884,-0.109174,-0.540423,29.0607,0.278952,
2,0,0,1,0,20880.4,0.271776,0.271483,-1.55703,11,0.0167139,10,-0.000422707,-2.8077,-0.151249,-0.390086,23.7635,0.271483,
2,0,0,1,0,20880.5,0.26428,0.263975,-1.70389,11,0.0165596,10,-0.000449784,-2.76856,-0.250304,-0.235713,15.696,0.263975,
2,0,0,1,0,20880.6,0.256786,0.25646,-1.83182,11,0.016393,10,-0.000469788,-2.73712,-0.277238,-0.212813,15.1663,0.25646,
2,0,0,1,0,20880.7,0.249296,0.249027,-1.93161,11,0.016216,10,-0.000481023,-2.71408,-0.312816,-0.18861,14.2239,0.249027,
2,0,0,1,0,20880.8,0.241809,0.241539,-2.01669,11,0.0160296,10,-0.00048711,-2.69536,-0.458973,-0.128548,10.1694,0.241539,
2,0,0,1,0,20880.9,0.23432,0.233978,-2.12359,11,0.0158346,10,-0.000496874,-2.67293,-0.423287,-0.139385,11.5367,0.233978,
2,0,0,1,0,20881,0.226833,0.226469,-2.19741,11,0.0156315,10,-0.000497646,-2.65809,-0.334282,-0.176498,15.1561,0.226469,
2,0,0,1,0,20881.1,0.219329,0.219025,-2.28579,11,0.0154202,10,-0.000500646,-2.64096,-0.577487,-0.102167,9.1027,0.219025,
2,0,0,1,0,20881.2,0.21184,0.211497,-2.3735,11,0.0152015,10,-0.000501988,-2.62461,-0.700912,-0.0841761,7.76099,0.211497,
2,0,0,1,0,20881.3,0.204353,0.204007,-2.4503,11,0.0149753,10,-0.00049988,-2.61078,-0.486522,-0.121269,11.5986,0.204007,
2,0,0,1,0,20881.4,0.196863,0.196487,-2.53114,11,0.0147412,10,-0.000497336,-2.59668,-0.528329,-0.111673,11.0449,0.196487,
2,0,0,1,0,20881.5,0.189376,0.189048,-2.6275,11,0.0144986,10,-0.000496723,-2.58046,-0.483292,-0.12208,12.5469,0.189048,
2,0,0,1,0,20881.5,0.18188,0.18154,-2.74057,11,0.0142465,10,-0.000497523,-2.56216,-0.330308,-0.178621,19.0786,0.18154,
2,0,0,1,0,20881.6,0.174385,0.17404,-2.8616,11,0.0139832,10,-0.000498032,-2.54339,-0.337121,-0.175011,19.5973,0.17404,
2,0,0,1,0,20881.7,0.166896,0.16654,-3.04013,11,0.0137065,10,-0.000506303,-2.51711,-0.2967,-0.198854,23.517,0.1665401,
2,0,0,1,0,20881.8,0.159409,0.159109,-3.26521,11,0.0134115,10,-0.000519526,-2.48609,-0.199124,-0.296297,37.7698,0.159109,
2,0,0,1,0,20881.9,0.151919,0.151577,-3.60306,11,0.01309,10,-0.00054614,-2.44333,-0.140383,-0.42028,59.3233,0.151577,
2,0,0,1,0,20882,0.144425,0.144079,-4.16516,11,0.0127268,10,-0.000600113,-2.38037,-0.105218,-0.560741,91.2355,0.1440791,
2,0,0,1,0,20882.1,0.136929,0.136578,-4.99592,11,0.0122989,10,-0.000682333,-2.30138,-0.0885242,-0.666485,129.983,0.136578,
2,0,0,1,0,20882.2,0.129441,0.129089,-6.00916,11,0.0117833,10,-0.000775717,-2.22119,-0.0957266,-0.616339,144.493,0.129089,
2,0,0,1,0,20882.3,0.121952,0.121596,-6.99075,11,0.0111723,10,-0.00085005,-2.15548,-0.139788,-0.422069,114.935,0.121596,
2,0,0,1,0,20882.4,0.114465,0.114121,-7.74856,11,0.0104798,10,-0.00088427,-2.11078,-0.215357,-0.273964,82.6976,0.114121,
2,0,0,1,0,20882.5,0.106976,0.106612,-8.22547,11,0.00972927,10,-0.000876931,-2.08484,-0.408281,-0.144508,46.3433,0.106612,
2,0,0,1,0,20882.6,0.0994721,0.0991387,-8.42719,11,0.00894483,10,-0.00083546,-2.07432,-5.95931,-0.00990048,3.25137,0.0991387,
2,0,0,1,0,20882.7,0.0919847,0.0916704,-8.32462,11,0.00815808,10,-0.000763122,-2.07964,0.619674,0.0952113,-30.8852,0.0916704,
2,0,0,1,0,20882.8,0.0844973,0.0841541,-7.99512,11,0.00739253,10,-0.000672823,-2.09717,0.381693,0.154574,-48.2091,0.0841541,
2,0,0,1,0,20882.9,0.0770082,0.0766555,-7.63081,11,0.00666064,10,-0.000584944,-2.11743,0.392455,0.150336,-44.8315,0.0766555,
2,0,0,1,0,20883,0.0695208,0.0691948,-7.3736,11,0.00595822,10,-0.000510215,-2.13232,0.548496,0.107567,-30.9479,0.0691948,
2,0,0,1,0,20883,0.0620245,0.0616969,-7.17225,11,0.0052762,10,-0.000442506,-2.14434,0.722319,0.0816814,-22.8758,0.0616969,
2,0,0,1,0,20883.1,0.0545282,0.0541935,-6.99649,11,0.00461124,10,-0.000379164,-2.15512,0.731264,0.0806822,-22.0519,0.0541935,
2,0,0,1,0,20883.2,0.0470408,0.0466431,-6.82252,11,0.00396338,10,-0.000318224,-2.16605,0.642221,0.0918686,-24.4577,0.0466431,
2,0,0,1,0,20883.3,0.0395517,0.0391974,-6.6292,11,0.00333299,10,-0.000259847,-2.17854,0.631206,0.0934719,-24.1684,0.0391974,
2,0,0,1,0,20883.4,0.0320643,0.0317342,-6.40033,11,0.00272182,10,-0.00020311,-2.1938,0.441103,0.133756,-33.4346,0.0317342,
2,0,0,1,0,20883.5,0.0245751,0.0242329,-6.15279,11,0.0021329,10,-0.0001491,-2.21093,0.371837,0.158672,-38.1066,0.0242329,
2,0,0,1,0,20883.6,0.0170735,0.0167783,-5.88973,11,0.0015674,10,-9.88195e-05,-2.2299,0.411846,0.143257,-32.952,0.0167783,
2,0,0,1,0,20883.7,0.00958429,0.00924151,-5.64711,11,0.00102657,10,-5.21879e-05,-2.24817,0.495099,0.119168,-26.3088,0.00924151,
2,0,0,1,0,20883.8,0.0020969,0.00172418,-5.51739,11,0.000505365,10,-9.51296e-06,-2.25827,0.810599,0.0727857,-15.5872,0.001724177,
2,0,0,1,0,20883.8,0.000199195,-0.00019553,-5.45644,11,0.000375062,10,1.0669e-06,-2.26309, , , ,-0.00019553,