File: Figure_codes/Fig_3-5/rawdata_trumpetplot_data/after 10th/20221101_1-115_003_TrumpetPlot_ParaChange_from10_every3_07_CV_C01_27.csv
mode,ox/red,error,control changes,counter inc.,time/s,control/V,Ewe/V,<I>/mA,cycle number,(Q-Qo)/C,I Range,P/W,log(|I|),Tafel slope mV/dec,alpha_eff,dI/d(E-IR),E-IR/V,
2,0,0,0,0,54358.5,2.44065e-05,-0.000382585,-2.67087,28,0.0000000E+000,10,1.02184e-06,-2.57335, , , ,-0.000382585,
2,1,0,1,0,54358.7,0.007288,0.00693062,0.950703,28,-3.19034e-05,10,6.58896e-06,-3.02196,0.00933199,6.32234,202.244,0.00693062,
2,1,0,1,0,54358.8,0.0147816,0.0144289,1.83151,28,0.000153243,10,2.64267e-05,-2.73719,0.0541605,1.08936,77.4839,0.0144289,
2,1,0,1,0,54358.9,0.0222712,0.0219473,2.25481,28,0.000412974,10,4.94869e-05,-2.64689,0.122247,0.48263,42.379,0.0219473,
2,1,0,1,0,54359,0.0297648,0.0293909,2.5398,28,0.000715067,10,7.46469e-05,-2.5952,0.174357,0.338385,33.4959,0.0293909,
2,1,0,1,0,54359.2,0.0372518,0.0369206,2.79303,28,0.00104997,10,0.00010312,-2.55392,0.1913,0.308417,33.5962,0.0369206,
2,1,0,1,0,54359.3,0.0447467,0.0444398,3.02982,28,0.0014158,10,0.000134645,-2.51858,0.229506,0.257074,30.436,0.0444398,
2,1,0,1,0,54359.4,0.052235,0.0519272,3.25506,28,0.00181048,10,0.000169026,-2.48744,0.252209,0.233933,29.7781,0.0519272,
2,1,0,1,0,54359.5,0.0597299,0.0593881,3.48924,28,0.00223381,10,0.000207219,-2.45727,0.284807,0.207158,28.1281,0.0593881,
2,1,0,1,0,54359.7,0.0672156,0.0668455,3.68901,28,0.00268305,10,0.000246594,-2.43309,0.295835,0.199435,28.6671,0.0668455,
2,1,0,1,0,54359.8,0.0747105,0.0743533,3.86375,28,0.00315685,10,0.000287282,-2.41299,0.37249,0.158394,23.9006,0.0743533,
2,1,0,1,0,54359.9,0.0821988,0.081834,4.01378,28,0.00365125,10,0.000328464,-2.39645,0.512418,0.11514,18.0698,0.081834,
2,1,0,1,0,54360,0.0896937,0.0893183,4.16307,28,0.00416429,10,0.000371838,-2.38059,0.50984,0.115723,18.7992,0.0893183,
2,1,0,1,0,54360.2,0.0971794,0.096799,4.33593,28,0.00469592,10,0.000419713,-2.36292,0.338253,0.174426,29.5153,0.096799,
2,1,0,1,0,54360.3,0.104674,0.104305,4.59447,28,0.00525463,10,0.000479228,-2.33776,0.241268,0.244541,43.9017,0.104305,
2,1,0,1,0,54360.4,0.112163,0.111812,4.94543,28,0.0058513,10,0.00055296,-2.3058,0.235032,0.251029,48.4405,0.111812,
2,1,0,1,0,54360.5,0.119657,0.119295,5.30198,28,0.00649354,10,0.000632499,-2.27556,0.312199,0.188982,39.0186,0.1192949,
2,1,0,1,0,54360.7,0.127143,0.126797,5.55446,28,0.00717379,10,0.000704291,-2.25536,0.454762,0.129738,28.1086,0.126797,
2,1,0,1,0,54360.8,0.134638,0.134313,5.70119,28,0.00787989,10,0.000765742,-2.24403,0.894072,0.0659902,14.6948,0.134313,
2,1,0,1,0,54360.9,0.142126,0.141822,5.73663,28,0.008598,10,0.000813577,-2.24134,-1.69578,-0.0347922,-7.78856,0.141822,
2,1,0,1,0,54361,0.149621,0.149258,5.49531,28,0.00930597,10,0.000820221,-2.26001,-0.1949,-0.30272,-64.6133,0.149258,
2,1,0,1,0,54361.2,0.157107,0.15677,4.82895,28,0.00995508,10,0.000757033,-2.31615,-0.105702,-0.558174,-104.915,0.15677,
2,1,0,1,0,54361.3,0.164602,0.164254,4.04778,28,0.01051,10,0.000664862,-2.39278,-0.0997822,-0.591288,-93.5758,0.164254,
2,1,0,1,0,54361.4,0.17209,0.171732,3.46872,28,0.0109786,10,0.000595691,-2.45983,-0.126169,-0.467626,-63.4744,0.171732,
2,1,0,1,0,54361.5,0.179585,0.179245,3.09377,28,0.0113884,10,0.000554542,-2.50951,-0.177373,-0.332632,-40.1966,0.179245,
2,1,0,1,0,54361.7,0.187072,0.186738,2.85835,28,0.0117604,10,0.000533763,-2.54388,-0.274786,-0.214713,-23.9039,0.186738,
2,1,0,1,0,54361.8,0.194566,0.194254,2.69948,28,0.0121086,10,0.000524384,-2.56872,-0.419329,-0.140701,-14.8554,0.194254,
2,1,0,1,0,54361.9,0.202055,0.201709,2.5963,28,0.0124408,10,0.000523698,-2.58564,-0.464845,-0.126924,-12.8746,0.201709,
2,1,0,1,0,54362,0.209549,0.209196,2.53708,28,0.0127629,10,0.000530747,-2.59567,-0.52413,-0.112567,-11.1211,0.209196,
2,1,0,1,0,54362.2,0.217036,0.216705,2.47974,28,0.0130772,10,0.000537371,-2.60559,-1.52046,-0.038804,-3.75313,0.216705,
2,1,0,1,0,54362.3,0.22453,0.224246,2.4371,28,0.0133863,10,0.000546511,-2.61313,-1.48669,-0.0396854,-3.77997,0.2242465,
2,1,0,1,0,54362.4,0.232019,0.231656,2.41059,28,0.0136909,10,0.000558427,-2.61788,-1.55027,-0.0380579,-3.58779,0.231656,
2,1,0,1,0,54362.5,0.239513,0.239179,2.39288,28,0.0139924,10,0.000572328,-2.62108,-1.4042,-0.0420167,-3.91005,0.239179,
2,1,0,1,0,54362.7,0.247001,0.246701,2.36798,28,0.014291,10,0.000584183,-2.62562,-1.9956,-0.029565,-2.7271,0.246701,
2,1,0,1,0,54362.8,0.254493,0.254196,2.34419,28,0.0145872,10,0.000595885,-2.63001,-8.046,-0.00733284,-0.672703,0.254196,
2,1,0,1,0,54362.9,0.261983,0.261631,2.32426,28,0.014881,10,0.000608097,-2.63372,-1.75161,-0.0336834,-3.06283,0.261631,
2,1,0,1,0,54363,0.269477,0.26914,2.31543,28,0.0151729,10,0.000623174,-2.63537,-3.20106,-0.0184314,-1.66292,0.26914,
2,1,0,1,0,54363.2,0.276965,0.276609,2.2987,28,0.0154627,10,0.000635842,-2.63852,-13.0836,-0.00450948,-0.404426,0.2766093,
2,1,0,1,0,54363.3,0.284457,0.284149,2.27736,28,0.0157503,10,0.00064711,-2.64257,-22.3828,-0.00263596,-0.234609,0.284149,
2,1,0,1,0,54363.4,0.291947,0.291602,2.25935,28,0.0160355,10,0.000658831,-2.64602,-1.45545,-0.0405374,-3.57576,0.291602,
2,1,0,1,0,54363.5,0.29944,0.299114,2.24645,28,0.0163187,10,0.000671944,-2.6485,-0.00852011,-6.9248,-481.728,0.299114,
2,0,0,1,0,54363.6,0.293742,0.293388,-0.327035,28,0.0163847,10,-9.59481e-05,-3.48541,-0.00219158,-26.9213,128.447,0.293388,
2,0,0,1,0,54363.8,0.286254,0.285874,-0.819324,28,0.0163052,10,-0.000234223,-3.08654,-0.0470073,-1.25512,39.7918,0.285874,
2,0,0,1,0,54363.9,0.278761,0.278396,-1.03242,28,0.0161855,10,-0.000287423,-2.98614,-0.104348,-0.565415,22.8693,0.278396,
2,0,0,1,0,54364,0.271272,0.270923,-1.18273,28,0.0160443,10,-0.00032043,-2.92711,-0.170953,-0.345123,15.878,0.2709235,
2,0,0,1,0,54364.1,0.263778,0.263427,-1.29149,28,0.0158874,10,-0.000340215,-2.88891,-0.217219,-0.271615,13.6469,0.2634275,
2,0,0,1,0,54364.3,0.25629,0.255991,-1.38253,28,0.0157182,10,-0.000353917,-2.85932,-0.260813,-0.226216,12.1868,0.255991,
2,0,0,1,0,54364.4,0.248797,0.248416,-1.45761,28,0.0155384,10,-0.000362094,-2.83636,-0.429988,-0.137213,7.82201,0.248416,
2,0,0,1,0,54364.5,0.241308,0.240943,-1.53196,28,0.0153495,10,-0.000369116,-2.81475,-0.602803,-0.0978761,5.84993,0.240943,
2,0,0,1,0,54364.6,0.233814,0.233457,-1.60479,28,0.0151519,10,-0.00037465,-2.79458,-0.420217,-0.140404,8.74972,0.233457,
2,0,0,1,0,54364.8,0.226326,0.225964,-1.65719,28,0.0149466,10,-0.000374464,-2.78063,-0.388563,-0.151841,9.84792,0.225964,
2,0,0,1,0,54364.9,0.218834,0.218474,-1.71433,28,0.0147334,10,-0.000374535,-2.76591,-0.546316,-0.107996,7.26623,0.218474,
2,0,0,1,0,54365,0.211344,0.210964,-1.77942,28,0.0145131,10,-0.000375394,-2.74972,-0.67014,-0.0880414,6.1068,0.210964,
2,0,0,1,0,54365.1,0.203856,0.203514,-1.84564,28,0.014285,10,-0.000375613,-2.73385,-0.628163,-0.0939247,6.73515,0.2035138,
2,0,0,1,0,54365.3,0.196362,0.196024,-1.8985,28,0.0140495,10,-0.000372151,-2.72159,-0.468632,-0.125898,9.31996,0.196024,
2,0,0,1,0,54365.4,0.18887,0.188476,-1.9646,28,0.013806,10,-0.000370278,-2.70673,-0.480585,-0.122767,9.41892,0.188476,
2,0,0,1,0,54365.5,0.18138,0.181063,-2.04176,28,0.0135542,10,-0.000369687,-2.68999,-0.451669,-0.130627,10.3863,0.181063,
2,0,0,1,0,54365.6,0.173892,0.173546,-2.13483,28,0.0132924,10,-0.000370491,-2.67064,-0.359866,-0.16395,13.5712,0.1735462,
2,0,0,1,0,54365.8,0.166398,0.166036,-2.22734,28,0.0130188,10,-0.000369819,-2.65221,-0.301642,-0.195596,17.0281,0.166036,
2,0,0,1,0,54365.9,0.158905,0.158536,-2.35871,28,0.0127302,10,-0.000373939,-2.62733,-0.261437,-0.225676,20.879,0.158536,
2,0,0,1,0,54366,0.151417,0.151038,-2.56967,28,0.012421,10,-0.000388119,-2.59012,-0.189866,-0.310746,31.2156,0.151038,
2,0,0,1,0,54366.1,0.143927,0.143587,-2.90085,28,0.0120793,10,-0.000416524,-2.53748,-0.11408,-0.51718,58.5486,0.1435871,
2,0,0,1,0,54366.3,0.136435,0.136085,-3.40899,28,0.011685,10,-0.000463911,-2.46737,-0.0957882,-0.615942,82.0659,0.136085,
2,0,0,1,0,54366.4,0.128941,0.128552,-4.067,28,0.0112165,10,-0.000522822,-2.39073,-0.106812,-0.552371,87.5828,0.128552,
2,0,0,1,0,54366.5,0.121453,0.121114,-4.70301,28,0.0106659,10,-0.0005696,-2.32762,-0.141857,-0.415911,76.2749,0.121114,
2,0,0,1,0,54366.6,0.113963,0.113606,-5.24225,28,0.0100417,10,-0.000595553,-2.28048,-0.196216,-0.300688,61.3431,0.113606,
2,0,0,1,0,54366.8,0.106471,0.106108,-5.60987,28,0.00936031,10,-0.000595252,-2.25105,-0.339103,-0.173988,38.0456,0.106108,
2,0,0,1,0,54366.9,0.0989825,0.0986389,-5.76448,28,0.00864565,10,-0.000568602,-2.23924,-1.97848,-0.0298209,6.70684,0.0986389,
2,0,0,1,0,54367,0.0914889,0.0911344,-5.72415,28,0.00792413,10,-0.000521667,-2.24229,0.694443,0.0849602,-18.9599,0.0911344,
2,0,0,1,0,54367.1,0.0839993,0.0836733,-5.56222,28,0.00721753,10,-0.000465409,-2.25475,0.496648,0.118796,-25.7551,0.0836733,
2,0,0,1,0,54367.3,0.076507,0.0761586,-5.39816,28,0.00653165,10,-0.000411116,-2.26775,0.79463,0.0742484,-15.635,0.0761586,
2,0,0,1,0,54367.4,0.0690187,0.0686645,-5.27055,28,0.00586388,10,-0.0003619,-2.27814,0.82648,0.0713871,-14.7115,0.0686645,
2,0,0,1,0,54367.5,0.0615251,0.0611596,-5.16912,28,0.00520913,10,-0.000316141,-2.28658,0.705077,0.0836788,-16.8929,0.06115957,
2,0,0,1,0,54367.6,0.0540355,0.0536693,-5.06057,28,0.00456859,10,-0.000271598,-2.2958,0.790217,0.0746631,-14.7237,0.0536693,
2,0,0,1,0,54367.8,0.0465432,0.0461764,-4.92705,28,0.00394257,10,-0.000227513,-2.30741,0.743987,0.0793025,-15.2499,0.0461764,
2,0,0,1,0,54367.9,0.0390549,0.0386713,-4.78306,28,0.00333391,10,-0.000184967,-2.32029,0.517809,0.113942,-21.2886,0.0386713,
2,0,0,1,0,54368,0.0315613,0.031177,-4.62777,28,0.00274377,10,-0.00014428,-2.33463,0.42957,0.137347,-24.7735,0.031177,
2,0,0,1,0,54368.1,0.0240717,0.0237082,-4.44331,28,0.0021755,10,-0.000105343,-2.35229,0.415799,0.141895,-24.6253,0.0237082,
2,0,0,1,0,54368.3,0.0165781,0.0162131,-4.2821,28,0.00162847,10,-6.9426e-05,-2.36834,0.547454,0.107772,-18.0265,0.0162131,
2,0,0,1,0,54368.4,0.00909108,0.00875597,-4.13849,28,0.00110074,10,-3.62365e-05,-2.38316,0.639538,0.0922541,-14.9327,0.00875597,
2,0,0,1,0,54368.5,0.00159616,0.00119625,-4.06926,28,0.000587208,10,-4.86783e-06,-2.39048, , , ,0.00119625,
2,0,0,1,0,54368.5,0.000199195,-0.000227978,-4.04902,28,0.000492213,10,9.23089e-07,-2.39265, , , ,-0.000227978,