File: Figure_codes/Fig_3-5/rawdata_trumpetplot_data/after 10th/20221101_1-115_003_TrumpetPlot_ParaChange_from10_every3_04_CV_C01_15.csv
mode,ox/red,error,control changes,counter inc.,time/s,control/V,Ewe/V,<I>/mA,cycle number,(Q-Qo)/C,I Range,P/W,log(|I|),Tafel slope mV/dec,alpha_eff,dI/d(E-IR),E-IR/V,
2,0,0,1,0,30612,2.44065e-05,-0.000229887,-0.388152,16,0.0000000E+000,10,8.92312e-08,-3.411, , , ,-0.000229887,
2,1,0,1,0,30612.7,0.00729063,0.00700739,0.359836,16,0.000183502,10,2.52151e-06,-3.4439,0.0614487,0.96015,13.3581,0.00700739,
2,1,0,1,0,30613.4,0.0147814,0.0144512,0.4339,16,0.000495399,10,6.27038e-06,-3.36261,0.116964,0.504429,8.55897,0.0144512,
2,1,0,1,0,30614.2,0.0222725,0.0220037,0.491644,16,0.000854248,10,1.0818e-05,-3.30835,0.16616,0.35508,6.78229,0.0220037,
2,1,0,1,0,30614.9,0.0297635,0.02944,0.544023,16,0.00125359,10,1.6016e-05,-3.26438,0.186281,0.316726,6.73545,0.02944,
2,1,0,1,0,30615.7,0.0372544,0.0369427,0.594484,16,0.00169172,10,2.19618e-05,-3.22586,0.209022,0.282267,6.56333,0.0369427,
2,1,0,1,0,30616.4,0.0447458,0.0444279,0.647664,16,0.00216911,10,2.87744e-05,-3.18865,0.242587,0.243212,6.14669,0.04442792,
2,1,0,1,0,30617.2,0.0522363,0.05187,0.693426,16,0.00268339,10,3.5968e-05,-3.159,0.244425,0.241383,6.53556,0.05187,
2,1,0,1,0,30617.9,0.0597282,0.0593859,0.737685,16,0.00323123,10,4.38081e-05,-3.13213,0.30556,0.193088,5.56024,0.0593859,
2,1,0,1,0,30618.7,0.0672182,0.0669055,0.776881,16,0.00380994,10,5.19776e-05,-3.10965,0.362497,0.16276,4.91409,0.0669055,
2,1,0,1,0,30619.4,0.0747092,0.0744036,0.807823,16,0.00441513,10,6.0105e-05,-3.09268,0.505949,0.116613,3.67973,0.0744036,
2,1,0,1,0,30620.2,0.0822001,0.0818986,0.834059,16,0.00504235,10,6.83083e-05,-3.0788,0.56316,0.104766,3.41547,0.0818986,
2,1,0,1,0,30620.9,0.0896911,0.0893522,0.871691,16,0.00569229,10,7.78875e-05,-3.05964,0.326573,0.180664,6.15108,0.0893522,
2,1,0,1,0,30621.7,0.097182,0.0968514,0.928351,16,0.00637719,10,8.99121e-05,-3.03229,0.213007,0.276986,10.045,0.0968514,
2,1,0,1,0,30622.4,0.104673,0.104358,1.01462,16,0.00711418,10,0.000105883,-2.9937,0.192293,0.306823,12.1018,0.104358,
2,1,0,1,0,30623.2,0.112164,0.111856,1.09137,16,0.00791429,10,0.000122076,-2.96203,0.312302,0.18892,8.01853,0.111856,
2,1,0,1,0,30623.9,0.119655,0.119328,1.14613,16,0.00876464,10,0.000136765,-2.94077,0.509319,0.115841,5.17615,0.119328,
2,1,0,1,0,30624.7,0.127146,0.126834,1.18065,16,0.00964941,10,0.000149747,-2.92788,0.640344,0.092138,4.26021,0.126834,
2,1,0,1,0,30625.4,0.134637,0.134302,1.19909,16,0.0105575,10,0.00016104,-2.92115,-0.939389,-0.0628068,-2.93345,0.134302,
2,1,0,1,0,30626.2,0.142127,0.141831,1.11051,16,0.0114436,10,0.000157505,-2.95448,-0.124545,-0.473725,-20.4252,0.141831,
2,1,0,1,0,30626.9,0.149619,0.149331,0.905937,16,0.0122136,10,0.000135284,-3.0429,-0.0711713,-0.828986,-29.2881,0.149331,
2,1,0,1,0,30627.7,0.157109,0.156795,0.726148,16,0.0128301,10,0.000113856,-3.13898,-0.0936409,-0.630066,-17.9117,0.156795,
2,1,0,1,0,30628.4,0.164601,0.164264,0.637207,16,0.0133476,10,0.00010467,-3.19572,-0.167027,-0.353237,-8.78523,0.164264,
2,1,0,1,0,30629.2,0.172091,0.171798,0.587929,16,0.0138165,10,0.000101005,-3.23067,-0.317491,-0.185832,-4.29495,0.171798,
2,1,0,1,0,30629.9,0.179582,0.179286,0.565727,16,0.0142597,10,0.000101427,-3.24739,-0.539863,-0.109287,-2.41932,0.179286,
2,1,0,1,0,30630.7,0.187074,0.186771,0.552508,16,0.0146885,10,0.000103192,-3.25766,-0.946238,-0.0623522,-1.33738,0.186771,
2,1,0,1,0,30631.4,0.194564,0.19423,0.541573,16,0.0151081,10,0.000105189,-3.26634,-1.03083,-0.0572353,-1.20852,0.1942296,
2,1,0,1,0,30632.2,0.202056,0.201745,0.533065,16,0.0155209,10,0.000107543,-3.27322,-0.872059,-0.067656,-1.40409,0.201745,
2,1,0,1,0,30632.9,0.209546,0.209247,0.52662,16,0.0159286,10,0.000110194,-3.2785,-0.777514,-0.0758828,-1.5624,0.209247,
2,1,0,1,0,30633.7,0.217038,0.216721,0.521112,16,0.0163317,10,0.000112936,-3.28307,-1.98277,-0.0297563,-0.606298,0.216721,
2,1,0,1,0,30634.4,0.224528,0.224203,0.517566,16,0.0167314,10,0.00011604,-3.28603,-2.07513,-0.0284319,-0.572502,0.224203,
2,1,0,1,0,30635.2,0.232019,0.231702,0.513126,16,0.0171275,10,0.000118892,-3.28978,-2.48931,-0.0237013,-0.473305,0.231702,
2,1,0,1,0,30635.9,0.23951,0.239249,0.508735,16,0.0175207,10,0.000121714,-3.29351,-1.47496,-0.0400011,-0.793813,0.239249,
2,1,0,1,0,30636.7,0.247001,0.246697,0.505687,16,0.0179106,10,0.000124752,-3.29612,-1.95449,-0.0301869,-0.593171,0.246697,
2,1,0,1,0,30637.4,0.254492,0.254156,0.500125,16,0.0182977,10,0.00012711,-3.30092,-2.52651,-0.0233524,-0.456088,0.254156,
2,1,0,1,0,30638.2,0.261983,0.261661,0.496597,16,0.018682,10,0.00012994,-3.304,-1.42899,-0.0412878,-0.802064,0.261661,
2,1,0,1,0,30638.9,0.269474,0.269175,0.491824,16,0.0190635,10,0.000132387,-3.30819,-3.39206,-0.0173936,-0.333876,0.269175,
2,1,0,1,0,30639.7,0.276965,0.276684,0.487973,16,0.0194419,10,0.000135014,-3.3116,-1.25912,-0.0468581,-0.895076,0.276684,
2,1,0,1,0,30640.4,0.284456,0.284153,0.484357,16,0.0198169,10,0.000137631,-3.31483,-4.0263,-0.0146537,-0.27673,0.284153,
2,1,0,1,0,30641.2,0.291947,0.291675,0.479486,16,0.0201884,10,0.000139854,-3.31922,-1.45436,-0.0405677,-0.760643,0.291675,
2,1,0,1,0,30641.9,0.299437,0.299114,0.473222,16,0.0205569,10,0.000141547,-3.32494,-0.00254321,-23.1991,-213.462,0.299114,
2,0,0,1,0,30642.6,0.293745,0.29345,-0.075693,16,0.0205765,10,-2.22121e-05,-4.12094,-0.0158222,-3.72894,10.4476,0.29345,
2,0,0,1,0,30643.3,0.286253,0.285926,-0.131743,16,0.0204856,10,-3.76688e-05,-3.88027,-0.0517472,-1.14016,5.84377,0.285926,
2,0,0,1,0,30644.1,0.278763,0.278461,-0.16702,16,0.0203618,10,-4.65084e-05,-3.77723,-0.0978615,-0.602893,3.93578,0.278461,
2,0,0,1,0,30644.8,0.271272,0.270936,-0.196086,16,0.0202146,10,-5.31267e-05,-3.70755,-0.122729,-0.480735,3.67361,0.270936,
2,0,0,1,0,30645.6,0.263781,0.263447,-0.218238,16,0.020048,10,-5.7494e-05,-3.66107,-0.153765,-0.383702,3.28704,0.263447,
2,0,0,1,0,30646.3,0.25629,0.25597,-0.24001,16,0.019865,10,-6.14353e-05,-3.61977,-0.250368,-0.235653,2.19822,0.25597,
2,0,0,1,0,30647.1,0.248799,0.248466,-0.256944,16,0.0196679,10,-6.3842e-05,-3.59016,-0.257052,-0.229526,2.30411,0.248466,
2,0,0,1,0,30647.8,0.241308,0.241,-0.273022,16,0.019458,10,-6.57983e-05,-3.5638,-0.314718,-0.18747,2.00503,0.241,
2,0,0,1,0,30648.6,0.233817,0.233481,-0.289035,16,0.0192363,10,-6.7484e-05,-3.53905,-0.259877,-0.227031,2.55634,0.233481,
2,0,0,1,0,30649.3,0.226326,0.226028,-0.30371,16,0.0190032,10,-6.86471e-05,-3.51754,-0.337607,-0.174759,2.07052,0.226028,
2,0,0,1,0,30650.1,0.218835,0.218551,-0.319764,16,0.0187586,10,-6.98849e-05,-3.49517,-0.298834,-0.197434,2.45584,0.218551,
2,0,0,1,0,30650.8,0.211344,0.211037,-0.334087,16,0.0185027,10,-7.05047e-05,-3.47614,-0.432516,-0.136411,1.77947,0.211037,
2,0,0,1,0,30651.6,0.203854,0.203511,-0.34984,16,0.018235,10,-7.11963e-05,-3.45613,-0.444269,-0.132802,1.81647,0.203511,
2,0,0,1,0,30652.3,0.196362,0.196023,-0.36578,16,0.0179559,10,-7.17011e-05,-3.43678,-0.407042,-0.144948,2.06338,0.196023,
2,0,0,1,0,30653.1,0.188872,0.188548,-0.383168,16,0.0176644,10,-7.22457e-05,-3.41661,-0.3062,-0.192685,2.87743,0.188548,
2,0,0,1,0,30653.8,0.18138,0.181074,-0.403462,16,0.0173589,10,-7.30565e-05,-3.3942,-0.338822,-0.174133,2.74291,0.181074,
2,0,0,1,0,30654.6,0.17389,0.173577,-0.428586,16,0.0170373,10,-7.43929e-05,-3.36796,-0.278491,-0.211856,3.52826,0.1735774,
2,0,0,1,0,30655.3,0.166398,0.166069,-0.455822,16,0.0166952,10,-7.56981e-05,-3.3412,-0.240038,-0.245795,4.40215,0.166069,
2,0,0,1,0,30656.1,0.158907,0.158585,-0.500674,16,0.0163253,10,-7.93993e-05,-3.30045,-0.158589,-0.372031,7.29868,0.158585,
2,0,0,1,0,30656.8,0.151417,0.151096,-0.571409,16,0.0159133,10,-8.63379e-05,-3.24305,-0.112736,-0.523344,11.7061,0.151096,
2,0,0,1,0,30657.6,0.143925,0.143604,-0.690831,16,0.0154324,10,-9.92059e-05,-3.16063,-0.0754683,-0.781785,21.111,0.143604,
2,0,0,1,0,30658.3,0.136435,0.136104,-0.865294,16,0.01484,10,-0.00011777,-3.06284,-0.0822335,-0.71747,24.1927,0.136104,
2,0,0,1,0,30659.1,0.128943,0.128603,-1.04527,16,0.0141112,10,-0.000134424,-2.98077,-0.11644,-0.5067,20.5767,0.128603,
2,0,0,1,0,30659.8,0.121453,0.121146,-1.17017,16,0.013265,10,-0.000141762,-2.93175,-0.247178,-0.238694,10.8785,0.121146,
2,0,0,1,0,30660.6,0.113962,0.113656,-1.21363,16,0.0123539,10,-0.000137936,-2.91591,-2.01355,-0.0293015,1.39011,0.113656,
2,0,0,1,0,30661.3,0.106471,0.106138,-1.20298,16,0.0114325,10,-0.000127682,-2.91974,0.669805,0.0880853,-4.14499,0.106138,
2,0,0,1,0,30662.1,0.0989799,0.0986848,-1.16843,16,0.0105317,10,-0.000115306,-2.9324,0.575968,0.102436,-4.66099,0.0986848,
2,0,0,1,0,30662.8,0.0914889,0.0911676,-1.13003,16,0.00965998,10,-0.000103022,-2.94691,0.526435,0.112075,-4.93301,0.0911676,
2,0,0,1,0,30663.6,0.083998,0.0837002,-1.09227,16,0.00881727,10,-9.14235e-05,-2.96167,0.421303,0.140042,-5.95156,0.0837002,
2,0,0,1,0,30664.3,0.076507,0.0761385,-1.05523,16,0.00800193,10,-8.03433e-05,-2.97665,0.505634,0.116685,-4.80373,0.0761385,
2,0,0,1,0,30665.1,0.0690161,0.0686796,-1.02115,16,0.00721294,10,-7.01321e-05,-2.99091,0.545674,0.108123,-4.31835,0.0686796,
2,0,0,1,0,30665.8,0.0615251,0.0611973,-0.988864,16,0.00644757,10,-6.05159e-05,-3.00486,0.561547,0.105067,-4.06132,0.06119734,
2,0,0,1,0,30666.6,0.0540342,0.0536939,-0.960478,16,0.00570628,10,-5.15718e-05,-3.01751,0.575863,0.102455,-3.82974,0.0536939,
2,0,0,1,0,30667.3,0.0465441,0.0462136,-0.924304,16,0.00498927,10,-4.27155e-05,-3.03419,0.505224,0.11678,-4.2115,0.0462136,
2,0,0,1,0,30668.1,0.0390523,0.038704,-0.89174,16,0.00429825,10,-3.45139e-05,-3.04976,0.355392,0.166014,-5.75634,0.038704,
2,0,0,1,0,30668.8,0.0315618,0.0312193,-0.856602,16,0.00363342,10,-2.67425e-05,-3.06722,0.433734,0.136028,-4.54503,0.0312193,
2,0,0,1,0,30669.6,0.0240704,0.0237417,-0.820472,16,0.00299396,10,-1.94794e-05,-3.08594,0.423924,0.139176,-4.47287,0.0237417,
2,0,0,1,0,30670.3,0.0165796,0.0162449,-0.79558,16,0.00237661,10,-1.29241e-05,-3.09932,0.694486,0.0849549,-2.64201,0.0162449,
2,0,0,1,0,30671.1,0.00908846,0.00875388,-0.780416,16,0.00177509,10,-6.83167e-06,-3.10767,1.67688,0.0351843,-1.07059,0.00875388,
2,0,0,1,0,30671.8,0.00159728,0.00122769,-0.785286,16,0.0011802,10,-9.64091e-07,-3.10497, , , ,0.001227694,
2,0,0,1,0,30672,0.000199195,-0.000185986,-0.778819,16,0.00106876,10,1.4485e-07,-3.10856, , , ,-0.000185986,