File: Figure_codes/Fig_3-5/rawdata_trumpetplot_data/after 10th/20221101_1-115_003_TrumpetPlot_ParaChange_from10_every3_09_CV_C01_31.csv
mode,ox/red,error,control changes,counter inc.,time/s,control/V,Ewe/V,<I>/mA,cycle number,(Q-Qo)/C,I Range,P/W,log(|I|),Tafel slope mV/dec,alpha_eff,dI/d(E-IR),E-IR/V,
2,0,0,0,0,62256.6,2.44065e-05,-0.000458935,-5.2627,32,0.0000000E+000,10,2.41524e-06,-2.27879, , , ,-0.000458935,
2,1,0,1,0,62256.7,0.00978761,0.00941008,0.410891,32,-0.00016532,10,3.86652e-06,-3.38627,0.00636485,9.26966,289.555,0.00941008,
2,1,0,1,0,62256.8,0.0197755,0.0193674,2.31638,32,-1.59427e-05,10,4.48622e-05,-2.63519,0.0414472,1.4235,127.334,0.0193674,
2,1,0,1,0,62256.9,0.0297635,0.0294648,3.29832,32,0.000269287,10,9.71844e-05,-2.48171,0.0975858,0.604596,77.6319,0.0294648,
2,1,0,1,0,62257,0.0397514,0.039412,3.96144,32,0.000634092,10,0.000156128,-2.40215,0.148069,0.398464,61.668,0.039412,
2,1,0,1,0,62257.1,0.0497484,0.0494193,4.51398,32,0.00105845,10,0.000223077,-2.34544,0.202754,0.290993,51.1486,0.0494193,
2,1,0,1,0,62257.2,0.0597273,0.0594015,4.99318,32,0.00153327,10,0.000296602,-2.30162,0.240771,0.245046,47.7022,0.0594015,
2,1,0,1,0,62257.3,0.0697152,0.0693899,5.42801,32,0.00205464,10,0.000376649,-2.26536,0.306342,0.192595,40.8164,0.06938985,
2,1,0,1,0,62257.4,0.0797031,0.0793855,5.82187,32,0.00261739,10,0.000462172,-2.23494,0.372375,0.158442,35.9989,0.0793855,
2,1,0,1,0,62257.5,0.0896911,0.0893697,6.15361,32,0.00321638,10,0.000549946,-2.21087,0.446975,0.131999,31.721,0.0893697,
2,1,0,1,0,62257.6,0.099679,0.0993304,6.50069,32,0.00384772,10,0.000645716,-2.18704,0.398677,0.147989,37.5209,0.0993304,
2,1,0,1,0,62257.7,0.109667,0.109327,6.95802,32,0.00451867,10,0.000760696,-2.15751,0.294566,0.200294,54.4265,0.109327,
2,1,0,1,0,62257.8,0.119655,0.119312,7.56681,32,0.00524365,10,0.00090281,-2.12109,0.289334,0.203917,60.193,0.119312,
2,1,0,1,0,62257.9,0.129643,0.129306,8.13088,32,0.00602882,10,0.00105137,-2.08986,0.369642,0.159614,50.6142,0.129306,
2,1,0,1,0,62258,0.139631,0.139267,8.51738,32,0.0068626,10,0.00118619,-2.06969,0.656426,0.0898807,29.8858,0.139267,
2,1,0,1,0,62258.1,0.149619,0.149238,8.64686,32,0.00772276,10,0.00129044,-2.06314,-1.75955,-0.0335314,-11.2905,0.149238,
2,1,0,1,0,62258.2,0.159607,0.159237,8.12429,32,0.00856717,10,0.00129369,-2.09021,-0.196349,-0.300486,-95.1437,0.159237,
2,1,0,1,0,62258.3,0.169595,0.16926,6.948,32,0.00932272,10,0.00117602,-2.15814,-0.126999,-0.46457,-125.846,0.16926,
2,1,0,1,0,62258.4,0.179582,0.179245,5.81473,32,0.00995723,10,0.00104226,-2.23547,-0.142658,-0.413575,-93.954,0.179245,
2,1,0,1,0,62258.5,0.18957,0.189219,5.05433,32,0.0104973,10,0.000956374,-2.29634,-0.196684,-0.299974,-59.2274,0.189219,
2,1,0,1,0,62258.6,0.199558,0.19918,4.5837,32,0.0109766,10,0.000912983,-2.33878,-0.291466,-0.202425,-36.2115,0.19918,
2,1,0,1,0,62258.7,0.209546,0.209192,4.28532,32,0.0114184,10,0.000896453,-2.36802,-0.3756,-0.157082,-26.2817,0.209192,
2,1,0,1,0,62258.8,0.219534,0.219232,4.08028,32,0.0118355,10,0.000894526,-2.38931,-0.564922,-0.104439,-16.6437,0.219232,
2,1,0,1,0,62258.9,0.229522,0.229219,3.93715,32,0.012236,10,0.000902471,-2.40482,-0.7066,-0.0834984,-12.8458,0.2292192,
2,1,0,1,0,62259,0.23951,0.23913,3.84131,32,0.0126246,10,0.000918572,-2.41552,-1.23096,-0.0479299,-7.18885,0.23913,
2,1,0,1,0,62259.1,0.249498,0.249153,3.76811,32,0.0130043,10,0.000938838,-2.42388,-1.51696,-0.0388935,-5.71958,0.249153,
2,1,0,1,0,62259.2,0.259486,0.259115,3.71023,32,0.0133776,10,0.000961378,-2.4306,-1.10392,-0.0534457,-7.73085,0.259115,
2,1,0,1,0,62259.3,0.269474,0.269098,3.65077,32,0.0137454,10,0.000982416,-2.43762,-1.96931,-0.0299597,-4.27198,0.269098,
2,1,0,1,0,62259.4,0.279462,0.279118,3.60967,32,0.0141085,10,0.00100752,-2.44253,-1.653,-0.0356928,-5.03102,0.279118,
2,1,0,1,0,62259.5,0.28945,0.289138,3.5638,32,0.014467,10,0.00103043,-2.44809,-2.43322,-0.0242477,-3.37293,0.289138,
2,1,0,1,0,62259.6,0.299438,0.299102,3.52317,32,0.0148209,10,0.00105379,-2.45307,-0.0435906,-1.3535,-175.523,0.2991024,
2,0,0,1,0,62259.6,0.291747,0.291412,-0.228578,32,0.0149276,10,-6.66103e-05,-3.64097,-0.00869144,-6.78829,186.203,0.291412,
2,0,0,1,0,62259.7,0.281759,0.281386,-1.29761,32,0.0148418,10,-0.00036513,-2.88685,-0.0467773,-1.26129,63.1033,0.281386,
2,0,0,1,0,62259.8,0.271771,0.2714,-1.75823,32,0.0146869,10,-0.000477184,-2.75492,-0.11117,-0.530717,36.3168,0.2714,
2,0,0,1,0,62259.9,0.261783,0.261421,-2.04408,32,0.014496,10,-0.000534364,-2.6895,-0.194771,-0.30292,24.1353,0.261421,
2,0,0,1,0,62260,0.251795,0.251472,-2.25368,32,0.014281,10,-0.000566739,-2.64711,-0.305387,-0.193197,16.9969,0.251472,
2,0,0,1,0,62260.1,0.241807,0.241455,-2.41659,32,0.0140473,10,-0.000583497,-2.6168,-0.339563,-0.173753,16.4186,0.241455,
2,0,0,1,0,62260.2,0.231815,0.231447,-2.56921,32,0.0137981,10,-0.000594636,-2.5902,-0.391119,-0.150849,15.1115,0.2314472,
2,0,0,1,0,62260.3,0.221831,0.221497,-2.6987,32,0.0135355,10,-0.000597756,-2.56884,-0.520814,-0.113284,11.9121,0.221497,
2,0,0,1,0,62260.4,0.211843,0.211549,-2.81795,32,0.0132601,10,-0.000596135,-2.55007,-0.597487,-0.0987469,10.8619,0.211549,
2,0,0,1,0,62260.5,0.201856,0.201475,-2.94005,32,0.0129725,10,-0.000592348,-2.53165,-0.553856,-0.106526,12.2151,0.201475,
2,0,0,1,0,62260.6,0.191868,0.191493,-3.06288,32,0.0126728,10,-0.00058652,-2.51387,-0.583692,-0.101081,12.0897,0.191493,
2,0,0,1,0,62260.7,0.18188,0.181525,-3.20248,32,0.0123608,10,-0.000581329,-2.49451,-0.440407,-0.133967,16.71,0.181525,
2,0,0,1,0,62260.8,0.171892,0.171546,-3.3534,32,0.012034,10,-0.000575261,-2.47451,-0.464301,-0.127073,16.6141,0.171546,
2,0,0,1,0,62260.9,0.161904,0.161558,-3.54977,32,0.0116899,10,-0.000573494,-2.4498,-0.362223,-0.162883,22.564,0.161558,
2,0,0,1,0,62261,0.151916,0.151568,-3.8379,32,0.011322,10,-0.000581704,-2.41591,-0.234025,-0.25211,37.8199,0.151568,
2,0,0,1,0,62261.1,0.141928,0.141566,-4.33621,32,0.0109162,10,-0.000613858,-2.36289,-0.142602,-0.41374,70.0663,0.141566,
2,0,0,1,0,62261.2,0.13194,0.13159,-5.19583,32,0.010444,10,-0.000683721,-2.28435,-0.115545,-0.510625,103.541,0.13159,
2,0,0,1,0,62261.3,0.121952,0.121621,-6.29791,32,0.00987058,10,-0.000765958,-2.2008,-0.130673,-0.45151,110.903,0.121621,
2,0,0,1,0,62261.4,0.111964,0.111645,-7.32607,32,0.00918842,10,-0.000817922,-2.13513,-0.177767,-0.331894,94.8595,0.111645,
2,0,0,1,0,62261.5,0.101976,0.10161,-8.13684,32,0.00841334,10,-0.000826784,-2.08954,-0.298071,-0.197939,62.7707,0.10161,
2,0,0,1,0,62261.6,0.0919883,0.0916282,-8.58676,32,0.00757467,10,-0.00078679,-2.06617,-0.770022,-0.0766212,25.6552,0.0916282,
2,0,0,1,0,62261.7,0.0820004,0.0816447,-8.63353,32,0.0067123,10,-0.000704882,-2.06381,1.76584,0.0334118,-11.2464,0.0816447,
2,0,0,1,0,62261.8,0.0720124,0.0716798,-8.44252,32,0.00585864,10,-0.000605159,-2.07353,0.88107,0.066964,-22.0767,0.0716798,
2,0,0,1,0,62261.9,0.0620245,0.0616354,-8.24746,32,0.00502535,10,-0.000508336,-2.08368,1.04135,0.056657,-18.239,0.0616354,
2,0,0,1,0,62262,0.0520366,0.0516659,-8.07397,32,0.00421017,10,-0.000417149,-2.09291,0.998633,0.0590808,-18.6008,0.0516659,
2,0,0,1,0,62262.1,0.0420486,0.0416987,-7.87051,32,0.00341343,10,-0.00032819,-2.104,0.926808,0.0636593,-19.5668,0.04169872,
2,0,0,1,0,62262.2,0.0320607,0.0316679,-7.63972,32,0.00263878,10,-0.000241934,-2.11692,0.635386,0.092857,-27.6715,0.0316679,
2,0,0,1,0,62262.3,0.0220728,0.021711,-7.34326,32,0.00189008,10,-0.000159429,-2.13411,0.543267,0.108602,-31.1133,0.021711,
2,0,0,1,0,62262.4,0.0120848,0.0117188,-7.01495,32,0.00117286,10,-8.22066e-05,-2.15398,0.472864,0.124772,-34.1761,0.0117188,
2,0,0,1,0,62262.5,0.0020969,0.00169446,-6.75553,32,0.000487236,10,-1.1447e-05,-2.17034,0.793145,0.0743874,-19.5481,0.00169446,
2,0,0,1,0,62262.6,-0.00789103,-0.00828723,-6.52031,32,-0.000174829,10,5.40353e-05,-2.18573,1.05505,0.0559213,-14.255,-0.00828723,
2,0,0,1,0,62262.7,-0.017879,-0.0182994,-6.43835,32,-0.000820984,10,0.000117818,-2.19123,5.66036,0.0104234,-2.61834,-0.0182994,
2,0,0,1,0,62262.8,-0.0278669,-0.0282527,-6.4491,32,-0.00146391,10,0.000182204,-2.1905,-2.74937,-0.0214595,5.4025,-0.0282527,
2,0,0,1,0,62262.9,-0.0378548,-0.0382846,-6.54578,32,-0.00211256,10,0.000250603,-2.18404,-1.21635,-0.0485058,12.3903,-0.0382846,
2,0,0,1,0,62263,-0.0478428,-0.0482579,-6.70482,32,-0.00277452,10,0.000323561,-2.17361,-0.685821,-0.0860283,22.5418,-0.0482579,
2,0,0,1,0,62263.1,-0.0578216,-0.0582467,-6.93127,32,-0.00345515,10,0.000403724,-2.15919,-0.630344,-0.0935996,25.3268,-0.0582467,
2,0,0,1,0,62263.2,-0.0678187,-0.0682148,-7.21237,32,-0.00416149,10,0.000491991,-2.14192,-0.538682,-0.109527,30.8251,-0.0682148,
2,0,0,1,0,62263.3,-0.0778066,-0.0782099,-7.54729,32,-0.00489876,10,0.000590273,-2.12221,-0.475298,-0.124133,36.5958,-0.0782099,
2,0,0,1,0,62263.4,-0.0877945,-0.0881768,-7.95896,32,-0.00567342,10,0.000701795,-2.09914,-0.411696,-0.143309,44.5257,-0.0881768,
2,0,0,1,0,62263.5,-0.0977825,-0.0982051,-8.40625,32,-0.00649123,10,0.000825536,-2.0754,-0.428867,-0.137572,45.1456,-0.0982051,
2,0,0,1,1,62263.6,-0.0927386,-0.0931266,-3.24265,32,-0.00706623,10,0.000301977,-2.4891,-0.0164793,-3.58024,451.541,-0.09312661,
2,0,0,1,1,62263.7,-0.0827529,-0.08317,0.0265692,32,-0.00720941,10,-2.20976e-06,-4.57562,0.364132,0.162029,244.028,-0.08317,
2,1,0,1,1,62263.8,-0.0727627,-0.0731667,1.94064,32,-0.00710338,10,-0.00014199,-2.71205,0.0290632,2.03006,150.736,-0.0731667,
2,1,0,1,1,62263.9,-0.0627748,-0.0631643,3.15067,32,-0.00684435,10,-0.00019901,-2.5016,0.073521,0.802492,98.4663,-0.0631643,
2,1,0,1,1,62264,-0.0527868,-0.0531648,3.94941,32,-0.00648607,10,-0.00020997,-2.40347,0.146426,0.402934,61.9735,-0.0531648,
2,1,0,1,1,62264.1,-0.0427989,-0.0431846,4.45673,32,-0.00606385,10,-0.000192462,-2.35098,0.256801,0.22975,39.9439,-0.0431846,
2,1,0,1,1,62264.2,-0.0328109,-0.0331629,4.76908,32,-0.00560176,10,-0.000158156,-2.32157,0.465191,0.12683,23.6007,-0.0331629,
2,1,0,1,1,62264.3,-0.022823,-0.0231936,4.94258,32,-0.00511553,10,-0.000114636,-2.30605,1.00592,0.058653,11.3108,-0.0231936,
2,1,0,1,1,62264.4,-0.0128351,-0.0132145,5.01532,32,-0.00461727,10,-6.62748e-05,-2.2997,3.26225,0.0180857,3.54003,-0.0132145,
2,1,0,1,1,62264.5,-0.00284713,-0.00322203,5.0449,32,-0.004114,10,-1.62548e-05,-2.29715,22.0282,0.00267839,0.527326,-0.00322203,
2,1,0,1,1,62264.6,-2.55332e-05,-0.000382585,5.06328,32,-0.00397209,10,-1.93714e-06,-2.29557, , , ,-0.000382585,