File: Figure_codes/Fig_3-5/rawdata_trumpetplot_data/after 10th/20221101_1-115_003_TrumpetPlot_ParaChange_from10_every3_13_CV_C01_34.csv
mode,ox/red,error,control changes,counter inc.,time/s,control/V,Ewe/V,<I>/mA,cycle number,(Q-Qo)/C,I Range,P/W,log(|I|),Tafel slope mV/dec,alpha_eff,dI/d(E-IR),E-IR/V,
2,1,0,1,0,68182.3,2.44065e-05,-0.000344411,15.9871,35,0.0000000E+000,10,-5.50614e-06,-1.79623, , , ,-0.000344411,
2,1,0,1,0,68182.3,0.0122624,0.0119075,19.9906,35,0.000276878,10,0.000238038,-1.69917,0.184785,0.31929,247.144,0.0119075,
2,1,0,1,0,68182.3,0.0250636,0.0247109,22.7868,35,0.000620241,10,0.000563081,-1.64232,0.262865,0.224449,198.918,0.0247109,
2,1,0,1,0,68182.3,0.0378704,0.0375026,25.1461,35,0.0010044,10,0.000943044,-1.59953,0.333573,0.176873,173.236,0.0375026,
2,1,0,1,0,68182.4,0.0506632,0.0502741,27.2339,35,0.001424,10,0.00136916,-1.56489,0.399281,0.147766,156.933,0.0502741,
2,1,0,1,0,68182.4,0.0634672,0.0631411,29.2021,35,0.00187587,10,0.00184385,-1.53459,0.453272,0.130165,148.188,0.0631411,
2,1,0,1,0,68182.4,0.0762629,0.0759094,31.0808,35,0.00235838,10,0.00235932,-1.50751,0.48596,0.121409,147.185,0.0759094,
2,1,0,1,0,68182.4,0.0890668,0.0887149,32.958,35,0.0028709,10,0.00292387,-1.48204,0.513099,0.114987,147.869,0.0887149,
2,1,0,1,0,68182.4,0.10186,0.101503,34.8272,35,0.00341346,10,0.00353508,-1.45808,0.549675,0.107336,145.911,0.101503,
2,1,0,1,0,68182.4,0.114666,0.11429,36.7181,35,0.00398613,10,0.00419651,-1.43512,0.562743,0.104844,150.265,0.11429,
2,1,0,1,0,68182.4,0.127462,0.127092,38.669,35,0.00458932,10,0.00491453,-1.41264,0.566278,0.104189,157.325,0.127092,
2,1,0,1,0,68182.5,0.140263,0.139867,40.7886,35,0.0052251,10,0.00570497,-1.38946,0.556711,0.10598,168.644,0.139867,
2,1,0,1,0,68182.5,0.153064,0.152638,42.9615,35,0.00589499,10,0.00655758,-1.36692,0.575042,0.102601,171.98,0.1526383,
2,1,0,1,0,68182.5,0.165866,0.165497,45.0773,35,0.0066,10,0.00746015,-1.34604,0.674225,0.0875079,153.826,0.1654968,
2,1,0,1,0,68182.5,0.178667,0.17831,46.8822,35,0.00733646,10,0.00835955,-1.32899,0.876736,0.067295,122.956,0.17831,
2,1,0,1,0,68182.5,0.191463,0.191096,48.1621,35,0.00809792,10,0.00920358,-1.31729,1.53943,0.0383258,71.8945,0.191096,
2,1,0,1,0,68182.5,0.204269,0.203921,48.712,35,0.008874,10,0.00993338,-1.31236,11.1012,0.00531473,10.0791,0.203921,
2,1,0,1,0,68182.6,0.217062,0.216745,48.4244,35,0.00965209,10,0.0104958,-1.31494,-2.14224,-0.0275413,-51.943,0.216745,
2,1,0,1,0,68182.6,0.229866,0.229572,47.3583,35,0.0104194,10,0.0108721,-1.3246,-0.978796,-0.0602781,-111.223,0.229572,
2,1,0,1,0,68182.6,0.242662,0.24234,45.5976,35,0.0111638,10,0.0110501,-1.34106,-0.660757,-0.0892915,-158.7,0.24234,
2,1,0,1,0,68182.6,0.255466,0.255086,43.3503,35,0.0118758,10,0.0110581,-1.36301,-0.527014,-0.111952,-189.22,0.2550863,
2,1,0,1,0,68182.6,0.268259,0.267985,40.8602,35,0.0125493,10,0.0109499,-1.3887,-0.479573,-0.123026,-196.114,0.267985,
2,1,0,1,0,68182.6,0.281065,0.280742,38.3902,35,0.013183,10,0.0107777,-1.41578,-0.47337,-0.124638,-186.779,0.280742,
2,1,0,1,0,68182.7,0.293861,0.293501,36.0865,35,0.0137783,10,0.0105914,-1.44266,-0.493021,-0.11967,-168.942,0.2935006,
2,1,0,1,0,68182.7,0.298983,0.298823,33.0319,35,0.0140958,10,0.00987069,-1.48107,0.0468595,1.25908,1459.71,0.298823,
2,1,0,1,0,68182.7,0.286187,0.285913,19.098,35,0.0144981,10,0.00546038,-1.71901,0.0540209,1.09217,816.377,0.285913,
2,1,0,1,0,68182.7,0.273386,0.273141,10.4325,35,0.0147295,10,0.00284955,-1.98161,0.0410065,1.4388,576.639,0.273141,
2,1,0,1,0,68182.7,0.260585,0.260331,4.0369,35,0.0148424,10,0.00105093,-2.39395,0.0185938,3.17311,435.839,0.260331,
2,0,0,1,0,68182.7,0.247783,0.247479,-0.879346,35,0.0148656,10,-0.00021762,-3.05584,-0.0410524,-1.43719,342.776,0.247479,
2,0,0,1,0,68182.7,0.234982,0.234668,-4.78578,35,0.0148187,10,-0.00112307,-2.32005,-0.0377776,-1.56177,272.275,0.234668,
2,0,0,1,0,68182.8,0.222187,0.221885,-7.95057,35,0.0147156,10,-0.00176411,-2.0996,-0.0793574,-0.743472,226.255,0.221885,
2,0,0,1,0,68182.8,0.20938,0.209059,-10.6005,35,0.0145663,10,-0.00221613,-1.97467,-0.128065,-0.460704,188.722,0.209059,
2,0,0,1,0,68182.8,0.196587,0.196293,-12.8361,35,0.0143782,10,-0.00251964,-1.89157,-0.179729,-0.328271,163.623,0.196293,
2,0,0,1,0,68182.8,0.183783,0.183489,-14.807,35,0.0141565,10,-0.00271692,-1.82953,-0.230727,-0.255713,147.374,0.1834887,
2,0,0,1,0,68182.8,0.170987,0.170675,-16.589,35,0.0139049,10,-0.00283133,-1.78018,-0.281711,-0.209435,135.552,0.170675,
2,0,0,1,0,68182.8,0.158183,0.157877,-18.339,35,0.0136252,10,-0.0028953,-1.73662,-0.303736,-0.194248,139.063,0.157877,
2,0,0,1,0,68182.9,0.145385,0.145055,-20.2064,35,0.0133169,10,-0.00293105,-1.69451,-0.296635,-0.198898,157.055,0.145055,
2,0,0,1,0,68182.9,0.132584,0.132277,-22.4555,35,0.0129761,10,-0.00297036,-1.64868,-0.258645,-0.228112,200.421,0.132277,
2,0,0,1,0,68182.9,0.119783,0.119464,-25.3618,35,0.0125942,10,-0.00302981,-1.59582,-0.227988,-0.258786,256.817,0.1194635,
2,0,0,1,0,68182.9,0.106987,0.106705,-28.9311,35,0.0121598,10,-0.00308708,-1.53863,-0.229075,-0.257557,290.782,0.106705,
2,0,0,1,0,68182.9,0.0941801,0.0938897,-32.701,35,0.0116662,10,-0.00307029,-1.48544,-0.262426,-0.224825,286.262,0.0938897,
2,0,0,1,0,68182.9,0.0813844,0.0811552,-36.2094,35,0.0111142,10,-0.00293858,-1.44118,-0.318156,-0.185444,261.516,0.0811552,
2,0,0,1,0,68183,0.0685832,0.0683349,-39.3255,35,0.0105088,10,-0.00268731,-1.40533,-0.411996,-0.143205,219.179,0.06833493,
2,0,0,1,0,68183,0.0557876,0.0555698,-41.7864,35,0.00985882,10,-0.00232206,-1.37896,-0.560993,-0.105171,171.239,0.0555698,
2,0,0,1,0,68183,0.0429808,0.0426996,-43.7423,35,0.00917367,10,-0.00186778,-1.3591,-0.750785,-0.0785844,133.965,0.0426996,
2,0,0,1,0,68183,0.030188,0.0298846,-45.2067,35,0.00846112,10,-0.00135098,-1.3448,-1.07732,-0.0547655,96.5263,0.0298846,
2,0,0,1,0,68183,0.017384,0.0170537,-46.2461,35,0.00772871,10,-0.000788666,-1.33492,-1.64216,-0.0359283,64.7743,0.0170537,
2,0,0,1,0,68183,0.00458834,0.00429805,-46.8764,35,0.00698311,10,-0.000201477,-1.32905,-2.99077,-0.0197274,36.065,0.004298049,
2,0,0,1,0,68183,-0.00821564,-0.00851485,-47.1413,35,0.00623013,10,0.000401401,-1.3266,-22.6291,-0.00260727,4.79332,-0.00851485,
2,0,0,1,0,68183.1,-0.0210196,-0.0213797,-47.0328,35,0.00547623,10,0.00100555,-1.3276,4.98235,0.0118418,-21.7204,-0.0213797,
2,0,0,1,0,68183.1,-0.0338153,-0.0341396,-46.6372,35,0.0047265,10,0.00159217,-1.33127,2.9436,0.0200435,-36.4719,-0.0341396,
2,0,0,1,0,68183.1,-0.0466193,-0.0469843,-46.1085,35,0.00398445,10,0.00216638,-1.33622,2.26665,0.0260295,-46.8238,-0.0469843,
2,0,0,1,0,68183.1,-0.0594121,-0.0597728,-45.5217,35,0.00325154,10,0.00272096,-1.34178,2.44917,0.0240898,-42.7959,-0.0597728,
2,0,0,1,0,68183.1,-0.0722189,-0.0725327,-45.0141,35,0.00252748,10,0.00326499,-1.34665,3.02636,0.0194954,-34.2578,-0.0725327,
2,0,0,1,0,68183.1,-0.0850146,-0.0854007,-44.6235,35,0.00181055,10,0.00381088,-1.35044,4.45555,0.0132419,-23.0794,-0.0854007,
2,0,0,1,0,68183.2,-0.0978158,-0.0981829,-44.422,35,0.00109825,10,0.00436148,-1.3524,12.9091,0.00457042,-7.93044,-0.0981829,
2,0,0,1,0,68183.2,-0.110611,-0.110972,-44.4152,35,0.000387671,10,0.00492886,-1.35247,-18.3257,-0.00321952,5.58449,-0.110972,
2,0,0,1,0,68183.2,-0.123418,-0.12378,-44.614,35,-0.000324364,10,0.00552232,-1.35053,-4.36025,-0.0135313,23.5692,-0.12378,
2,0,0,1,0,68183.2,-0.136214,-0.136562,-44.9808,35,-0.00104096,10,0.00614268,-1.34697,-2.98833,-0.0197434,34.6768,-0.136562,
2,0,0,1,0,68183.2,-0.149015,-0.149351,-45.4869,35,-0.0017648,10,0.00679351,-1.34211,-2.41303,-0.0244506,43.4215,-0.149351,
2,0,0,1,0,68183.2,-0.161816,-0.162164,-46.0628,35,-0.00249739,10,0.00746971,-1.33665,-2.44487,-0.0241322,43.3788,-0.162164,
2,0,0,1,0,68183.3,-0.174615,-0.174932,-46.5922,35,-0.00323885,10,0.00815046,-1.33169,-2.86734,-0.0205766,37.4029,-0.174932,
2,0,0,1,0,68183.3,-0.187419,-0.187759,-47.0289,35,-0.00398802,10,0.00883008,-1.32764,-3.75591,-0.0157086,28.814,-0.187759,
2,0,0,1,0,68183.3,-0.199647,-0.199979,-47.3116,35,-0.00471,10,0.00946131,-1.32503,0.225531,0.261605,-469.007,-0.199979,
2,0,0,1,1,68183.3,-0.192535,-0.192943,-35.8074,35,-0.00512453,10,0.00690879,-1.44603,-0.072447,-0.814389,1167.36,-0.192943,
2,0,0,1,1,68183.3,-0.179739,-0.180154,-24.9001,35,-0.00560276,10,0.00448587,-1.6038,-0.0820447,-0.71912,700.811,-0.180154,
2,0,0,1,1,68183.3,-0.166932,-0.167295,-17.0457,35,-0.00593491,10,0.00285165,-1.76839,-0.0708657,-0.832561,551.648,-0.167295,
2,0,0,1,1,68183.3,-0.154139,-0.154504,-10.6633,35,-0.00615449,10,0.00164752,-1.97211,-0.0527644,-1.11818,458.171,-0.154504,
2,0,0,1,1,68183.4,-0.141335,-0.141752,-5.17779,35,-0.00627966,10,0.000733961,-2.28586,-0.0274025,-2.15309,403.433,-0.1417518,
2,0,0,1,1,68183.4,-0.12854,-0.128986,-0.312323,35,-0.00632235,10,4.02852e-05,-3.5054,-0.092719,-0.636331,361.313,-0.128986,
2,1,0,1,1,68183.4,-0.115736,-0.116169,4.10177,35,-0.00629101,10,-0.000476501,-2.38703,0.0255321,2.31082,330.256,-0.116169,
2,1,0,1,1,68183.4,-0.102932,-0.103401,8.17333,35,-0.006192,10,-0.000845132,-2.0876,0.0596262,0.989498,307.974,-0.103401,
2,1,0,1,1,68183.4,-0.0901362,-0.0905543,11.9665,35,-0.0060301,10,-0.00108362,-1.92203,0.0955975,0.617171,285.066,-0.0905543,
2,1,0,1,1,68183.4,-0.0773322,-0.0777308,15.4982,35,-0.00580976,10,-0.00120469,-1.80972,0.134599,0.438339,263.256,-0.0777308,
2,1,0,1,1,68183.5,-0.0645393,-0.0649529,18.7465,35,-0.00553519,10,-0.00121764,-1.72708,0.175204,0.336751,245.361,-0.0649529,
2,1,0,1,1,68183.5,-0.0517325,-0.0521326,21.7655,35,-0.00521044,10,-0.00113469,-1.66223,0.220502,0.267571,226.673,-0.0521326,
2,1,0,1,1,68183.5,-0.0389369,-0.0393706,24.5383,35,-0.00483932,10,-0.000966086,-1.61016,0.272126,0.216811,207.27,-0.03937057,
2,1,0,1,1,68183.5,-0.0261357,-0.0265025,27.0775,35,-0.00442572,10,-0.000717622,-1.56739,0.329945,0.178818,188.65,-0.0265025,
2,1,0,1,1,68183.5,-0.01334,-0.0137034,29.3641,35,-0.00397365,10,-0.000402389,-1.53218,0.400959,0.147147,168.363,-0.0137034,
2,1,0,1,1,68183.5,-0.000774629,-0.00111109,31.367,35,-0.00349641,10,-3.48514e-05,-1.50353, , , ,-0.00111109,
2,1,0,0,1,68183.5,-0.000125413,-0.000478022,31.4739,35,-0.00347128,10,-1.50452e-05,-1.50205, , , ,-0.000478022,