File: Figure_codes/Fig_3-5/rawdata_trumpetplot_data/after 10th/20221101_1-115_003_TrumpetPlot_ParaChange_from10_every3_13_CV_C01_23.csv
mode,ox/red,error,control changes,counter inc.,time/s,control/V,Ewe/V,<I>/mA,cycle number,(Q-Qo)/C,I Range,P/W,log(|I|),Tafel slope mV/dec,alpha_eff,dI/d(E-IR),E-IR/V,
2,1,0,1,0,46510.9,2.44065e-05,-0.000287149,17.4322,24,0.0000000E+000,10,-5.00563e-06,-1.75865, , , ,-0.0002871489,
2,1,0,1,0,46510.9,0.0122624,0.0119542,21.5034,24,0.000299332,10,0.000257055,-1.66749,0.195755,0.301397,251.129,0.0119542,
2,1,0,1,0,46510.9,0.0250636,0.0247437,24.3136,24,0.000667148,10,0.000601609,-1.61415,0.279878,0.210806,199.46,0.0247437,
2,1,0,1,0,46510.9,0.0378703,0.0374888,26.6763,24,0.00107575,10,0.00100006,-1.57387,0.361127,0.163378,169.712,0.0374888,
2,1,0,1,0,46510.9,0.0506632,0.0503218,28.7546,24,0.00151954,10,0.00144698,-1.54129,0.418495,0.140981,158.019,0.0503218,
2,1,0,1,0,46510.9,0.0634672,0.0631506,30.7276,24,0.00199563,10,0.00194046,-1.51247,0.463429,0.127312,152.567,0.0631506,
2,1,0,1,0,46511,0.0762628,0.0759147,32.6606,24,0.00250298,10,0.00247942,-1.48598,0.494592,0.11929,152.049,0.0759147,
2,1,0,1,0,46511,0.0890668,0.0887191,34.6277,24,0.00304155,10,0.00307214,-1.46058,0.512196,0.11519,155.689,0.0887191,
2,1,0,1,0,46511,0.10186,0.101553,36.6396,24,0.00361194,10,0.00372087,-1.43605,0.533377,0.110616,158.164,0.101553,
2,1,0,1,0,46511,0.114666,0.114296,38.6854,24,0.00421476,10,0.0044216,-1.41245,0.549209,0.107427,162.179,0.114296,
2,1,0,1,0,46511,0.127462,0.127131,40.8231,24,0.00485078,10,0.0051899,-1.38909,0.547181,0.107825,171.777,0.1271313,
2,1,0,1,0,46511,0.140263,0.139855,43.0554,24,0.00552201,10,0.00602152,-1.36597,0.539367,0.109388,183.971,0.139855,
2,1,0,1,0,46511,0.153064,0.152703,45.5193,24,0.0062306,10,0.00695093,-1.3418,0.551045,0.107069,190.065,0.152703,
2,1,0,1,0,46511.1,0.165866,0.165499,47.8798,24,0.00697828,10,0.00792405,-1.31985,0.633418,0.0931454,173.842,0.165499,
2,1,0,1,0,46511.1,0.178667,0.178319,49.9333,24,0.00776138,10,0.00890407,-1.30161,0.804858,0.0733049,142.62,0.178319,
2,1,0,1,0,46511.1,0.191463,0.191087,51.4318,24,0.0085735,10,0.00982792,-1.28877,1.37202,0.0430022,86.126,0.191087,
2,1,0,1,0,46511.1,0.204269,0.203942,52.0259,24,0.00940275,10,0.0106103,-1.28378,23.5793,0.00250219,5.06866,0.203942,
2,1,0,1,0,46511.1,0.217062,0.216699,51.5539,24,0.010233,10,0.0111717,-1.28774,-1.51315,-0.0389915,-78.2655,0.216699,
2,1,0,1,0,46511.1,0.229866,0.229551,50.0472,24,0.011047,10,0.0114884,-1.30062,-0.735337,-0.0802353,-156.331,0.229551,
2,1,0,1,0,46511.2,0.242662,0.242336,47.634,24,0.0118292,10,0.0115434,-1.32208,-0.513053,-0.114998,-213.421,0.242336,
2,1,0,1,0,46511.2,0.255466,0.255127,44.6792,24,0.012568,10,0.0113989,-1.34989,-0.430207,-0.137143,-238.97,0.2551266,
2,1,0,1,0,46511.2,0.268259,0.267949,41.5751,24,0.0132577,10,0.01114,-1.38117,-0.402021,-0.146759,-238.199,0.267949,
2,1,0,1,0,46511.2,0.281065,0.280771,38.6555,24,0.013899,10,0.0108534,-1.41279,-0.41169,-0.143312,-216.378,0.280771,
2,1,0,1,0,46511.2,0.293861,0.293531,36.0725,24,0.0144961,10,0.0105884,-1.44282,-0.445148,-0.13254,-187.094,0.293531,
2,1,0,1,0,46511.2,0.298983,0.298844,32.77,24,0.0148126,10,0.00979311,-1.48452,0.0416521,1.4165,1607.27,0.298844,
2,1,0,1,0,46511.2,0.286187,0.285913,17.5723,24,0.0151991,10,0.00502416,-1.75517,0.0461348,1.27886,878.209,0.285913,
2,1,0,1,0,46511.3,0.273386,0.273121,8.41605,24,0.0154014,10,0.0022986,-2.07489,0.0313718,1.88067,597.264,0.273121,
2,1,0,1,0,46511.3,0.260585,0.260327,1.90404,24,0.0154806,10,0.000495671,-2.72032,0.0150381,3.92338,437.276,0.2603268,
2,0,0,1,0,46511.3,0.247783,0.247496,-2.9527,24,0.0154699,10,-0.000730782,-2.52978,-0.0150712,-3.91474,330.351,0.2474959,
2,0,0,1,0,46511.3,0.234982,0.234656,-6.71123,24,0.0153909,10,-0.00157483,-2.1732,-0.0571666,-1.03207,260.468,0.2346565,
2,0,0,1,0,46511.3,0.222187,0.221899,-9.69118,24,0.0152586,10,-0.00215046,-2.01362,-0.104548,-0.564332,210.496,0.221899,
2,0,0,1,0,46511.3,0.20938,0.209105,-12.1366,24,0.0150831,10,-0.00253782,-1.9159,-0.157781,-0.373937,175.966,0.209105,
2,0,0,1,0,46511.4,0.196587,0.196263,-14.1963,24,0.0148717,10,-0.00278621,-1.84782,-0.217668,-0.271055,149.722,0.196263,
2,0,0,1,0,46511.4,0.183783,0.183509,-16.0108,24,0.0146294,10,-0.00293812,-1.79559,-0.272098,-0.216833,135.273,0.183509,
2,0,0,1,0,46511.4,0.170987,0.170713,-17.6874,24,0.0143595,10,-0.00301948,-1.75233,-0.316379,-0.186485,128.662,0.170713,
2,0,0,1,0,46511.4,0.158183,0.157907,-19.379,24,0.0140629,10,-0.00306008,-1.71267,-0.325205,-0.181424,137.227,0.157907,
2,0,0,1,0,46511.4,0.145385,0.145108,-21.2614,24,0.013738,10,-0.00308521,-1.67241,-0.296192,-0.199195,165.677,0.145108,
2,0,0,1,0,46511.4,0.132584,0.132277,-23.6647,24,0.0133791,10,-0.00313031,-1.6259,-0.252334,-0.233817,216.733,0.132277,
2,0,0,1,0,46511.5,0.119783,0.119525,-26.874,24,0.0129755,10,-0.00321212,-1.57067,-0.21813,-0.270481,284.441,0.119525,
2,0,0,1,0,46511.5,0.106987,0.106708,-30.8338,24,0.012514,10,-0.00329021,-1.51097,-0.222021,-0.26574,319.386,0.106708,
2,0,0,1,0,46511.5,0.0941801,0.0939141,-34.9433,24,0.0119874,10,-0.00328167,-1.45664,-0.259722,-0.227166,308.656,0.0939141,
2,0,0,1,0,46511.5,0.0813844,0.0811362,-38.7566,24,0.0113973,10,-0.00314456,-1.41165,-0.310066,-0.190282,286.891,0.08113616,
2,0,0,1,0,46511.5,0.0685832,0.0683296,-42.0624,24,0.0107495,10,-0.00287411,-1.37611,-0.417296,-0.141386,231.526,0.06832964,
2,0,0,1,0,46511.5,0.0557876,0.0555581,-44.6559,24,0.0100545,10,-0.00248099,-1.35012,-0.578877,-0.101922,177.326,0.0555581,
2,0,0,1,0,46511.6,0.0429808,0.0427293,-46.656,24,0.00932295,10,-0.00199358,-1.33109,-0.82409,-0.0715941,130.095,0.0427293,
2,0,0,1,0,46511.6,0.030188,0.0298751,-48.0365,24,0.0085646,10,-0.00143509,-1.31843,-1.24386,-0.0474331,88.7968,0.0298751,
2,0,0,1,0,46511.6,0.017384,0.0171056,-48.9338,24,0.0077881,10,-0.000837044,-1.31039,-2.04013,-0.0289198,55.1797,0.0171056,
2,0,0,1,0,46511.6,0.00458834,0.00428214,-49.4065,24,0.00700058,10,-0.000211566,-1.30622,-4.725,-0.0124868,24.0735,0.004282143,
2,0,0,1,0,46511.6,-0.00821564,-0.00859862,-49.5331,24,0.00620808,10,0.000425916,-1.3051,11.4386,0.005158,-9.9626,-0.00859862,
2,0,0,1,0,46511.6,-0.0210196,-0.0213691,-49.235,24,0.0054175,10,0.00105211,-1.30773,2.8638,0.020602,-39.5382,-0.0213691,
2,0,0,1,0,46511.6,-0.0338153,-0.0341831,-48.5854,24,0.00463474,10,0.0016608,-1.31349,1.95831,0.030128,-57.0909,-0.0341831,
2,0,0,1,0,46511.7,-0.0466193,-0.046962,-47.7675,24,0.00386385,10,0.00224326,-1.32087,1.64639,0.035836,-66.797,-0.046962,
2,0,0,1,0,46511.7,-0.0594121,-0.0597908,-46.9134,24,0.00310645,10,0.00280499,-1.3287,1.75011,0.0337122,-61.7575,-0.0597908,
2,0,0,1,0,46511.7,-0.0722189,-0.0725751,-46.1988,24,0.00236169,10,0.00335288,-1.33537,2.1291,0.0277112,-49.9902,-0.0725751,
2,0,0,1,0,46511.7,-0.0850146,-0.0853625,-45.6859,24,0.00162699,10,0.00389986,-1.34022,3.31659,0.0177894,-31.7284,-0.0853625,
2,0,0,1,0,46511.7,-0.0978158,-0.0981691,-45.3942,24,0.000898727,10,0.00445631,-1.343,9.31885,0.00633126,-11.2243,-0.0981691,
2,0,0,1,0,46511.7,-0.110611,-0.11098,-45.3577,24,0.000172887,10,0.00503379,-1.34335,-13.2211,-0.00446257,7.90776,-0.11098,
2,0,0,1,0,46511.8,-0.123418,-0.123758,-45.585,24,-0.000554543,10,0.00564149,-1.34118,-4.06453,-0.0145158,25.8446,-0.123758,
2,0,0,1,0,46511.8,-0.136214,-0.136496,-46.0085,24,-0.00128721,10,0.00627999,-1.33716,-2.62322,-0.0224915,40.4166,-0.136496,
2,0,0,1,0,46511.8,-0.149015,-0.149388,-46.6245,24,-0.00202827,10,0.00696514,-1.33139,-2.15249,-0.0274101,49.8731,-0.149388,
2,0,0,1,0,46511.8,-0.161816,-0.162162,-47.2771,24,-0.00277945,10,0.00766658,-1.32535,-2.11521,-0.0278933,51.4568,-0.1621625,
2,0,0,1,0,46511.8,-0.174615,-0.174939,-47.8996,24,-0.00354109,10,0.00837952,-1.31967,-2.37776,-0.0248133,46.3804,-0.174939,
2,0,0,1,0,46511.8,-0.187419,-0.187763,-48.4511,24,-0.00431221,10,0.00909732,-1.3147,-2.87133,-0.020548,38.8462,-0.187763,
2,0,0,1,0,46511.9,-0.199647,-0.19996,-48.8797,24,-0.00505717,10,0.00977397,-1.31087,0.237463,0.24846,-460.317,-0.19996,
2,0,0,1,1,46511.9,-0.192535,-0.192955,-36.9004,24,-0.00548556,10,0.00712011,-1.43297,-0.0707862,-0.833496,1229.42,-0.1929546,
2,0,0,1,1,46511.9,-0.179739,-0.180111,-25.16,24,-0.00597435,10,0.00453159,-1.59929,-0.0761262,-0.775029,763.009,-0.180111,
2,0,0,1,1,46511.9,-0.166932,-0.167302,-16.6715,24,-0.00630544,10,0.00278917,-1.77803,-0.0643242,-0.917229,593.336,-0.167302,
2,0,0,1,1,46511.9,-0.154139,-0.154542,-9.79252,24,-0.00651484,10,0.00151336,-2.00911,-0.0445496,-1.32437,493.832,-0.154542,
2,0,0,1,1,46511.9,-0.141335,-0.141787,-3.90195,24,-0.00662257,10,0.000553244,-2.40872,-0.0171826,-3.4337,432.351,-0.1417868,
2,1,0,1,1,46511.9,-0.12854,-0.128946,1.28772,24,-0.00664207,10,-0.000166047,-2.89018,0.0265698,2.22056,383.936,-0.128946,
2,1,0,1,1,46512,-0.115736,-0.116173,5.96429,24,-0.00658296,10,-0.000692887,-2.22444,0.0371951,1.58623,347.963,-0.116173,
2,1,0,1,1,46512,-0.102932,-0.103367,10.2542,24,-0.00645243,10,-0.00105995,-1.9891,0.0722121,0.817038,320.688,-0.103367,
2,1,0,1,1,46512,-0.0901362,-0.0905808,14.1832,24,-0.00625611,10,-0.00128473,-1.84823,0.109042,0.541075,297.053,-0.0905808,
2,1,0,1,1,46512,-0.0773322,-0.0777117,17.8276,24,-0.00599914,10,-0.00138541,-1.74891,0.151062,0.390567,270.325,-0.0777117,
2,1,0,1,1,46512,-0.0645393,-0.0649083,21.1478,24,-0.00568653,10,-0.00137267,-1.67473,0.194333,0.303602,249.8,-0.0649083,
2,1,0,1,1,46512,-0.0517325,-0.0521209,24.2196,24,-0.00532285,10,-0.00126235,-1.61583,0.242987,0.242811,228.867,-0.0521209,
2,1,0,1,1,46512.1,-0.0389369,-0.039361,26.999,24,-0.00491247,10,-0.00106271,-1.56865,0.300954,0.196043,206.143,-0.039361,
2,1,0,1,1,46512.1,-0.0261357,-0.0264909,29.4993,24,-0.00445976,10,-0.000781461,-1.53019,0.364822,0.161723,185.934,-0.0264909,
2,1,0,1,1,46512.1,-0.01334,-0.0137066,31.7221,24,-0.0039692,10,-0.000434802,-1.49864,0.449099,0.131374,162.501,-0.0137066,
2,1,0,1,1,46512.1,-0.000774629,-0.00119698,33.6533,24,-0.00345537,10,-4.02823e-05,-1.47297, , , ,-0.00119698,
2,1,0,0,1,46512.1,-0.000125413,-0.000592546,33.7623,24,-0.00342841,10,-2.00057e-05,-1.47157, , , ,-0.000592546,