File: Figure_codes/Fig_3-5/rawdata_trumpetplot_data/after 10th/20221101_1-115_003_TrumpetPlot_ParaChange_from10_every3_10_CV_C01_29.csv
mode,ox/red,error,control changes,counter inc.,time/s,control/V,Ewe/V,<I>/mA,cycle number,(Q-Qo)/C,I Range,P/W,log(|I|),Tafel slope mV/dec,alpha_eff,dI/d(E-IR),E-IR/V,
2,1,0,0,0,58324.3,-2.44065e-05,-0.000325324,5.10271,30,0.0000000E+000,10,-1.66003e-06,-2.2922, , , ,-0.000325324,
2,1,0,1,0,58324.3,0.00977853,0.00942483,7.28765,30,0.000312917,10,6.86849e-05,-2.13741,0.121074,0.487305,138.267,0.00942483,
2,1,0,1,0,58324.4,0.0197755,0.0193728,8.35246,30,0.0007062,10,0.00016181,-2.07819,0.230412,0.256063,83.3416,0.0193728,
2,1,0,1,0,58324.4,0.0297726,0.0294006,9.06867,30,0.00114274,10,0.000266624,-2.04246,0.331332,0.178069,63.0227,0.0294006,
2,1,0,1,0,58324.5,0.0397514,0.0393866,9.66456,30,0.00161049,10,0.000380654,-2.01482,0.374673,0.157471,59.3791,0.0393866,
2,1,0,1,0,58324.5,0.0497393,0.0493754,10.2264,30,0.00210672,10,0.000504931,-1.99028,0.4165,0.141657,56.5187,0.0493754,
2,1,0,1,0,58324.6,0.0597364,0.0594067,10.7981,30,0.0026322,10,0.000641477,-1.96665,0.425477,0.138668,58.3863,0.0594067,
2,1,0,1,0,58324.6,0.0697152,0.0693124,11.3721,30,0.00318536,10,0.000788225,-1.94416,0.452569,0.130367,57.9219,0.0693124,
2,1,0,1,0,58324.7,0.0796941,0.0793018,11.9752,30,0.00376816,10,0.000949652,-1.92172,0.479408,0.123068,57.4754,0.07930176,
2,1,0,1,0,58324.7,0.0896911,0.0892879,12.5238,30,0.00438095,10,0.00111822,-1.90226,0.501927,0.117547,57.5448,0.0892879,
2,1,0,1,0,58324.8,0.099679,0.0993105,13.0956,30,0.00502047,10,0.00130053,-1.88287,0.558757,0.105592,53.8914,0.0993105,
2,1,0,1,0,58324.8,0.109658,0.109273,13.6559,30,0.00568735,10,0.00149223,-1.86468,0.497895,0.118499,63.2206,0.109273,
2,1,0,1,0,58324.9,0.119655,0.119274,14.3915,30,0.00638796,10,0.00171654,-1.84189,0.421546,0.139961,78.5831,0.119274,
2,1,0,1,0,58324.9,0.129652,0.129242,15.2309,30,0.00712849,10,0.00196847,-1.81727,0.397754,0.148333,88.2251,0.129242,
2,1,0,1,0,58325,0.139631,0.13923,16.0655,30,0.00791011,10,0.0022368,-1.79411,0.483137,0.122118,76.5202,0.13923,
2,1,0,1,0,58325,0.149619,0.14925,16.7239,30,0.00872908,10,0.00249603,-1.77666,0.7023,0.0840096,54.8135,0.14925,
2,1,0,1,0,58325.1,0.159616,0.159266,17.0312,30,0.00957509,10,0.00271249,-1.76876,-13.6551,-0.00432073,-2.86887,0.159266,
2,1,0,1,0,58325.1,0.169595,0.169201,16.615,30,0.0104179,10,0.00281128,-1.7795,-0.445785,-0.132351,-85.7525,0.169201,
2,1,0,1,0,58325.2,0.179573,0.179248,15.3665,30,0.0112187,10,0.00275442,-1.81342,-0.225512,-0.261627,-156.729,0.179248,
2,1,0,1,0,58325.2,0.18957,0.189227,13.6763,30,0.0119451,10,0.00258792,-1.86403,-0.184218,-0.320272,-171.022,0.189227,
2,1,0,1,0,58325.3,0.199558,0.199191,12.142,30,0.0125876,10,0.00241857,-1.91571,-0.206458,-0.285773,-135.266,0.199191,
2,1,0,1,0,58325.3,0.209537,0.209175,10.9419,30,0.0131618,10,0.00228878,-1.96091,-0.238206,-0.247685,-105.913,0.209175,
2,1,0,1,0,58325.4,0.219534,0.219141,10.0629,30,0.0136857,10,0.00220519,-1.99728,-0.310378,-0.190091,-74.6553,0.219141,
2,1,0,1,0,58325.4,0.229531,0.229173,9.39938,30,0.0141717,10,0.00215408,-2.0269,-0.384026,-0.153636,-56.4487,0.229173,
2,1,0,1,0,58325.5,0.23951,0.239154,8.91526,30,0.0146282,10,0.00213212,-2.04987,-0.499186,-0.118192,-41.112,0.239154,
2,1,0,1,0,58325.5,0.249498,0.249138,8.52254,30,0.0150628,10,0.00212329,-2.06943,-0.561874,-0.105006,-34.9477,0.2491381,
2,1,0,1,0,58325.6,0.259495,0.259139,8.22505,30,0.015481,10,0.00213143,-2.08486,-0.622661,-0.0947547,-30.3715,0.259139,
2,1,0,1,0,58325.6,0.269474,0.269104,7.96244,30,0.0158844,10,0.00214273,-2.09895,-0.82074,-0.0718864,-22.3637,0.269104,
2,1,0,1,0,58325.7,0.279453,0.279081,7.75918,30,0.0162765,10,0.00216544,-2.11018,-0.971557,-0.0607273,-18.3763,0.279081,
2,1,0,1,0,58325.7,0.28945,0.289074,7.57241,30,0.0166595,10,0.00218899,-2.12077,-1.08602,-0.0543268,-16.0612,0.289074,
2,1,0,1,0,58325.8,0.299438,0.299122,7.41898,30,0.0170334,10,0.00221918,-2.12966,-0.0756768,-0.779632,-218.601,0.2991221,
2,1,0,1,0,58325.8,0.291747,0.291389,1.5879,30,0.0172127,10,0.000462695,-2.79918,0.00900724,6.55028,390.582,0.291389,
2,0,0,1,0,58325.9,0.28175,0.281375,-1.00883,30,0.0172182,10,-0.00028386,-2.99618,-0.012184,-4.8424,177.995,0.281375,
2,0,0,1,0,58325.9,0.27178,0.271403,-2.33181,30,0.0171317,10,-0.000632859,-2.63231,-0.0516345,-1.14265,103.378,0.271403,
2,0,0,1,0,58326,0.261783,0.261407,-3.15281,30,0.0169931,10,-0.000824166,-2.5013,-0.110196,-0.535409,65.7019,0.261407,
2,0,0,1,0,58326,0.251786,0.251415,-3.7244,30,0.0168205,10,-0.000936369,-2.42894,-0.173126,-0.340792,49.4649,0.251415,
2,0,0,1,0,58326.1,0.241807,0.241495,-4.16516,30,0.0166231,10,-0.00100587,-2.38037,-0.241402,-0.244406,39.7645,0.241495,
2,0,0,1,0,58326.1,0.231824,0.231488,-4.52797,30,0.0164061,10,-0.00104817,-2.3441,-0.300145,-0.196572,34.6837,0.231488,
2,0,0,1,0,58326.2,0.221822,0.221456,-4.8343,30,0.0161718,10,-0.00107059,-2.31567,-0.383533,-0.153833,29.0082,0.221456,
2,0,0,1,0,58326.2,0.211843,0.211495,-5.1184,30,0.0159235,10,-0.00108252,-2.29087,-0.466806,-0.126391,25.2285,0.211495,
2,0,0,1,0,58326.3,0.201865,0.201464,-5.37408,30,0.0156616,10,-0.00108268,-2.2697,-0.516005,-0.11434,23.9971,0.201464,
2,0,0,1,0,58326.3,0.191868,0.191489,-5.63011,30,0.0153864,10,-0.00107811,-2.24948,-0.482909,-0.122176,26.8628,0.191489,
2,0,0,1,0,58326.4,0.18188,0.181462,-5.90348,30,0.0150988,10,-0.00107126,-2.22889,-0.454607,-0.129782,29.8584,0.181462,
2,0,0,1,0,58326.4,0.171901,0.171522,-6.19021,30,0.0147975,10,-0.00106176,-2.20829,-0.457069,-0.129083,31.1728,0.171522,
2,0,0,1,0,58326.5,0.161904,0.161546,-6.5338,30,0.0144798,10,-0.00105551,-2.18483,-0.3876,-0.152219,38.8118,0.161546,
2,0,0,1,0,58326.5,0.151907,0.15155,-6.9905,30,0.0141423,10,-0.00105941,-2.15549,-0.298863,-0.197415,53.935,0.15155,
2,0,0,1,0,58326.6,0.141928,0.141555,-7.70806,30,0.0137769,10,-0.00109111,-2.11306,-0.195313,-0.302079,90.9158,0.141555,
2,0,0,1,0,58326.6,0.13194,0.131578,-8.85449,30,0.0133657,10,-0.00116505,-2.05284,-0.144941,-0.407063,140.789,0.1315776,
2,0,0,1,0,58326.7,0.121943,0.121586,-10.4431,30,0.0128843,10,-0.00126974,-1.98117,-0.14748,-0.400053,162.826,0.121586,
2,0,0,1,0,58326.7,0.111964,0.111613,-12.1155,30,0.0123213,10,-0.00135225,-1.91666,-0.17338,-0.340293,160.863,0.111613,
2,0,0,1,0,58326.8,0.101985,0.10162,-13.621,30,0.011678,10,-0.00138417,-1.86579,-0.232666,-0.253582,134.647,0.10162,
2,0,0,1,0,58326.8,0.0919883,0.0916296,-14.7965,30,0.0109659,10,-0.0013558,-1.82984,-0.335055,-0.17609,101.714,0.0916296,
2,0,0,1,0,58326.9,0.0820004,0.0816817,-15.5625,30,0.010206,10,-0.00127117,-1.80792,-0.707508,-0.0833913,50.5994,0.0816817,
2,0,0,1,0,58326.9,0.0720215,0.071705,-15.8251,30,0.0094211,10,-0.00113474,-1.80065,-6.32292,-0.00933113,5.76269,0.071705,
2,0,0,1,0,58327,0.0620245,0.0616503,-15.7589,30,0.00863062,10,-0.000971542,-1.80247,2.2369,0.0263758,-16.2149,0.0616503,
2,0,0,1,0,58327,0.0520275,0.0516546,-15.5688,30,0.0078472,10,-0.000804201,-1.80774,1.68469,0.0350214,-21.2816,0.0516546,
2,0,0,1,0,58327.1,0.0420486,0.0416867,-15.3529,30,0.00707554,10,-0.00064001,-1.81381,1.63711,0.0360392,-21.5947,0.0416867,
2,0,0,1,0,58327.1,0.0320607,0.0316989,-15.1019,30,0.00631552,10,-0.000478714,-1.82097,1.19626,0.0493205,-29.062,0.0316989,
2,0,0,1,0,58327.2,0.0220637,0.0216893,-14.776,30,0.00556846,10,-0.000320481,-1.83044,0.902258,0.0653915,-37.6741,0.0216893,
2,0,0,1,0,58327.2,0.0120848,0.0117068,-14.3349,30,0.0048418,10,-0.000167817,-1.8436,0.665302,0.0886816,-49.6487,0.0117068,
2,0,0,1,0,58327.3,0.00210598,0.00170921,-13.8627,30,0.00413903,10,-2.36943e-05,-1.85815,0.684408,0.0862059,-46.5214,0.001709211,
2,0,0,1,0,58327.3,-0.00789103,-0.00829949,-13.3124,30,0.00346015,10,0.000110486,-1.87574,0.635193,0.0928851,-48.3162,-0.00829949,
2,0,0,1,0,58327.4,-0.017879,-0.0182674,-12.9135,30,0.00280626,10,0.000235896,-1.88896,0.895224,0.0659053,-33.1885,-0.01826741,
2,0,0,1,0,58327.4,-0.0278578,-0.0282839,-12.6288,30,0.0021698,10,0.000357192,-1.89864,1.31616,0.0448272,-22.1201,-0.0282839,
2,0,0,1,0,58327.5,-0.0378549,-0.0382987,-12.5099,30,0.00154206,10,0.000479114,-1.90275,4.01181,0.0147066,-7.17047,-0.0382987,
2,0,0,1,0,58327.5,-0.0478519,-0.0482866,-12.4859,30,0.000917652,10,0.0006029,-1.90358,-3.18589,-0.0185191,9.03687,-0.0482866,
2,0,0,1,0,58327.6,-0.0578126,-0.0581686,-12.5953,30,0.00029329,10,0.000732652,-1.89979,-1.95903,-0.0301169,14.7976,-0.0581686,
2,0,0,1,0,58327.6,-0.0678187,-0.0682155,-12.7777,30,-0.000340787,10,0.000871635,-1.89355,-1.25509,-0.0470086,23.4592,-0.0682155,
2,0,0,1,0,58327.7,-0.0778157,-0.078212,-13.0576,30,-0.000986403,10,0.00102126,-1.88414,-1.00328,-0.0588073,29.9478,-0.07821203,
2,0,0,1,0,58327.7,-0.0877945,-0.0881883,-13.4082,30,-0.00164627,10,0.00118245,-1.87263,-0.750919,-0.0785703,41.1419,-0.0881883,
2,0,0,1,0,58327.8,-0.0977734,-0.0981149,-13.8479,30,-0.00232603,10,0.00135868,-1.85862,-0.663063,-0.0889809,48.0775,-0.0981149,
2,0,0,1,1,58327.8,-0.0936874,-0.09406,-7.45005,30,-0.00280048,10,0.000700752,-2.12784,-0.0245755,-2.40077,698.744,-0.09406,
2,0,0,1,1,58327.9,-0.0837086,-0.0841091,-2.128,30,-0.00302743,10,0.000178985,-2.67203,-0.0112462,-5.24624,417.379,-0.0841091,
2,1,0,1,1,58327.9,-0.0737025,-0.0740883,1.36455,30,-0.00304081,10,-0.000101097,-2.86501,0.00980436,6.01773,292.762,-0.07408829,
2,1,0,1,1,58328,-0.0637236,-0.0641104,3.82299,30,-0.00290802,10,-0.000245093,-2.4176,0.0420202,1.40409,208.302,-0.0641104,
2,1,0,1,1,58328,-0.0537447,-0.0541655,5.63348,30,-0.00266949,10,-0.00030514,-2.24922,0.0846035,0.697371,152.967,-0.0541655,
2,1,0,1,1,58328.1,-0.0437477,-0.0441689,6.95804,30,-0.00235258,10,-0.000307329,-2.15751,0.141109,0.418115,113.407,-0.0441689,
2,1,0,1,1,58328.1,-0.0337507,-0.0341307,7.91667,30,-0.00197911,10,-0.000270202,-2.10146,0.227329,0.259536,80.1624,-0.0341307,
2,1,0,1,1,58328.2,-0.0237809,-0.0241836,8.59856,30,-0.00156683,10,-0.000207944,-2.06557,0.351859,0.167681,56.1869,-0.0241836,
2,1,0,1,1,58328.2,-0.0137839,-0.0141489,9.04767,30,-0.00112491,10,-0.000128014,-2.04346,0.598,0.0986622,34.8489,-0.0141489,
2,1,0,1,1,58328.3,-0.0037869,-0.00421133,9.35364,30,-0.000664303,10,-3.93913e-05,-2.02902,0.862179,0.0684312,24.9596,-0.00421133,
2,1,0,1,1,58328.3,-2.55332e-05,-0.000363498,9.41691,30,-0.000488745,10,-3.42303e-06,-2.02609, , , ,-0.000363498,