File: Figure_codes/Fig_3-5/rawdata_trumpetplot_data/after 10th/20221101_1-115_003_TrumpetPlot_ParaChange_from10_every3_07_CV_C01_2.csv
mode,ox/red,error,control changes,counter inc.,time/s,control/V,Ewe/V,<I>/mA,cycle number,(Q-Qo)/C,I Range,P/W,log(|I|),Tafel slope mV/dec,alpha_eff,dI/d(E-IR),E-IR/V,
2,0,0,0,0,5105.28,2.44065e-05,-0.00042076,-2.69695,3,0.0000000E+000,10,1.13477e-06,-2.56913, , , ,-0.00042076,
2,1,0,1,0,5105.4,0.007288,0.00699743,1.7608,3,6.39384e-05,10,1.23211e-05,-2.75429,0.0265709,2.22047,145.75,0.00699743,
2,1,0,1,0,5105.52,0.0147816,0.0144266,2.32474,3,0.000328181,10,3.35381e-05,-2.63363,0.112089,0.526368,47.7685,0.0144266,
2,1,0,1,0,5105.65,0.0222712,0.0220086,2.63224,3,0.000640304,10,5.7932e-05,-2.57967,0.175294,0.336578,34.3917,0.0220086,
2,1,0,1,0,5105.77,0.0297648,0.029477,2.89223,3,0.000986436,10,8.52543e-05,-2.53877,0.18744,0.314767,35.3521,0.029477,
2,1,0,1,0,5105.9,0.0372518,0.0369602,3.14278,3,0.00136493,10,0.000116158,-2.50269,0.193698,0.304598,37.4908,0.0369602,
2,1,0,1,0,5106.02,0.0447467,0.0444484,3.41901,3,0.00177762,10,0.000151969,-2.4661,0.216981,0.271913,36.4407,0.0444484,
2,1,0,1,0,5106.15,0.052235,0.0519115,3.70918,3,0.00222486,10,0.000192549,-2.43072,0.221088,0.266862,38.5873,0.0519115,
2,1,0,1,0,5106.27,0.0597299,0.0594863,3.99073,3,0.0027073,10,0.000237394,-2.39895,0.247886,0.238013,36.9118,0.0594863,
2,1,0,1,0,5106.4,0.0672156,0.066908,4.24251,3,0.00322241,10,0.000283858,-2.37238,0.257064,0.229515,37.9544,0.066908,
2,1,0,1,0,5106.52,0.0747105,0.0744309,4.47696,3,0.00376938,10,0.000333224,-2.34902,0.354574,0.166397,29.0988,0.0744309,
2,1,0,1,0,5106.65,0.0821988,0.0819059,4.70307,3,0.00434457,10,0.000385209,-2.32762,0.40889,0.144293,26.4834,0.0819059,
2,1,0,1,0,5106.77,0.0896937,0.0893868,4.92734,3,0.00494789,10,0.000440439,-2.30739,0.376614,0.156659,30.1194,0.0893868,
2,1,0,1,0,5106.9,0.0971794,0.0969082,5.19458,3,0.00558067,10,0.000503398,-2.28445,0.267949,0.220191,44.6742,0.0969082,
2,1,0,1,0,5107.02,0.104674,0.104401,5.56984,3,0.00625402,10,0.000581497,-2.25416,0.21502,0.274393,59.7781,0.1044011,
2,1,0,1,0,5107.15,0.112163,0.111849,6.0547,3,0.00698115,10,0.000677212,-2.21791,0.220835,0.267167,63.067,0.111849,
2,1,0,1,0,5107.27,0.119657,0.119355,6.54113,3,0.00776969,10,0.000780717,-2.18435,0.263059,0.224284,57.1131,0.119355,
2,1,0,1,0,5107.4,0.127143,0.126825,6.90928,3,0.00861178,10,0.000876272,-2.16057,0.337251,0.174944,47.1915,0.126825,
2,1,0,1,0,5107.52,0.134638,0.134338,7.22297,3,0.00949773,10,0.000970322,-2.14128,0.451201,0.130762,36.9097,0.134338,
2,1,0,1,0,5107.65,0.142126,0.141835,7.43495,3,0.0104171,10,0.00105453,-2.12872,1.93416,0.0305041,8.83456,0.141835,
2,1,0,1,0,5107.77,0.149621,0.149309,7.22317,3,0.0113413,10,0.00107848,-2.14127,-0.207035,-0.284976,-79.8589,0.1493087,
2,1,0,1,0,5107.9,0.157107,0.156795,6.22665,3,0.0121898,10,0.000976311,-2.20575,-0.0836437,-0.705373,-170.94,0.156795,
2,1,0,1,0,5108.02,0.164602,0.164267,4.94834,3,0.0128876,10,0.000812848,-2.30554,-0.0759258,-0.777074,-150.558,0.164267,
2,1,0,1,0,5108.15,0.17209,0.171775,4.07599,3,0.0134483,10,0.000700154,-2.38977,-0.106395,-0.554537,-88.6053,0.171775,
2,1,0,1,0,5108.27,0.179585,0.179304,3.56759,3,0.0139255,10,0.000639684,-2.44762,-0.150465,-0.392117,-54.6759,0.179304,
2,1,0,1,0,5108.4,0.187072,0.186742,3.23697,3,0.0143508,10,0.000604479,-2.48986,-0.222914,-0.264676,-33.4296,0.186742,
2,1,0,1,0,5108.52,0.194566,0.194239,3.01465,3,0.0147425,10,0.000585564,-2.52076,-0.333284,-0.177026,-20.8719,0.194239,
2,1,0,1,0,5108.65,0.202055,0.201728,2.86639,3,0.0151111,10,0.000578232,-2.54267,-0.365441,-0.161449,-18.0686,0.201728,
2,1,0,1,0,5108.77,0.209549,0.209239,2.7692,3,0.0154644,10,0.000579424,-2.55765,-0.39812,-0.148197,-15.984,0.2092391,
2,1,0,1,0,5108.9,0.217036,0.216717,2.68646,3,0.0158061,10,0.000582201,-2.57082,-0.758178,-0.0778181,-8.16008,0.216717,
2,1,0,1,0,5109.02,0.224529,0.224257,2.627,3,0.0161398,10,0.000589123,-2.58054,-0.887628,-0.0664693,-6.83169,0.224257,
2,1,0,1,0,5109.15,0.232019,0.23171,2.5827,3,0.016467,10,0.000598438,-2.58793,-1.46084,-0.0403877,-4.0753,0.23171,
2,1,0,1,0,5109.27,0.239513,0.239227,2.54744,3,0.0167895,10,0.000609417,-2.5939,-1.01792,-0.0579611,-5.75823,0.239227,
2,1,0,1,0,5109.4,0.247001,0.24673,2.52594,3,0.0171073,10,0.000623223,-2.59758,-1.3706,-0.0430467,-4.21475,0.2467296,
2,1,0,1,0,5109.52,0.254493,0.254178,2.48439,3,0.0174216,10,0.000631477,-2.60478,-3.48702,-0.0169199,-1.64439,0.254178,
2,1,0,1,0,5109.64,0.261983,0.261735,2.45337,3,0.0177322,10,0.000642131,-2.61024,-1.08766,-0.054245,-5.2132,0.261735,
2,1,0,1,0,5109.77,0.269477,0.269213,2.43255,3,0.0180397,10,0.000654875,-2.61394,-1.62893,-0.0362201,-3.43543,0.269213,
2,1,0,1,0,5109.89,0.276965,0.276701,2.40994,3,0.0183439,10,0.000666833,-2.61799,-3.7221,-0.0158513,-1.4895,0.276701,
2,1,0,1,0,5110.02,0.284457,0.284204,2.37995,3,0.0186451,10,0.00067639,-2.62343,-5.14553,-0.0114663,-1.0661,0.284204,
2,1,0,1,0,5110.14,0.291947,0.291682,2.34933,3,0.0189429,10,0.000685256,-2.62906,-1.29095,-0.0457027,-4.20735,0.291682,
2,1,0,1,0,5110.27,0.29944,0.299158,2.33166,3,0.0192378,10,0.000697535,-2.63233,-0.0046288,-12.7463,-770.657,0.299158,
2,0,0,1,0,5110.38,0.293742,0.293457,-0.707298,3,0.0192523,10,-0.000207562,-3.1504,-0.0220985,-2.66987,68.2295,0.293457,
2,0,0,1,0,5110.51,0.286254,0.285922,-0.99245,3,0.0191417,10,-0.000283763,-3.00329,-0.0813296,-0.725444,27.9912,0.285922,
2,0,0,1,0,5110.63,0.278761,0.278474,-1.15877,3,0.019004,10,-0.000322686,-2.936,-0.144084,-0.409482,18.6175,0.278474,
2,0,0,1,0,5110.76,0.271272,0.270991,-1.28809,3,0.0188485,10,-0.000349061,-2.89005,-0.201106,-0.293378,14.7565,0.270991,
2,0,0,1,0,5110.88,0.263778,0.263467,-1.39433,3,0.0186786,10,-0.000367358,-2.85564,-0.266433,-0.221444,12.0034,0.263467,
2,0,0,1,0,5111.01,0.25629,0.255995,-1.48633,3,0.018497,10,-0.000380494,-2.82788,-0.293241,-0.2012,11.5783,0.255995,
2,0,0,1,0,5111.13,0.248797,0.248502,-1.55522,3,0.0183051,10,-0.000386474,-2.80821,-0.323619,-0.182313,11.107,0.248502,
2,0,0,1,0,5111.26,0.241308,0.241021,-1.62405,3,0.0181037,10,-0.00039143,-2.7894,-0.493163,-0.119636,7.62838,0.241021,
2,0,0,1,0,5111.38,0.233814,0.233491,-1.7019,3,0.0178934,10,-0.000397378,-2.76907,-0.44284,-0.133231,8.85259,0.233491,
2,0,0,1,0,5111.51,0.226326,0.226017,-1.77467,3,0.0176745,10,-0.000401105,-2.75088,-0.414159,-0.142457,9.82248,0.226017,
2,0,0,1,0,5111.63,0.218834,0.218527,-1.8376,3,0.0174469,10,-0.000401564,-2.73575,-0.366444,-0.161007,11.575,0.218527,
2,0,0,1,0,5111.76,0.211344,0.211072,-1.90405,3,0.017211,10,-0.000401892,-2.72032,-0.547014,-0.107858,8.03596,0.211072,
2,0,0,1,0,5111.88,0.203856,0.203569,-1.98843,3,0.0169657,10,-0.000404782,-2.70149,-0.66468,-0.0887645,6.88686,0.203569,
2,0,0,1,0,5112.01,0.196362,0.196063,-2.06784,3,0.0167106,10,-0.000405427,-2.68448,-0.409169,-0.144195,11.6382,0.196063,
2,0,0,1,0,5112.13,0.18887,0.188526,-2.16086,3,0.0164441,10,-0.000407377,-2.66537,-0.279409,-0.21116,17.8788,0.188526,
2,0,0,1,0,5112.26,0.18138,0.18103,-2.28896,3,0.016164,10,-0.000414372,-2.64036,-0.284273,-0.207547,18.6081,0.18103,
2,0,0,1,0,5112.38,0.173892,0.173575,-2.44966,3,0.0158665,10,-0.000425201,-2.61089,-0.234219,-0.251901,24.0836,0.173575,
2,0,0,1,0,5112.51,0.166398,0.16606,-2.67998,3,0.0155448,10,-0.000445037,-2.57187,-0.181534,-0.325008,33.9721,0.16606,
2,0,0,1,0,5112.63,0.158905,0.158555,-3.01688,3,0.0151886,10,-0.000478341,-2.52044,-0.123883,-0.476256,56.1629,0.158555,
2,0,0,1,0,5112.75,0.151417,0.15115,-3.53641,3,0.0147795,10,-0.000534529,-2.45144,-0.0962446,-0.613021,85.0076,0.15115,
2,0,0,1,0,5112.88,0.143927,0.143614,-4.34572,3,0.0142879,10,-0.000624105,-2.36194,-0.0778579,-0.75779,128.773,0.143614,
2,0,0,1,0,5113,0.136435,0.136147,-5.39628,3,0.0136785,10,-0.000734689,-2.26791,-0.0871238,-0.677197,142.244,0.136147,
2,0,0,1,0,5113.13,0.128941,0.128608,-6.40869,3,0.0129377,10,-0.000824209,-2.19323,-0.120064,-0.491404,122.608,0.128608,
2,0,0,1,0,5113.25,0.121453,0.121139,-7.14637,3,0.0120854,10,-0.000865704,-2.14591,-0.221435,-0.266444,74.2437,0.121139,
2,0,0,1,0,5113.38,0.113963,0.113669,-7.51838,3,0.0111635,10,-0.000854607,-2.12388,-0.774459,-0.0761822,22.3464,0.113669,
2,0,0,1,0,5113.5,0.106471,0.106193,-7.55931,3,0.0102157,10,-0.000802745,-2.12152,0.935138,0.0630923,-18.5986,0.106193,
2,0,0,1,0,5113.63,0.0989825,0.0987012,-7.31283,3,0.00928291,10,-0.000721785,-2.13591,0.374126,0.157701,-44.9495,0.0987012,
2,0,0,1,0,5113.75,0.0914889,0.0911463,-6.86615,3,0.00839436,10,-0.000625823,-2.16329,0.261097,0.225969,-60.5452,0.0911463,
2,0,0,1,0,5113.88,0.0839993,0.0836986,-6.41437,3,0.0075642,10,-0.000536873,-2.19285,0.265664,0.222085,-55.6241,0.0836986,
2,0,0,1,0,5114,0.076507,0.0761385,-6.08863,3,0.00678309,10,-0.000463579,-2.21548,0.363931,0.162119,-38.4805,0.0761385,
2,0,0,1,0,5114.13,0.0690187,0.0687165,-5.84491,3,0.0060373,10,-0.000401642,-2.23322,0.489028,0.120648,-27.5248,0.0687165,
2,0,0,1,0,5114.25,0.0615251,0.0612176,-5.64794,3,0.00531681,10,-0.000345754,-2.24811,0.529416,0.111444,-24.6272,0.0612176,
2,0,0,1,0,5114.38,0.0540355,0.0537042,-5.46032,3,0.00462063,10,-0.000293242,-2.26278,0.499544,0.118108,-25.1924,0.0537042,
2,0,0,1,0,5114.5,0.0465432,0.0462206,-5.26016,3,0.00394837,10,-0.000243128,-2.279,0.404197,0.145968,-29.9492,0.0462206,
2,0,0,1,0,5114.63,0.0390549,0.0387243,-5.03353,3,0.00330406,10,-0.00019492,-2.29813,0.323221,0.182538,-35.7504,0.0387243,
2,0,0,1,0,5114.75,0.0315613,0.0312441,-4.75849,3,0.00269088,10,-0.000148674,-2.32253,0.308078,0.19151,-35.5308,0.0312441,
2,0,0,1,0,5114.88,0.0240717,0.023751,-4.48891,3,0.00211175,10,-0.000106616,-2.34786,0.310833,0.189812,-33.3243,0.023751,
2,0,0,1,0,5115,0.0165781,0.0162666,-4.28535,3,0.00156229,10,-6.9708e-05,-2.36801,0.396604,0.148763,-24.8609,0.0162666,
2,0,0,1,0,5115.13,0.00909108,0.00882453,-4.13994,3,0.00103555,10,-3.6533e-05,-2.38301,0.753145,0.0783382,-12.6382,0.00882453,
2,0,0,1,0,5115.25,0.00159616,0.00124964,-4.10185,3,0.000521711,10,-5.12583e-06,-2.38702, , , ,0.00124964,
2,0,0,1,0,5115.28,0.000199195,-0.000161173,-4.07005,3,0.000426082,10,6.5598e-07,-2.3904, , , ,-0.000161173,