File: Figure_codes/Fig_3-5/rawdata_trumpetplot_data/after 10th/20221101_1-115_003_TrumpetPlot_ParaChange_from10_every3_13_CV_C01_18.csv
mode,ox/red,error,control changes,counter inc.,time/s,control/V,Ewe/V,<I>/mA,cycle number,(Q-Qo)/C,I Range,P/W,log(|I|),Tafel slope mV/dec,alpha_eff,dI/d(E-IR),E-IR/V,
2,1,0,1,0,36660.2,2.44065e-05,-0.000325324,17.8513,19,0.0000000E+000,10,-5.80746e-06,-1.74833, , , ,-0.000325324,
2,1,0,1,0,36660.2,0.0122624,0.0119139,21.8914,19,0.00030496,10,0.000260811,-1.65973,0.196864,0.2997,254.098,0.0119139,
2,1,0,1,0,36660.2,0.0250636,0.0247215,24.7304,19,0.000679102,10,0.000611373,-1.60677,0.283449,0.20815,200.257,0.0247215,
2,1,0,1,0,36660.3,0.0378704,0.0375057,27.1011,19,0.00109448,10,0.00101645,-1.56701,0.360156,0.163818,172.961,0.0375057,
2,1,0,1,0,36660.3,0.0506632,0.0503292,29.2064,19,0.00154538,10,0.00146994,-1.53452,0.42117,0.140086,159.539,0.0503292,
2,1,0,1,0,36660.3,0.0634672,0.0630976,31.2128,19,0.00202901,10,0.00196946,-1.50567,0.467056,0.126323,153.767,0.0630976,
2,1,0,1,0,36660.3,0.0762628,0.0758999,33.1878,19,0.00254435,10,0.00251895,-1.47902,0.487102,0.121124,156.839,0.0758999,
2,1,0,1,0,36660.3,0.0890668,0.088717,35.2028,19,0.00309167,10,0.00312309,-1.45342,0.505073,0.116815,160.521,0.088717,
2,1,0,1,0,36660.3,0.10186,0.101494,37.2658,19,0.00367172,10,0.00378225,-1.42869,0.528124,0.111716,162.512,0.101494,
2,1,0,1,0,36660.3,0.114666,0.114253,39.3749,19,0.00428512,10,0.00449869,-1.40478,0.53959,0.109342,168.076,0.114253,
2,1,0,1,0,36660.4,0.127462,0.127069,41.5716,19,0.00493281,10,0.00528246,-1.3812,0.55233,0.10682,173.301,0.127069,
2,1,0,1,0,36660.4,0.140263,0.139815,43.8354,19,0.00561607,10,0.00612884,-1.35818,0.529324,0.111463,190.955,0.139815,
2,1,0,1,0,36660.4,0.153064,0.152675,46.3893,19,0.00633834,10,0.00708251,-1.33358,0.54512,0.108233,195.908,0.152675,
2,1,0,1,0,36660.4,0.165866,0.165493,48.8588,19,0.00710085,10,0.00808577,-1.31106,0.605437,0.0974503,185.703,0.165493,
2,1,0,1,0,36660.4,0.178667,0.178288,51.1001,19,0.00790121,10,0.00911056,-1.29158,0.742131,0.0795007,158.332,0.178288,
2,1,0,1,0,36660.4,0.191463,0.191147,52.8563,19,0.0087339,10,0.0101033,-1.2769,1.14351,0.0515956,106.175,0.191147,
2,1,0,1,0,36660.5,0.204269,0.203894,53.7125,19,0.00958798,10,0.0109517,-1.26992,5.28405,0.0111657,23.3405,0.203894,
2,1,0,1,0,36660.5,0.217062,0.216752,53.4012,19,0.0104466,10,0.0115748,-1.27245,-1.70665,-0.0345706,-71.8452,0.216752,
2,1,0,1,0,36660.5,0.229866,0.229576,51.8744,19,0.0112903,10,0.0119091,-1.28505,-0.732211,-0.0805779,-162.708,0.229576,
2,1,0,1,0,36660.5,0.242662,0.242319,49.3013,19,0.0121006,10,0.0119466,-1.30714,-0.487819,-0.120947,-232.242,0.242319,
2,1,0,1,0,36660.5,0.255466,0.255095,46.0638,19,0.0128638,10,0.0117506,-1.33664,-0.401101,-0.147095,-264.22,0.255095,
2,1,0,1,0,36660.5,0.268259,0.267917,42.6529,19,0.0135732,10,0.0114274,-1.37005,-0.377434,-0.156319,-260.295,0.267917,
2,1,0,1,0,36660.6,0.281065,0.280765,39.4712,19,0.0142295,10,0.0110821,-1.40372,-0.389318,-0.151547,-233.643,0.280765,
2,1,0,1,0,36660.6,0.293861,0.293574,36.6851,19,0.014838,10,0.0107698,-1.43551,-0.424134,-0.139107,-199.778,0.293574,
2,1,0,1,0,36660.6,0.298983,0.29881,33.3255,19,0.0151597,10,0.00995799,-1.47722,0.0409869,1.43948,1654.56,0.29881,
2,1,0,1,0,36660.6,0.286187,0.285977,17.5457,19,0.01555,10,0.00501766,-1.75583,0.0443165,1.33133,912.35,0.285977,
2,1,0,1,0,36660.6,0.273386,0.273104,8.07538,19,0.0157491,10,0.00220542,-2.09284,0.0290879,2.02833,615.007,0.273104,
2,1,0,1,0,36660.6,0.260585,0.260284,1.43433,19,0.0158217,10,0.000373333,-2.84335,0.0220979,2.66993,441.118,0.260284,
2,0,0,1,0,36660.6,0.247783,0.247511,-3.4505,19,0.0158032,10,-0.000854037,-2.46212,-0.0192264,-3.0687,333.813,0.247511,
2,0,0,1,0,36660.7,0.234982,0.234682,-7.18755,19,0.0157164,10,-0.00168679,-2.14342,-0.0621911,-0.948688,257.947,0.234682,
2,0,0,1,0,36660.7,0.222187,0.221932,-10.1258,19,0.0155766,10,-0.00224723,-1.99457,-0.11118,-0.53067,207.348,0.221932,
2,0,0,1,0,36660.7,0.20938,0.209079,-12.5424,19,0.0153943,10,-0.00262236,-1.90162,-0.168625,-0.349888,170.098,0.209079,
2,0,0,1,0,36660.7,0.196587,0.19627,-14.5617,19,0.0151769,10,-0.00285803,-1.83679,-0.226125,-0.260918,147.726,0.19627,
2,0,0,1,0,36660.7,0.183783,0.183478,-16.3358,19,0.0149292,10,-0.00299726,-1.78686,-0.281962,-0.209248,133.195,0.1834781,
2,0,0,1,0,36660.7,0.170987,0.170704,-17.9743,19,0.0146544,10,-0.00306829,-1.74535,-0.324511,-0.181812,127.597,0.170704,
2,0,0,1,0,36660.8,0.158183,0.1579,-19.6526,19,0.0143531,10,-0.00310315,-1.70658,-0.331057,-0.178217,136.829,0.1579,
2,0,0,1,0,36660.8,0.145385,0.145097,-21.5581,19,0.0140237,10,-0.00312801,-1.66639,-0.299955,-0.196696,165.829,0.1450967,
2,0,0,1,0,36660.8,0.132584,0.132295,-24.0016,19,0.0136599,10,-0.0031753,-1.61976,-0.249465,-0.236506,222.239,0.132295,
2,0,0,1,0,36660.8,0.119782,0.119496,-27.2647,19,0.0132506,10,-0.00325803,-1.5644,-0.217794,-0.270898,288.96,0.119496,
2,0,0,1,0,36660.8,0.106987,0.106683,-31.291,19,0.0127823,10,-0.00333823,-1.50458,-0.219422,-0.268888,328.131,0.106683,
2,0,0,1,0,36660.8,0.0941801,0.0939162,-35.5183,19,0.0122473,10,-0.00333574,-1.44955,-0.252926,-0.23327,322.642,0.0939162,
2,0,0,1,0,36660.9,0.0813844,0.0811701,-39.4379,19,0.0116466,10,-0.00320118,-1.40409,-0.310735,-0.189872,291.811,0.0811701,
2,0,0,1,0,36660.9,0.0685832,0.0683318,-42.9555,19,0.0109861,10,-0.00293523,-1.36698,-0.402727,-0.146501,244.884,0.0683318,
2,0,0,1,0,36660.9,0.0557876,0.0555316,-45.6967,19,0.0102755,10,-0.00253761,-1.34011,-0.556392,-0.10604,188.79,0.0555316,
2,0,0,1,0,36660.9,0.0429808,0.0426964,-47.8037,19,0.00952632,10,-0.00204105,-1.32054,-0.797551,-0.0739764,137.759,0.0426964,
2,0,0,1,0,36660.9,0.030188,0.0298623,-49.2482,19,0.00874888,10,-0.00147067,-1.30761,-1.24233,-0.0474912,91.1637,0.0298623,
2,0,0,1,0,36660.9,0.017384,0.0170791,-50.1859,19,0.00795264,10,-0.000857131,-1.29942,-2.07362,-0.0284527,55.6617,0.0170791,
2,0,0,1,0,36660.9,0.00458834,0.00429699,-50.6831,19,0.00714507,10,-0.000217785,-1.29514,-4.41053,-0.0133771,26.4447,0.00429699,
2,0,0,1,0,36661,-0.00821564,-0.00856999,-50.8272,19,0.00633214,10,0.000435588,-1.2939,18.3906,0.00320816,-6.35821,-0.00856999,
2,0,0,1,0,36661,-0.0210196,-0.0214073,-50.5514,19,0.00552057,10,0.00108217,-1.29627,3.0547,0.0193145,-38.0652,-0.0214073,
2,0,0,1,0,36661,-0.0338153,-0.0341703,-49.8971,19,0.0047166,10,0.001705,-1.30192,1.86303,0.0316688,-61.6246,-0.0341703,
2,0,0,1,0,36661,-0.0466193,-0.0470246,-49.0049,19,0.00392527,10,0.00230444,-1.30976,1.50532,0.0391944,-74.9308,-0.0470246,
2,0,0,1,0,36661,-0.0594121,-0.0597484,-48.0307,19,0.00314908,10,0.00286976,-1.31848,1.53367,0.0384698,-72.133,-0.0597484,
2,0,0,1,0,36661,-0.0722189,-0.0726037,-47.1723,19,0.00238766,10,0.00342489,-1.32631,1.83988,0.0320673,-59.0773,-0.0726037,
2,0,0,1,0,36661.1,-0.0850146,-0.0853753,-46.5271,19,0.00163834,10,0.00397226,-1.33229,2.66157,0.0221673,-40.2891,-0.0853753,
2,0,0,1,0,36661.1,-0.0978158,-0.0981733,-46.1586,19,0.00089714,10,0.00453154,-1.33575,5.79363,0.0101836,-18.3596,-0.0981733,
2,0,0,1,0,36661.1,-0.110611,-0.11095,-46.0668,19,0.000159679,10,0.00511112,-1.33661,-27.4329,-0.0021507,3.86962,-0.11095,
2,0,0,1,0,36661.1,-0.123418,-0.123725,-46.2589,19,-0.00057865,10,0.00572337,-1.3348,-4.26982,-0.0138179,24.9612,-0.123725,
2,0,0,1,0,36661.1,-0.136214,-0.136526,-46.6734,19,-0.00132195,10,0.00637213,-1.33093,-2.60351,-0.0226617,41.3117,-0.136526,
2,0,0,1,0,36661.1,-0.149015,-0.149384,-47.2943,19,-0.00207376,10,0.00706499,-1.32519,-2.0578,-0.0286714,52.9429,-0.149384,
2,0,0,1,0,36661.2,-0.161816,-0.162222,-48.0025,19,-0.00283623,10,0.00778706,-1.31874,-2.01131,-0.0293342,54.9561,-0.162222,
2,0,0,1,0,36661.2,-0.174615,-0.174955,-48.7122,19,-0.00361009,10,0.00852245,-1.31236,-2.11638,-0.0278777,52.9774,-0.174955,
2,0,0,1,0,36661.2,-0.187419,-0.187754,-49.3473,19,-0.00439471,10,0.00926517,-1.30674,-2.40178,-0.0245651,47.2975,-0.187754,
2,0,0,1,0,36661.2,-0.199647,-0.19996,-49.8606,19,-0.00515404,10,0.00997011,-1.30224,0.25964,0.227238,-430.057,-0.19996,
2,0,0,1,1,36661.2,-0.192535,-0.19293,-37.9459,19,-0.0055934,10,0.00732092,-1.42083,-0.0711934,-0.828729,1253.54,-0.19293,
2,0,0,1,1,36661.2,-0.179739,-0.180152,-25.8205,19,-0.00609567,10,0.00465162,-1.58804,-0.0753575,-0.782934,790.113,-0.180152,
2,0,0,1,1,36661.2,-0.166932,-0.167328,-16.9687,19,-0.00643415,10,0.00283933,-1.77035,-0.0630734,-0.935418,615.615,-0.167328,
2,0,0,1,1,36661.3,-0.154139,-0.154555,-9.79496,19,-0.00664587,10,0.00151386,-2.009,-0.0424515,-1.38982,517.954,-0.154555,
2,0,0,1,1,36661.3,-0.141335,-0.141736,-3.6781,19,-0.00675186,10,0.000521319,-2.43438,-0.0149171,-3.95519,445.259,-0.1417359,
2,1,0,1,1,36661.3,-0.12854,-0.12898,1.6722,19,-0.00676644,10,-0.000215681,-2.77671,0.0194636,3.0313,395.98,-0.12898,
2,1,0,1,1,36661.3,-0.115736,-0.116213,6.47509,19,-0.00669995,10,-0.000752489,-2.18875,0.0394926,1.49395,358.788,-0.116213,
2,1,0,1,1,36661.3,-0.102932,-0.103388,10.877,19,-0.00656018,10,-0.00112456,-1.96349,0.0754708,0.781759,325.886,-0.103388,
2,1,0,1,1,36661.3,-0.0901361,-0.0905956,14.8866,19,-0.00635327,10,-0.00134866,-1.82721,0.112746,0.523299,301.282,-0.0905956,
2,1,0,1,1,36661.4,-0.0773322,-0.0777403,18.5678,19,-0.00608484,10,-0.00144347,-1.73124,0.155216,0.380116,273.964,-0.0777403,
2,1,0,1,1,36661.4,-0.0645393,-0.0649402,21.9083,19,-0.00576023,10,-0.00142273,-1.65939,0.200691,0.293984,250.677,-0.0649402,
2,1,0,1,1,36661.4,-0.0517325,-0.0521676,24.9849,19,-0.0053842,10,-0.0013034,-1.60232,0.250816,0.235232,228.844,-0.0521676,
2,1,0,1,1,36661.4,-0.0389369,-0.0393239,27.7661,19,-0.00496146,10,-0.00109187,-1.55649,0.311495,0.189409,204.82,-0.0393239,
2,1,0,1,1,36661.4,-0.0261357,-0.0265227,30.2615,19,-0.00449661,10,-0.000802615,-1.51911,0.377903,0.156125,184.039,-0.0265227,
2,1,0,1,1,36661.4,-0.01334,-0.0136971,32.4559,19,-0.00399423,10,-0.00044455,-1.48871,0.46308,0.127408,161.174,-0.0136971,
2,1,0,1,1,36661.5,-0.000774629,-0.0011763,34.3292,19,-0.00346929,10,-4.03815e-05,-1.46434, , , ,-0.0011763,
2,1,0,0,1,36661.5,-0.000125413,-0.000554371,34.4333,19,-0.0034418,10,-1.90888e-05,-1.46302, , , ,-0.000554371,