File: Figure_codes/Fig_3-5/rawdata_trumpetplot_data/after 10th/20221101_1-115_003_TrumpetPlot_ParaChange_from10_every3_06_CV_C01_12.csv
mode,ox/red,error,control changes,counter inc.,time/s,control/V,Ewe/V,<I>/mA,cycle number,(Q-Qo)/C,I Range,P/W,log(|I|),Tafel slope mV/dec,alpha_eff,dI/d(E-IR),E-IR/V,
2,0,0,0,0,24791.6,2.44065e-05,-0.000363498,-1.41471,13,0.0000000E+000,10,5.14244e-07,-2.84933, , , ,-0.000363498,
2,1,0,1,0,24791.8,0.00729063,0.00698239,1.23958,13,9.72518e-05,10,8.65523e-06,-2.90673,0.0316271,1.86549,87.0741,0.00698239,
2,1,0,1,0,24792,0.014778,0.0144876,1.60627,13,0.000372192,10,2.3271e-05,-2.79418,0.106929,0.551767,34.3832,0.0144876,
2,1,0,1,0,24792.1,0.0222743,0.0219559,1.81264,13,0.000696697,10,3.97982e-05,-2.74169,0.166993,0.353309,25.018,0.0219559,
2,1,0,1,0,24792.3,0.0297626,0.0294463,1.99638,13,0.00105655,10,5.87861e-05,-2.69976,0.195962,0.301078,23.4276,0.0294463,
2,1,0,1,0,24792.5,0.0372544,0.03691,2.17849,13,0.0014504,10,8.04081e-05,-2.66184,0.224166,0.263198,22.3367,0.03691,
2,1,0,1,0,24792.7,0.0447472,0.0444109,2.34787,13,0.00187783,10,0.000104271,-2.62933,0.225872,0.26121,24.0142,0.0444109,
2,1,0,1,0,24792.9,0.0522345,0.051908,2.52654,13,0.00233776,10,0.000131147,-2.59747,0.24326,0.242538,23.8575,0.051908,
2,1,0,1,0,24793.1,0.0597309,0.0594362,2.68504,13,0.00282912,10,0.000159589,-2.57105,0.298691,0.197529,20.6687,0.0594362,
2,1,0,1,0,24793.3,0.0672182,0.0669041,2.82873,13,0.00334833,10,0.000189254,-2.54841,0.339874,0.173594,19.1409,0.0669041,
2,1,0,1,0,24793.4,0.0747074,0.074415,2.95659,13,0.00389305,10,0.000220015,-2.52921,0.433355,0.136147,15.6598,0.074415,
2,1,0,1,0,24793.6,0.0822019,0.0818855,3.05412,13,0.00445989,10,0.000250088,-2.51511,0.553065,0.106678,12.7598,0.0818855,
2,1,0,1,0,24793.8,0.0896911,0.0893696,3.17017,13,0.00504582,10,0.000283317,-2.49892,0.452989,0.130246,16.1291,0.0893696,
2,1,0,1,0,24794,0.097182,0.0968661,3.32699,13,0.00565699,10,0.000322273,-2.47795,0.270266,0.218304,28.3764,0.0968661,
2,1,0,1,0,24794.2,0.104675,0.104351,3.58106,13,0.00630597,10,0.000373689,-2.44599,0.211952,0.278364,38.9429,0.1043514,
2,1,0,1,0,24794.4,0.112162,0.111828,3.88494,13,0.0070079,10,0.000434444,-2.41062,0.239409,0.24644,37.2878,0.111828,
2,1,0,1,0,24794.6,0.119655,0.119359,4.13855,13,0.00776365,10,0.000493974,-2.38315,0.36622,0.161105,25.9986,0.119359,
2,1,0,1,0,24794.8,0.127146,0.126829,4.291,13,0.00855838,10,0.000544225,-2.36744,0.525378,0.1123,18.8541,0.126829,
2,1,0,1,0,24794.9,0.134635,0.134334,4.42104,13,0.00937872,10,0.000593896,-2.35448,0.949982,0.0621064,10.7032,0.134334,
2,1,0,1,0,24795.1,0.14213,0.141819,4.40115,13,0.0102129,10,0.000624167,-2.35643,-0.465129,-0.126847,-21.7286,0.141819,
2,1,0,1,0,24795.3,0.149619,0.149298,3.9965,13,0.0110102,10,0.000596668,-2.39832,-0.108832,-0.542118,-84.2653,0.149298,
2,1,0,1,0,24795.5,0.157106,0.156793,3.26094,13,0.0116937,10,0.000511294,-2.48666,-0.0759853,-0.776466,-98.6052,0.156793,
2,1,0,1,0,24795.7,0.164602,0.164288,2.64258,13,0.0122452,10,0.000434144,-2.57797,-0.09569,-0.616574,-63.8283,0.164288,
2,1,0,1,0,24795.9,0.172091,0.171753,2.28173,13,0.0127061,10,0.000391893,-2.64174,-0.148542,-0.397193,-35.441,0.171753,
2,1,0,1,0,24796.1,0.179582,0.179294,2.07688,13,0.0131161,10,0.000372372,-2.68259,-0.247316,-0.238561,-19.3965,0.179294,
2,1,0,1,0,24796.3,0.187074,0.186776,1.96106,13,0.0134969,10,0.000366279,-2.70751,-0.416046,-0.141811,-10.8729,0.186776,
2,1,0,1,0,24796.4,0.194563,0.194274,1.89556,13,0.0138602,10,0.000368258,-2.72226,-0.494752,-0.119252,-8.78057,0.194274,
2,1,0,1,0,24796.6,0.202059,0.201718,1.84277,13,0.0142129,10,0.000371719,-2.73453,-0.647525,-0.0911161,-6.54409,0.201718,
2,1,0,1,0,24796.8,0.209546,0.209245,1.80929,13,0.0145577,10,0.000378584,-2.74249,-0.792953,-0.0744054,-5.25502,0.209245,
2,1,0,1,0,24797,0.217035,0.216711,1.77984,13,0.0148965,10,0.00038571,-2.74962,-1.07575,-0.0548455,-3.80941,0.216711,
2,1,0,1,0,24797.2,0.22453,0.224259,1.7549,13,0.0152312,10,0.000393553,-2.75575,-1.06948,-0.0551668,-3.79665,0.224259,
2,1,0,1,0,24797.4,0.232019,0.231726,1.74394,13,0.015562,10,0.000404116,-2.75847,-2.54735,-0.0231614,-1.57316,0.231726,
2,1,0,1,0,24797.6,0.23951,0.239201,1.72814,13,0.0158899,10,0.000413374,-2.76242,-1.56631,-0.037668,-2.5365,0.239201,
2,1,0,1,0,24797.8,0.247003,0.246619,1.70924,13,0.016215,10,0.000421532,-2.7672,-1.39547,-0.0422797,-2.8264,0.246619,
2,1,0,1,0,24797.9,0.25449,0.2542,1.6982,13,0.0165373,10,0.000431684,-2.77001,-1.91555,-0.0308006,-2.0386,0.2542,
2,1,0,1,0,24798.1,0.261983,0.261652,1.68363,13,0.0168571,10,0.000440525,-2.77375,-2.84623,-0.0207292,-1.36339,0.261652,
2,1,0,1,0,24798.3,0.269474,0.269181,1.66948,13,0.0171744,10,0.000449392,-2.77742,-3.25344,-0.0181346,-1.18377,0.269181,
2,1,0,1,0,24798.5,0.276963,0.276664,1.65833,13,0.0174891,10,0.0004588,-2.78033,-5.39549,-0.0109351,-0.705719,0.276664,
2,1,0,1,0,24798.7,0.284458,0.28415,1.64171,13,0.0178013,10,0.000466493,-2.7847,-4.5857,-0.0128661,-0.824682,0.28415,
2,1,0,1,0,24798.9,0.291947,0.291627,1.6278,13,0.0181103,10,0.000474711,-2.7884,-0.908899,-0.0649137,-4.1118,0.291627,
2,1,0,1,0,24799.1,0.299434,0.299133,1.61187,13,0.0184162,10,0.000482165,-2.79267,-0.0137983,-4.2759,-225.031,0.299133,
2,0,0,1,0,24799.2,0.294196,0.293891,-0.361408,13,0.0184484,10,-0.000106215,-3.442,-0.0123489,-4.77774,59.0907,0.293891,
2,0,0,1,0,24799.4,0.286701,0.286377,-0.59285,13,0.0183516,10,-0.000169778,-3.22706,-0.0636705,-0.926645,21.3291,0.286377,
2,0,0,1,0,24799.6,0.279212,0.278874,-0.721606,13,0.018224,10,-0.000201237,-3.1417,-0.12918,-0.456728,12.8654,0.278874,
2,0,0,1,0,24799.8,0.271725,0.271353,-0.808272,13,0.0180766,10,-0.000219327,-3.09244,-0.140502,-0.419924,13.3083,0.271353,
2,0,0,1,0,24800,0.264228,0.263955,-0.887784,13,0.0179135,10,-0.000234335,-3.05169,-0.202731,-0.291026,10.0478,0.263955,
2,0,0,1,0,24800.2,0.256741,0.256427,-0.947776,13,0.0177379,10,-0.000243035,-3.02329,-0.309078,-0.190891,7.09343,0.256427,
2,0,0,1,0,24800.4,0.249248,0.248937,-1.00743,13,0.017551,10,-0.000250786,-2.99679,-0.325939,-0.181016,7.10162,0.248937,
2,0,0,1,0,24800.5,0.241756,0.241408,-1.05441,13,0.017354,10,-0.000254543,-2.97699,-0.417963,-0.141161,5.83741,0.241408,
2,0,0,1,0,24800.7,0.234268,0.233952,-1.10285,13,0.0171476,10,-0.000258015,-2.95748,-0.429719,-0.137299,5.97066,0.233952,
2,0,0,1,0,24800.9,0.226772,0.226467,-1.16232,13,0.016932,10,-0.000263227,-2.93468,-0.341247,-0.172895,7.75653,0.226467,
2,0,0,1,0,24801.1,0.219284,0.218973,-1.20355,13,0.0167081,10,-0.000263545,-2.91954,-0.495706,-0.119022,5.57591,0.218973,
2,0,0,1,0,24801.3,0.211796,0.211481,-1.24689,13,0.0164755,10,-0.000263693,-2.90417,-0.52157,-0.11312,5.49322,0.211481,
2,0,0,1,0,24801.5,0.204301,0.203959,-1.29573,13,0.0162341,10,-0.000264275,-2.88749,-0.61587,-0.0957995,4.8314,0.203959,
2,0,0,1,0,24801.7,0.196812,0.196496,-1.33345,13,0.0159841,10,-0.000262017,-2.87502,-0.472231,-0.124939,6.55945,0.196496,
2,0,0,1,0,24801.8,0.189321,0.188961,-1.39445,13,0.0157244,10,-0.000263496,-2.8556,-0.436144,-0.135276,7.35817,0.188961,
2,0,0,1,0,24802,0.181828,0.181474,-1.45927,13,0.0154541,10,-0.00026482,-2.83586,-0.364105,-0.162041,9.20307,0.181474,
2,0,0,1,0,24802.2,0.174341,0.173977,-1.52947,13,0.0151713,10,-0.000266093,-2.81546,-0.316858,-0.186203,11.1524,0.173977,
2,0,0,1,0,24802.4,0.166848,0.166549,-1.63551,13,0.0148723,10,-0.000272393,-2.78635,-0.274323,-0.215075,13.6351,0.166549,
2,0,0,1,0,24802.6,0.159357,0.159032,-1.76835,13,0.0145514,10,-0.000281223,-2.75243,-0.191008,-0.308887,21.354,0.159032,
2,0,0,1,0,24802.8,0.151868,0.151556,-1.97958,13,0.0141984,10,-0.000300017,-2.70343,-0.125381,-0.470567,36.5956,0.151556,
2,0,0,1,0,24803,0.144373,0.144077,-2.34536,13,0.0137921,10,-0.000337913,-2.62979,-0.0880097,-0.67038,61.4013,0.144077,
2,0,0,1,0,24803.2,0.136884,0.136541,-2.88335,13,0.0133011,10,-0.000393695,-2.5401,-0.0816032,-0.723011,81.4704,0.136541,
2,0,0,1,0,24803.3,0.129393,0.12906,-3.51087,13,0.0126981,10,-0.000453115,-2.45458,-0.100901,-0.584731,79.899,0.12906,
2,0,0,1,0,24803.5,0.1219,0.121591,-4.0331,13,0.0119859,10,-0.000490389,-2.39436,-0.163453,-0.360959,56.5703,0.121591,
2,0,0,1,0,24803.7,0.114413,0.114108,-4.35937,13,0.0111937,10,-0.000497441,-2.36058,-0.341995,-0.172517,29.3557,0.114108,
2,0,0,1,0,24803.9,0.10692,0.106579,-4.49162,13,0.010358,10,-0.000478711,-2.3476,-2.14317,-0.0275293,4.81565,0.106579,
2,0,0,1,0,24804.1,0.0994284,0.0991452,-4.43036,13,0.00951637,10,-0.000439249,-2.35356,0.576709,0.102305,-17.6574,0.0991452,
2,0,0,1,0,24804.3,0.0919401,0.0916052,-4.24269,13,0.00870016,10,-0.000388653,-2.37236,0.352095,0.167568,-27.7687,0.0916052,
2,0,0,1,0,24804.5,0.0844447,0.0841337,-4.05472,13,0.00791995,10,-0.000341138,-2.39204,0.402353,0.146638,-23.1541,0.08413367,
2,0,0,1,0,24804.7,0.0769565,0.0766306,-3.91007,13,0.00717247,10,-0.000299631,-2.40782,0.510774,0.115511,-17.6147,0.0766306,
2,0,0,1,0,24804.8,0.0694682,0.0691593,-3.79896,13,0.00644768,10,-0.000262734,-2.42034,0.639077,0.0923206,-13.6923,0.0691593,
2,0,0,1,0,24805,0.0619728,0.0617011,-3.69877,13,0.0057412,10,-0.000228218,-2.43194,0.586649,0.100571,-14.5166,0.06170113,
2,0,0,1,0,24805.2,0.0544836,0.054163,-3.59304,13,0.00505463,10,-0.00019461,-2.44454,0.755008,0.0781449,-10.9742,0.054163,
2,0,0,1,0,24805.4,0.0469927,0.0466673,-3.48543,13,0.00438748,10,-0.000162656,-2.45774,0.514568,0.114659,-15.594,0.0466673,
2,0,0,1,0,24805.6,0.0394999,0.0391634,-3.37075,13,0.00374203,10,-0.00013201,-2.47227,0.468237,0.126005,-16.5287,0.0391634,
2,0,0,1,0,24805.8,0.0320125,0.0316925,-3.22798,13,0.00312065,10,-0.000102303,-2.49107,0.409583,0.144049,-18.1897,0.0316925,
2,0,0,1,0,24806,0.0245198,0.0242089,-3.09276,13,0.0025248,10,-7.48723e-05,-2.50965,0.377572,0.156262,-18.8536,0.0242089,
2,0,0,1,0,24806.2,0.0170289,0.0166813,-2.96836,13,0.00195394,10,-4.95161e-05,-2.52748,0.452759,0.130312,-15.1146,0.0166813,
2,0,0,1,0,24806.3,0.0095397,0.0092698,-2.87346,13,0.00140391,10,-2.66364e-05,-2.5416,0.663019,0.0889869,-9.98668,0.0092698,
2,0,0,1,0,24806.5,0.00204518,0.00165618,-2.85278,13,0.000867966,10,-4.72472e-06,-2.54473,1.96967,0.0299542,-3.29287,0.00165618,
2,0,0,1,0,24806.6,0.000177222,-0.000217671,-2.81031,13,0.00073494,10,6.11723e-07,-2.55125, , , ,-0.000217671,