File: Figure_codes/Fig_3-5/rawdata_trumpetplot_data/after 10th/20221101_1-115_003_TrumpetPlot_ParaChange_from10_every3_03_CV_C01_29.csv
mode,ox/red,error,control changes,counter inc.,time/s,control/V,Ewe/V,<I>/mA,cycle number,(Q-Qo)/C,I Range,P/W,log(|I|),Tafel slope mV/dec,alpha_eff,dI/d(E-IR),E-IR/V,
2,0,0,1,0,58073.8,2.44065e-05,-0.000306236,-0.110207,30,0.0000000E+000,10,3.37492e-08,-3.95779, , , ,-0.000306236,
2,1,0,1,0,58075.2,0.00729041,0.0069455,0.199404,30,0.000245324,10,1.38496e-06,-3.70027,0.0856167,0.689118,5.31091,0.0069455,
2,1,0,1,0,58076.7,0.0147815,0.0144027,0.23005,30,0.00058831,10,3.31335e-06,-3.63818,0.150948,0.390863,3.52083,0.0144027,
2,1,0,1,0,58078.2,0.0222725,0.0218668,0.257346,30,0.000972933,10,5.62734e-06,-3.58948,0.178797,0.329983,3.29948,0.0218668,
2,1,0,1,0,58079.7,0.0297635,0.0294128,0.281973,30,0.00139542,10,8.29359e-06,-3.54979,0.200247,0.294636,3.23256,0.0294128,
2,1,0,1,0,58081.2,0.0372545,0.0369142,0.307001,30,0.00185595,10,1.13327e-05,-3.51286,0.224512,0.262792,3.15094,0.0369142,
2,1,0,1,0,58082.7,0.0447456,0.0443903,0.332572,30,0.00235419,10,1.4763e-05,-3.47811,0.241263,0.244546,3.16774,0.0443903,
2,1,0,1,0,58084.2,0.0522367,0.0518546,0.353989,30,0.00288795,10,1.8356e-05,-3.45101,0.235247,0.2508,3.46756,0.0518546,
2,1,0,1,0,58085.7,0.0597277,0.059355,0.375992,30,0.00345436,10,2.2317e-05,-3.42482,0.297972,0.198005,2.89874,0.059355,
2,1,0,1,0,58087.2,0.0672187,0.0668783,0.393623,30,0.00405004,10,2.63248e-05,-3.40492,0.456241,0.129318,1.98021,0.0668783,
2,1,0,1,0,58088.7,0.0747092,0.0744142,0.407732,30,0.0046701,10,3.03411e-05,-3.38962,0.504389,0.116973,1.86097,0.0744142,
2,1,0,0,0,58090.2,0.0822001,0.0818541,0.421485,30,0.00531188,10,3.45003e-05,-3.37522,0.496069,0.118935,1.95889,0.08185406,
2,1,0,1,0,58091.7,0.0896911,0.0893596,0.441358,30,0.00597794,10,3.94396e-05,-3.35521,0.293015,0.201355,3.47905,0.0893596,
2,1,0,0,0,58093.2,0.097182,0.0968143,0.471,30,0.00668085,10,4.55995e-05,-3.32698,0.18984,0.310787,5.71472,0.0968143,
2,1,0,1,0,58094.7,0.104673,0.104329,0.511398,30,0.00743651,10,5.33539e-05,-3.29124,0.218337,0.270224,5.37719,0.104329,
2,1,0,0,0,58096.2,0.112164,0.111832,0.547374,30,0.00825028,10,6.12138e-05,-3.26172,0.361864,0.163045,3.46931,0.111832,
2,1,0,1,0,58097.7,0.119655,0.119313,0.570642,30,0.00910896,10,6.80849e-05,-3.24364,0.848472,0.0695368,1.55081,0.119313,
2,1,0,0,0,58099.2,0.127146,0.126761,0.582086,30,0.00999504,10,7.37859e-05,-3.23501,1.30342,0.0452657,1.03091,0.126761,
2,1,0,1,0,58100.7,0.134637,0.134253,0.575736,30,0.0108892,10,7.72943e-05,-3.23978,-0.306841,-0.192282,-4.31555,0.134253,
2,1,0,1,0,58102.2,0.142127,0.141795,0.513568,30,0.0117324,10,7.28214e-05,-3.2894,-0.0976274,-0.604338,-12.0315,0.141795,
2,1,0,1,0,58103.7,0.149618,0.14928,0.41419,30,0.0124455,10,6.18301e-05,-3.3828,-0.0805589,-0.732384,-11.8644,0.14928,
2,1,0,1,0,58105.2,0.157109,0.15674,0.349574,30,0.0130303,10,5.47921e-05,-3.45646,-0.131596,-0.448343,-6.12013,0.15674,
2,1,0,1,0,58106.7,0.1646,0.164273,0.321371,30,0.0135484,10,5.27927e-05,-3.49299,-0.308285,-0.191382,-2.40218,0.164273,
2,1,0,1,0,58108.2,0.172091,0.171763,0.306476,30,0.0140367,10,5.26412e-05,-3.5136,-0.530548,-0.111206,-1.33506,0.171763,
2,1,0,1,0,58109.7,0.179582,0.179266,0.299704,30,0.0145097,10,5.37268e-05,-3.52331,-1.55946,-0.0378337,-0.443573,0.179266,
2,1,0,1,0,58111.2,0.187074,0.186723,0.296193,30,0.0149736,10,5.53061e-05,-3.52842,-1.80955,-0.0326049,-0.374975,0.186723,
2,1,0,1,0,58112.7,0.194564,0.19421,0.293081,30,0.0154324,10,5.69191e-05,-3.53301,-7.09183,-0.00831943,-0.0950444,0.19421,
2,1,0,1,0,58114.2,0.202056,0.201713,0.29023,30,0.0158866,10,5.85432e-05,-3.53726,-1.35046,-0.0436889,-0.493328,0.2017131,
2,1,0,1,0,58115.7,0.209547,0.209233,0.288141,30,0.0163371,10,6.02887e-05,-3.5404,-1.80949,-0.0326059,-0.366903,0.209233,
2,1,0,1,0,58117.2,0.217038,0.216719,0.284335,30,0.0167842,10,6.16209e-05,-3.54617,-2.37446,-0.0248478,-0.27709,0.216719,
2,1,0,1,0,58118.7,0.224529,0.224179,0.284186,30,0.0172281,10,6.37086e-05,-3.5464,-15.425,-0.00382495,-0.0422621,0.224179,
2,1,0,1,0,58120.2,0.232019,0.231635,0.2825,30,0.0176696,10,6.54369e-05,-3.54898,-2.17064,-0.0271809,-0.299787,0.231635,
2,1,0,0,0,58121.7,0.23951,0.239164,0.279753,30,0.0181088,10,6.69069e-05,-3.55323,-3.35883,-0.0175657,-0.192548,0.239164,
2,1,0,1,0,58123.2,0.247001,0.246661,0.279523,30,0.0185454,10,6.89476e-05,-3.55358,-1.14112,-0.0517034,-0.562807,0.246661,
2,1,0,0,0,58124.7,0.254492,0.254141,0.277019,30,0.0189797,10,7.0402e-05,-3.55749,-1.70448,-0.0346147,-0.37523,0.254141,
2,1,0,1,0,58126.2,0.261983,0.261629,0.276666,30,0.0194114,10,7.23838e-05,-3.55804,-3.64546,-0.0161845,-0.17426,0.261629,
2,1,0,0,0,58127.7,0.269474,0.269155,0.275304,30,0.0198411,10,7.40993e-05,-3.56019,-23.7496,-0.00248426,-0.0265996,0.2691547,
2,1,0,1,0,58129.2,0.276965,0.27663,0.273334,30,0.0202681,10,7.56122e-05,-3.56331,-2.00838,-0.0293769,-0.312721,0.27663,
2,1,0,0,0,58130.7,0.284456,0.284118,0.271741,30,0.0206925,10,7.72065e-05,-3.56585,-1.51531,-0.0389359,-0.410608,0.284118,
2,1,0,1,0,58132.2,0.291947,0.29158,0.268942,30,0.0211137,10,7.84182e-05,-3.57034,-1.35096,-0.0436726,-0.459063,0.2915802,
2,1,0,1,0,58133.7,0.299437,0.29911,0.267267,30,0.0215323,10,7.9942e-05,-3.57306,-0.0028639,-20.6013,-114.158,0.29911,
2,0,0,1,0,58135,0.293744,0.29336,-0.0168622,30,0.0215775,10,-4.9467e-06,-4.77309,-0.004113,-14.3448,5.80737,0.29336,
2,0,0,1,0,58136.5,0.286253,0.285873,-0.0469108,30,0.0215119,10,-1.34105e-05,-4.32873,-0.0334316,-1.7648,3.15309,0.285873,
2,0,0,0,0,58138,0.278763,0.278396,-0.0681278,30,0.0214083,10,-1.89665e-05,-4.16668,-0.0749039,-0.787676,2.07633,0.278396,
2,0,0,1,0,58139.5,0.271272,0.27092,-0.0846402,30,0.0212771,10,-2.29307e-05,-4.07242,-0.102474,-0.575757,1.88779,0.27092,
2,0,0,0,0,58141,0.263781,0.263421,-0.0984694,30,0.0211228,10,-2.59389e-05,-4.0067,-0.146035,-0.404013,1.54781,0.263421,
2,0,0,1,0,58142.5,0.25629,0.255975,-0.109924,30,0.0209493,10,-2.81378e-05,-3.95891,-0.19202,-0.307259,1.31405,0.255975,
2,0,0,0,0,58144,0.248799,0.24849,-0.120271,30,0.0207588,10,-2.98861e-05,-3.91984,-0.242908,-0.24289,1.14649,0.24849,
2,0,0,1,0,58145.5,0.241308,0.240957,-0.130153,30,0.0205528,10,-3.13614e-05,-3.88554,-0.236021,-0.249977,1.27719,0.240957,
2,0,0,0,0,58147,0.233817,0.233464,-0.140028,30,0.0203325,10,-3.26914e-05,-3.85379,-0.255603,-0.230827,1.25891,0.233464,
2,0,0,1,0,58148.5,0.226326,0.226012,-0.148613,30,0.0200988,10,-3.35883e-05,-3.82794,-0.348249,-0.169419,0.979223,0.226012,
2,0,0,0,0,58150,0.218835,0.218479,-0.157411,30,0.0198523,10,-3.43911e-05,-3.80296,-0.261841,-0.225328,1.37964,0.218479,
2,0,0,1,0,58151.5,0.211344,0.211014,-0.165085,30,0.0195928,10,-3.48352e-05,-3.78229,-0.395401,-0.149215,0.963595,0.211014,
2,0,0,1,0,58153,0.203854,0.203475,-0.173497,30,0.0193202,10,-3.53021e-05,-3.76071,-0.388717,-0.151781,1.02946,0.203475,
2,0,0,1,0,58154.5,0.196363,0.195988,-0.182895,30,0.0190345,10,-3.58452e-05,-3.7378,-0.288611,-0.204428,1.45828,0.195988,
2,0,0,1,0,58156,0.188871,0.188503,-0.192673,30,0.0187341,10,-3.63193e-05,-3.71518,-0.277265,-0.212793,1.60231,0.188503,
2,0,0,1,0,58157.5,0.181381,0.181011,-0.203964,30,0.0184182,10,-3.69196e-05,-3.69045,-0.332238,-0.177583,1.4137,0.181011,
2,0,0,1,0,58159,0.173889,0.173528,-0.215938,30,0.0180852,10,-3.74714e-05,-3.66567,-0.239985,-0.245849,2.0718,0.173528,
2,0,0,1,0,58160.5,0.166398,0.166058,-0.231402,30,0.017731,10,-3.84262e-05,-3.63563,-0.267603,-0.220476,1.9977,0.166058,
2,0,0,1,0,58162,0.158907,0.158546,-0.250449,30,0.0173506,10,-3.97075e-05,-3.60128,-0.192677,-0.306212,3.00425,0.158546,
2,0,0,1,0,58163.5,0.151416,0.151008,-0.280113,30,0.0169342,10,-4.22994e-05,-3.55267,-0.142648,-0.413605,4.54815,0.151008,
2,0,0,1,0,58165,0.143925,0.143578,-0.32778,30,0.0164619,10,-4.70618e-05,-3.48442,-0.0876659,-0.673009,8.60926,0.143578,
2,0,0,1,0,58166.5,0.136434,0.13609,-0.401943,30,0.015898,10,-5.47006e-05,-3.39584,-0.0835099,-0.706503,11.0528,0.13609,
2,0,0,1,0,58168,0.128943,0.128627,-0.487924,30,0.0152124,10,-6.27604e-05,-3.31165,-0.104728,-0.563363,10.6526,0.128627,
2,0,0,0,0,58169.5,0.121453,0.121105,-0.55522,30,0.0144081,10,-6.72399e-05,-3.25554,-0.192816,-0.305991,6.61049,0.121105,
2,0,0,1,0,58171,0.113962,0.113595,-0.582965,30,0.0135288,10,-6.62221e-05,-3.23436,-0.940179,-0.062754,1.42967,0.1135952,
2,0,0,0,0,58172.5,0.106471,0.106094,-0.585143,30,0.0126288,10,-6.20801e-05,-3.23274,5.18625,0.0113762,-0.260559,0.106094,
2,0,0,1,0,58174,0.0989798,0.0986339,-0.578145,30,0.0117347,10,-5.70247e-05,-3.23796,1.28575,0.0458878,-1.03388,0.0986339,
2,0,0,0,0,58175.5,0.0914889,0.0910944,-0.567597,30,0.0108558,10,-5.1705e-05,-3.24596,0.722207,0.0816941,-1.80777,0.0910944,
2,0,0,1,0,58177,0.083998,0.0836133,-0.551399,30,0.00999726,10,-4.61043e-05,-3.25853,0.467159,0.126295,-2.7108,0.0836133,
2,0,0,0,0,58178.5,0.076507,0.0761533,-0.53544,30,0.00916322,10,-4.07755e-05,-3.27129,0.502696,0.117367,-2.44711,0.0761533,
2,0,0,1,0,58180,0.069016,0.0686467,-0.517757,30,0.00835455,10,-3.55423e-05,-3.28587,0.576335,0.102371,-2.07317,0.0686467,
2,0,0,0,0,58181.5,0.0615251,0.0611316,-0.502557,30,0.0075696,10,-3.07221e-05,-3.29881,0.626961,0.0941047,-1.84958,0.0611316,
2,0,0,1,0,58183,0.0540342,0.0536844,-0.48768,30,0.00680821,10,-2.61808e-05,-3.31187,0.55703,0.105919,-2.0104,0.0536844,
2,0,0,1,0,58184.5,0.0465436,0.0461654,-0.469532,30,0.00607136,10,-2.16762e-05,-3.32833,0.462987,0.127433,-2.34043,0.0461654,
2,0,0,1,0,58186,0.0390526,0.0386609,-0.453389,30,0.00535974,10,-1.75284e-05,-3.34353,0.402724,0.146502,-2.58847,0.0386609,
2,0,0,1,0,58187.5,0.0315615,0.0311996,-0.438227,30,0.00467343,10,-1.36725e-05,-3.3583,0.509108,0.115889,-1.97706,0.0311996,
2,0,0,1,0,58189,0.0240706,0.023672,-0.422299,30,0.00401013,10,-9.99665e-06,-3.37438,0.53732,0.109804,-1.81659,0.023672,
2,0,0,1,0,58190.5,0.0165795,0.0162446,-0.413267,30,0.00336492,10,-6.71337e-06,-3.38377,1.21413,0.0485945,-0.785523,0.0162446,
2,0,0,1,0,58192,0.00908846,0.00871684,-0.408155,30,0.00273074,10,-3.55782e-06,-3.38917,20.6146,0.00286205,-0.0456779,0.00871684,
2,0,0,1,0,58193.5,0.00159739,0.0012142,-0.413863,30,0.00209801,10,-5.02513e-07,-3.38314, , , ,0.0012142,
2,0,0,0,0,58193.8,0.000199195,-0.000218435,-0.410968,30,0.00197913,10,8.97695e-08,-3.38619, , , ,-0.000218435,