File: Figure_codes/Fig_3-5/rawdata_trumpetplot_data/after 10th/20221101_1-115_003_TrumpetPlot_ParaChange_from10_every3_02_CV_C01_22.csv
mode,ox/red,error,control changes,counter inc.,time/s,control/V,Ewe/V,<I>/mA,cycle number,(Q-Qo)/C,I Range,P/W,log(|I|),Tafel slope mV/dec,alpha_eff,dI/d(E-IR),E-IR/V,
2,0,0,1,0,43682.9,2.44065e-05,-0.000325324,-0.376068,23,0.0000000E+000,10,1.22344e-07,-3.42473, , , ,-0.000325324,
2,0,0,1,0,43690.2,0.00729061,0.00693737,-0.0972425,23,-0.000968552,10,-6.74608e-07,-4.01214,-0.0307053,-1.92149,7.36014,0.00693737,
2,0,0,1,0,43697.7,0.0147815,0.0144578,-0.0602191,23,-0.00146065,10,-8.70633e-07,-4.22027,-0.0380868,-1.54909,3.62009,0.0144578,
2,0,0,1,0,43705.1,0.0222725,0.0219188,-0.0389609,23,-0.00174868,10,-8.53975e-07,-4.40937,-0.0398704,-1.47979,2.25191,0.0219188,
2,0,0,1,0,43712.6,0.0297635,0.0294404,-0.0239365,23,-0.00190513,10,-7.04699e-07,-4.62094,-0.0322385,-1.83011,1.71224,0.0294404,
2,0,0,1,0,43720.1,0.0372544,0.0369406,-0.0114446,23,-0.00195679,10,-4.2277e-07,-4.9414,-0.0151493,-3.89457,1.64003,0.03694056,
2,0,0,1,0,43727.6,0.0447454,0.0444291,0.000652958,23,-0.00191425,10,2.90104e-08,-6.18511,0.0163959,3.59847,1.31085,0.0444291,
2,1,0,1,0,43735.1,0.0522363,0.0518912,0.0104471,23,-0.00178841,10,5.42114e-07,-4.981,0.0157652,3.74243,1.47807,0.0518912,
2,1,0,1,0,43742.6,0.0597273,0.0594042,0.0201296,23,-0.00158879,10,1.19578e-06,-4.69616,0.0396546,1.48785,1.1634,0.0594042,
2,1,0,1,0,43750.1,0.0672183,0.066913,0.0287952,23,-0.00132258,10,1.92677e-06,-4.54068,0.0626968,0.941037,1.02122,0.066913,
2,1,0,1,0,43757.6,0.0747092,0.0743612,0.0360037,23,-0.000996284,10,2.67728e-06,-4.44365,0.0776519,0.759802,1.08045,0.0743612,
2,1,0,1,0,43765.1,0.0822001,0.0818625,0.0425288,23,-0.000614288,10,3.48152e-06,-4.37132,0.0989128,0.596485,1.00591,0.0818625,
2,1,0,1,0,43772.6,0.0896911,0.0893787,0.0510409,23,-0.000174855,10,4.56197e-06,-4.29208,0.0931029,0.633707,1.27703,0.0893787,
2,1,0,1,0,43780.1,0.0971821,0.0968493,0.0610783,23,0.000334545,10,5.9154e-06,-4.21411,0.0876649,0.673017,1.61731,0.0968493,
2,1,0,1,0,43787.5,0.104673,0.104355,0.0724034,23,0.000922476,10,7.55565e-06,-4.14024,0.115647,0.510174,1.4314,0.104355,
2,1,0,1,0,43795,0.112164,0.111848,0.0806562,23,0.00158509,10,9.0212e-06,-4.09336,0.225994,0.261069,0.824074,0.111848,
2,1,0,1,0,43802.5,0.119655,0.119326,0.0898263,23,0.00231374,10,1.07186e-05,-4.0466,0.275111,0.214459,0.750967,0.119326,
2,1,0,1,0,43810,0.127146,0.126813,0.0945002,23,0.00309793,10,1.19839e-05,-4.02457,0.335022,0.176108,0.654483,0.126813,
2,1,0,1,0,43817.5,0.134637,0.134283,0.0945271,23,0.00390892,10,1.26934e-05,-4.02444,-0.198941,-0.29657,-1.09091,0.134283,
2,1,0,1,0,43825,0.142128,0.141809,0.0797712,23,0.00465668,10,1.13123e-05,-4.09815,-0.0700492,-0.842265,-2.61087,0.141809,
2,1,0,1,0,43832.5,0.149619,0.149297,0.0620868,23,0.00526821,10,9.26937e-06,-4.207,-0.0893984,-0.659967,-1.62186,0.149297,
2,1,0,1,0,43840,0.15711,0.156796,0.0538008,23,0.00578141,10,8.43576e-06,-4.26921,-0.132521,-0.445212,-0.936729,0.156796,
2,1,0,1,0,43847.5,0.164601,0.164237,0.0510447,23,0.00625296,10,8.38342e-06,-4.29205,-0.576692,-0.102308,-0.20345,0.164237,
2,1,0,1,0,43855,0.172091,0.171789,0.0503921,23,0.00671002,10,8.65682e-06,-4.29764,-2.31894,-0.0254427,-0.050188,0.171789,
2,1,0,1,0,43862.5,0.179582,0.179296,0.0508958,23,0.0071634,10,9.12541e-06,-4.29332,0.89489,0.0659299,0.129369,0.1792959,
2,1,0,1,0,43869.9,0.187073,0.186723,0.0506478,23,0.00761876,10,9.4571e-06,-4.29544,8.30792,0.00710166,0.0139776,0.186723,
2,1,0,1,0,43877.4,0.194564,0.194245,0.0514451,23,0.00807603,10,9.99298e-06,-4.28866,-37.0966,-0.00159044,-0.00318379,0.194245,
2,1,0,1,0,43884.9,0.202055,0.201684,0.0515481,23,0.00853532,10,1.03964e-05,-4.28779,4.75915,0.0123972,0.0248876,0.201684,
2,1,0,1,0,43892.4,0.209546,0.209265,0.0524158,23,0.00899893,10,1.09688e-05,-4.28054,0.601852,0.0980307,0.20138,0.209265,
2,1,0,1,0,43899.9,0.217037,0.216695,0.0536666,23,0.00946909,10,1.16293e-05,-4.2703,1.54039,0.038302,0.0797363,0.2166954,
2,1,0,1,0,43907.4,0.224528,0.224207,0.0548858,23,0.00994685,10,1.23058e-05,-4.26054,0.675882,0.0872933,0.185719,0.224207,
2,1,0,1,0,43914.9,0.232019,0.231697,0.0553118,23,0.01043,10,1.28156e-05,-4.25718,1.07822,0.0547199,0.118507,0.231697,
2,1,0,1,0,43922.4,0.23951,0.239171,0.0568927,23,0.0109204,10,1.36071e-05,-4.24494,0.537642,0.109738,0.24234,0.239171,
2,1,0,1,0,43929.9,0.247001,0.246703,0.0571586,23,0.0114199,10,1.41012e-05,-4.24292,1.41939,0.0415673,0.0934681,0.246703,
2,1,0,1,0,43937.4,0.254492,0.254185,0.0585182,23,0.011925,10,1.48744e-05,-4.23271,0.992371,0.0594536,0.135456,0.254185,
2,1,0,1,0,43944.9,0.261983,0.261611,0.0589861,23,0.0124354,10,1.54314e-05,-4.22925,0.649236,0.0908761,0.210706,0.261611,
2,1,0,1,0,43952.3,0.269474,0.269129,0.0604913,23,0.0129535,10,1.628e-05,-4.21831,1.36815,0.043124,0.101526,0.269129,
2,1,0,1,0,43959.8,0.276965,0.276673,0.0615326,23,0.0134777,10,1.70244e-05,-4.2109,0.598485,0.0985822,0.235965,0.276673,
2,1,0,1,0,43967.3,0.284456,0.284121,0.0621416,23,0.0140061,10,1.76557e-05,-4.20662,1.41256,0.0417681,0.100566,0.284121,
2,1,0,1,0,43974.8,0.291947,0.291634,0.0628133,23,0.0145404,10,1.83185e-05,-4.20195,-2.41652,-0.0244153,-0.0599005,0.291634,
2,1,0,1,0,43982.3,0.299438,0.299129,0.0637618,23,0.0150797,10,1.9073e-05,-4.19544,-0.00450696,-13.0909,-20.9162,0.299129,
2,1,0,1,0,43989.2,0.293745,0.293428,0.00898291,23,0.0151713,10,2.63584e-06,-5.04658,0.0135114,4.36668,1.5333,0.293428,
2,1,0,1,0,43996.6,0.286254,0.285921,0.00160403,23,0.0151406,10,4.58625e-07,-5.79479,0.0075237,7.84188,0.86937,0.285921,
2,0,0,1,0,44004.1,0.278763,0.278418,-0.00453269,23,0.0150598,10,-1.26198e-06,-5.34364,-0.016482,-3.57967,0.593406,0.278418,
2,0,0,1,0,44011.6,0.271272,0.270957,-0.0090316,23,0.0149414,10,-2.44718e-06,-5.04424,-0.0341753,-1.72639,0.602967,0.270957,
2,0,0,1,0,44019.1,0.263781,0.263468,-0.0130629,23,0.0147901,10,-3.44165e-06,-4.88396,-0.0600984,-0.981723,0.501166,0.263468,
2,0,0,1,0,44026.6,0.25629,0.255991,-0.0167871,23,0.0146103,10,-4.29735e-06,-4.77502,-0.102724,-0.574353,0.373908,0.255991,
2,0,0,1,0,44034.1,0.248799,0.24846,-0.0194694,23,0.0144049,10,-4.83736e-06,-4.71065,-0.107487,-0.548902,0.422249,0.24846,
2,0,0,1,0,44041.6,0.241308,0.241012,-0.0231025,23,0.0141767,10,-5.56798e-06,-4.63634,-0.122232,-0.482688,0.428297,0.2410116,
2,0,0,1,0,44049.1,0.233817,0.233495,-0.0255191,23,0.0139236,10,-5.95859e-06,-4.59313,-0.143387,-0.411473,0.412753,0.233495,
2,0,0,1,0,44056.6,0.226326,0.226023,-0.029111,23,0.0136476,10,-6.57975e-06,-4.53594,-0.216025,-0.273117,0.311432,0.226023,
2,0,0,1,0,44064.1,0.218835,0.218474,-0.0319977,23,0.0133466,10,-6.99066e-06,-4.49488,-0.170099,-0.346857,0.431749,0.218474,
2,0,0,1,0,44071.6,0.211344,0.211021,-0.0345316,23,0.0130248,10,-7.28689e-06,-4.46178,-0.427063,-0.138153,0.185721,0.211021,
2,0,0,1,0,44079,0.203853,0.203534,-0.0367554,23,0.0126838,10,-7.48097e-06,-4.43468,-0.232978,-0.253242,0.365373,0.203534,
2,0,0,1,0,44086.5,0.196362,0.196018,-0.040807,23,0.0123223,10,-7.99893e-06,-4.38927,-0.157001,-0.375794,0.587549,0.196018,
2,0,0,1,0,44094,0.188871,0.188588,-0.0436471,23,0.011936,10,-8.23132e-06,-4.36004,-0.146648,-0.402324,0.682333,0.1885881,
2,0,0,1,0,44101.5,0.18138,0.181058,-0.0472014,23,0.0115238,10,-8.54621e-06,-4.32604,-0.272607,-0.216429,0.396589,0.181058,
2,0,0,1,0,44109,0.173889,0.173556,-0.0506048,23,0.0110835,10,-8.78275e-06,-4.29581,-0.20443,-0.288607,0.573488,0.1735559,
2,0,0,1,0,44116.5,0.166398,0.166099,-0.0560031,23,0.0106076,10,-9.30207e-06,-4.25179,-0.219672,-0.268582,0.590237,0.166099,
2,0,0,1,0,44124,0.158907,0.158623,-0.0623983,23,0.0100862,10,-9.89781e-06,-4.20483,-0.153736,-0.383774,0.939767,0.158623,
2,0,0,1,0,44131.5,0.151417,0.151105,-0.0717352,23,0.0095066,10,-1.08395e-05,-4.14427,-0.112214,-0.52578,1.47106,0.151105,
2,0,0,1,0,44139,0.143926,0.143568,-0.0855223,23,0.00884,10,-1.22782e-05,-4.06792,-0.0789423,-0.747382,2.48933,0.143568,
2,0,0,1,0,44146.5,0.136435,0.136078,-0.107436,23,0.00803682,10,-1.46196e-05,-3.96885,-0.0780882,-0.755556,3.15762,0.136078,
2,0,0,1,0,44154,0.128944,0.128599,-0.128928,23,0.00706111,10,-1.658e-05,-3.88965,-0.147309,-0.400518,2.01021,0.128599,
2,0,0,1,0,44161.4,0.121453,0.121167,-0.139875,23,0.00596147,10,-1.69481e-05,-3.85426,-0.552502,-0.106787,0.580122,0.121167,
2,0,0,1,0,44168.9,0.113962,0.113654,-0.140681,23,0.00482105,10,-1.59889e-05,-3.85176,2.55267,0.0231131,-0.1274,0.113654,
2,0,0,1,0,44176.4,0.106471,0.106198,-0.140459,23,0.00368014,10,-1.49164e-05,-3.85245,-21.9563,-0.00268715,0.0147739,0.106198,
2,0,0,1,0,44183.9,0.0989798,0.0986922,-0.138648,23,0.00254818,10,-1.36835e-05,-3.85809,1.1082,0.0532397,-0.287183,0.0986922,
2,0,0,1,0,44191.4,0.0914889,0.0911559,-0.134706,23,0.00143945,10,-1.22792e-05,-3.87061,0.557126,0.105901,-0.556676,0.0911559,
2,0,0,1,0,44198.9,0.083998,0.0836748,-0.13002,23,0.000363922,10,-1.08794e-05,-3.88599,0.36285,0.162602,-0.822388,0.0836748,
2,0,0,1,0,44206.4,0.076507,0.0762191,-0.125668,23,-0.000675209,10,-9.57832e-06,-3.90077,0.434465,0.135799,-0.663809,0.0762191,
2,0,0,1,0,44213.9,0.069016,0.0686965,-0.121652,23,-0.00168571,10,-8.35707e-06,-3.91488,0.503224,0.117244,-0.559475,0.0686965,
2,0,0,1,0,44221.4,0.0615251,0.0611709,-0.119043,23,-0.00267042,10,-7.28198e-06,-3.9243,0.620486,0.0950868,-0.441293,0.0611709,
2,0,0,1,0,44228.9,0.0540342,0.053712,-0.116374,23,-0.00363334,10,-6.25069e-06,-3.93414,0.673819,0.0875606,-0.395564,0.053712,
2,0,0,1,0,44236.4,0.0465432,0.0462138,-0.11315,23,-0.00457437,10,-5.2291e-06,-3.94635,1.7635,0.0334563,-0.147773,0.0462138,
2,0,0,1,0,44243.8,0.0390522,0.0387061,-0.110857,23,-0.00549465,10,-4.29085e-06,-3.95524,0.426389,0.138371,-0.594361,0.0387061,
2,0,0,1,0,44251.3,0.0315613,0.0311942,-0.107986,23,-0.00639414,10,-3.36854e-06,-3.96663,0.828099,0.0712475,-0.300914,0.0311942,
2,0,0,1,0,44258.8,0.0240703,0.0237735,-0.105831,23,-0.00727576,10,-2.51598e-06,-3.97539,2.44105,0.0241699,-0.0999551,0.0237735,
2,0,0,1,0,44266.3,0.0165794,0.0162902,-0.105992,23,-0.00814761,10,-1.72664e-06,-3.97473,-3.02698,-0.0194914,0.0806429,0.0162902,
2,0,0,1,0,44273.8,0.00908843,0.00874431,-0.106733,23,-0.00902173,10,-9.33309e-07,-3.9717,-1.49637,-0.0394288,0.164284,0.00874431,
2,0,0,1,0,44281.3,0.00159744,0.00119099,-0.110528,23,-0.0099119,10,-1.31638e-07,-3.95653, , , ,0.00119099,
2,0,0,1,0,44282.7,0.000199235,-0.000203136,-0.110477,23,-0.0100806,10,2.24418e-08,-3.95673, , , ,-0.000203136,