File: Figure_codes/Fig_3-5/rawdata_trumpetplot_data/after 10th/20221101_1-115_003_TrumpetPlot_ParaChange_from10_every3_03_CV_C01_25.csv
mode,ox/red,error,control changes,counter inc.,time/s,control/V,Ewe/V,<I>/mA,cycle number,(Q-Qo)/C,I Range,P/W,log(|I|),Tafel slope mV/dec,alpha_eff,dI/d(E-IR),E-IR/V,
2,0,0,1,0,50193.3,2.44065e-05,-0.000306236,-0.098758,26,0.0000000E+000,10,3.02433e-08,-4.00543, , , ,-0.000306236,
2,1,0,1,0,50194.7,0.00729041,0.00698374,0.198705,26,0.000247359,10,1.38771e-06,-3.70179,0.0847172,0.696435,5.37734,0.006983737,
2,1,0,1,0,50196.2,0.0147815,0.0144938,0.230794,26,0.000591676,10,3.34507e-06,-3.63678,0.143756,0.410418,3.70063,0.0144938,
2,1,0,1,0,50197.7,0.0222725,0.0220007,0.25727,26,0.000978192,10,5.66011e-06,-3.58961,0.182203,0.323815,3.24404,0.0220007,
2,1,0,1,0,50199.2,0.0297635,0.0294328,0.283049,26,0.00140295,10,8.33092e-06,-3.54814,0.195602,0.301633,3.33075,0.0294328,
2,1,0,1,0,50200.7,0.0372545,0.0369289,0.308286,26,0.0018668,10,1.13847e-05,-3.51105,0.20555,0.287035,3.46496,0.0369289,
2,1,0,1,0,50202.2,0.0447456,0.0443911,0.333623,26,0.0023686,10,1.48099e-05,-3.47674,0.234984,0.251081,3.26717,0.04439114,
2,1,0,1,0,50203.7,0.0522367,0.0519308,0.356658,26,0.00290689,10,1.85215e-05,-3.44775,0.223673,0.263778,3.67139,0.0519308,
2,1,0,1,0,50205.2,0.0597277,0.0593707,0.378651,26,0.00347895,10,2.24808e-05,-3.42176,0.328902,0.179385,2.64604,0.0593707,
2,1,0,1,0,50206.7,0.0672187,0.0669174,0.397654,26,0.00408109,10,2.661e-05,-3.4005,0.4334,0.136133,2.10436,0.0669174,
2,1,0,1,0,50208.2,0.0747092,0.0744036,0.412093,26,0.0047088,10,3.06612e-05,-3.38501,0.593599,0.0993938,1.59951,0.0744036,
2,1,0,0,0,50209.7,0.0822001,0.081871,0.426519,26,0.00535871,10,3.49195e-05,-3.37006,0.459386,0.128432,2.14222,0.081871,
2,1,0,1,0,50211.2,0.0896911,0.0893893,0.446639,26,0.00603323,10,3.99248e-05,-3.35004,0.313867,0.187978,3.28534,0.0893893,
2,1,0,0,0,50212.7,0.097182,0.0968609,0.476409,26,0.00674488,10,4.61454e-05,-3.32202,0.192597,0.306339,5.6944,0.0968609,
2,1,0,1,0,50214.2,0.104673,0.104385,0.518159,26,0.0075098,10,5.40878e-05,-3.28554,0.225057,0.262155,5.28412,0.104385,
2,1,0,0,0,50215.7,0.112164,0.111809,0.553228,26,0.00833348,10,6.18561e-05,-3.2571,0.353182,0.167053,3.5932,0.111809,
2,1,0,1,0,50217.2,0.119655,0.119335,0.577843,26,0.00920269,10,6.8957e-05,-3.23819,0.599501,0.0984152,2.22038,0.119335,
2,1,0,0,0,50218.7,0.127146,0.126778,0.591765,26,0.0101028,10,7.50229e-05,-3.22785,0.976617,0.0604126,1.39906,0.126778,
2,1,0,1,0,50220.2,0.134637,0.134333,0.588281,26,0.0110151,10,7.90253e-05,-3.23041,-0.375852,-0.156976,-3.59963,0.134333,
2,1,0,1,0,50221.7,0.142127,0.141784,0.526773,26,0.0118791,10,7.46881e-05,-3.27838,-0.102925,-0.573232,-11.721,0.141784,
2,1,0,1,0,50223.2,0.149618,0.149296,0.42482,26,0.0126124,10,6.34238e-05,-3.3718,-0.0806917,-0.731178,-12.1594,0.149296,
2,1,0,1,0,50224.7,0.157109,0.156822,0.358286,26,0.0132123,10,5.61872e-05,-3.44577,-0.131206,-0.449674,-6.28989,0.156822,
2,1,0,1,0,50226.2,0.1646,0.164279,0.32803,26,0.0137421,10,5.38885e-05,-3.48409,-0.29075,-0.202924,-2.59279,0.164279,
2,1,0,1,0,50227.7,0.172091,0.171829,0.312037,26,0.0142395,10,5.36171e-05,-3.50579,-0.392868,-0.150178,-1.83292,0.171829,
2,1,0,1,0,50229.2,0.179582,0.17928,0.304158,26,0.0147199,10,5.45294e-05,-3.5169,-0.830209,-0.0710665,-0.846859,0.17928,
2,1,0,1,0,50230.7,0.187074,0.186759,0.298936,26,0.0151911,10,5.5829e-05,-3.52442,-1.88961,-0.0312234,-0.363371,0.1867592,
2,1,0,1,0,50232.2,0.194564,0.194224,0.294855,26,0.015655,10,5.7268e-05,-3.53039,-2.59993,-0.0226929,-0.261067,0.194224,
2,1,0,1,0,50233.7,0.202056,0.201729,0.29276,26,0.0161139,10,5.90582e-05,-3.53349,-1.05274,-0.0560441,-0.637452,0.201729,
2,1,0,1,0,50235.2,0.209547,0.20923,0.289319,26,0.0165685,10,6.05343e-05,-3.53862,-2.73396,-0.0215804,-0.243212,0.20923,
2,1,0,1,0,50236.7,0.217038,0.216716,0.286701,26,0.0170187,10,6.21326e-05,-3.54257,-1.87215,-0.0315146,-0.352743,0.216716,
2,1,0,1,0,50238.2,0.224529,0.22423,0.285216,26,0.017466,10,6.3954e-05,-3.54483,-2.48259,-0.0237655,-0.264487,0.22423,
2,1,0,1,0,50239.7,0.232019,0.231742,0.282082,26,0.01791,10,6.53705e-05,-3.54962,-2.03098,-0.02905,-0.321093,0.231742,
2,1,0,0,0,50241.2,0.23951,0.239209,0.28113,26,0.0183511,10,6.72487e-05,-3.55109,-2.3507,-0.0250989,-0.274707,0.239209,
2,1,0,1,0,50242.7,0.247001,0.246697,0.279707,26,0.0187899,10,6.90031e-05,-3.5533,-2.40152,-0.0245678,-0.268014,0.246697,
2,1,0,0,0,50244.2,0.254492,0.254187,0.278272,26,0.0192267,10,7.07331e-05,-3.55553,-2.13001,-0.0276994,-0.300961,0.254187,
2,1,0,1,0,50245.7,0.261983,0.261683,0.27675,26,0.0196609,10,7.24207e-05,-3.55791,40.6026,0.00145311,0.0156993,0.261683,
2,1,0,0,0,50247.2,0.269474,0.269147,0.275251,26,0.0200927,10,7.4083e-05,-3.56027,308.964,0.000190961,0.00204662,0.269147,
2,1,0,1,0,50248.7,0.276965,0.276624,0.273402,26,0.0205218,10,7.56295e-05,-3.5632,-4.94207,-0.0119383,-0.127389,0.276624,
2,1,0,0,0,50250.2,0.284456,0.284126,0.27206,26,0.0209477,10,7.72993e-05,-3.56533,-1.4015,-0.0420977,-0.445804,0.284126,
2,1,0,1,0,50251.7,0.291947,0.29166,0.269736,26,0.0213705,10,7.8671e-05,-3.56906,-3.13265,-0.0188339,-0.19829,0.29166,
2,1,0,1,0,50253.2,0.299437,0.299146,0.267082,26,0.0217907,10,7.98963e-05,-3.57336,-0.00279851,-21.0827,-116.084,0.299146,
2,0,0,1,0,50254.5,0.293744,0.293435,-0.0148613,26,0.0218356,10,-4.36083e-06,-4.82794,-0.00332529,-17.7428,5.70636,0.293435,
2,0,0,1,0,50256,0.286253,0.285934,-0.0454261,26,0.0217705,10,-1.29889e-05,-4.34269,-0.0309523,-1.90616,3.37983,0.285934,
2,0,0,0,0,50257.5,0.278763,0.278477,-0.0668014,26,0.0216675,10,-1.86026e-05,-4.17521,-0.0609297,-0.96833,2.4867,0.278477,
2,0,0,1,0,50259,0.271272,0.270945,-0.084038,26,0.0215362,10,-2.27696e-05,-4.07552,-0.0979292,-0.602476,1.95056,0.270945,
2,0,0,0,0,50260.5,0.263781,0.263474,-0.0974182,26,0.021382,10,-2.56672e-05,-4.01136,-0.116434,-0.506725,1.92501,0.263474,
2,0,0,1,0,50262,0.25629,0.255971,-0.109002,26,0.0212085,10,-2.79014e-05,-3.96256,-0.167397,-0.352455,1.48866,0.255971,
2,0,0,0,0,50263.5,0.248799,0.248465,-0.119454,26,0.0210181,10,-2.96802e-05,-3.9228,-0.212301,-0.277908,1.29317,0.248465,
2,0,0,1,0,50265,0.241308,0.240997,-0.128516,26,0.0208123,10,-3.09719e-05,-3.89104,-0.220483,-0.267595,1.35704,0.240997,
2,0,0,0,0,50266.5,0.233817,0.233458,-0.139844,26,0.0205922,10,-3.26477e-05,-3.85436,-0.220442,-0.267644,1.45171,0.233458,
2,0,0,1,0,50268,0.226326,0.22597,-0.147833,26,0.0203579,10,-3.34057e-05,-3.83023,-0.313294,-0.188322,1.08737,0.22597,
2,0,0,0,0,50269.5,0.218835,0.218543,-0.156531,26,0.0201107,10,-3.42087e-05,-3.8054,-0.31823,-0.185401,1.13065,0.218543,
2,0,0,1,0,50271,0.211344,0.211038,-0.165032,26,0.0198506,10,-3.4828e-05,-3.78243,-0.389245,-0.151575,0.973048,0.211038,
2,0,0,1,0,50272.5,0.203854,0.203522,-0.173712,26,0.019577,10,-3.53543e-05,-3.76017,-0.280565,-0.21029,1.43024,0.203522,
2,0,0,1,0,50274,0.196363,0.196057,-0.183353,26,0.0192899,10,-3.59476e-05,-3.73671,-0.348096,-0.169493,1.2103,0.196057,
2,0,0,1,0,50275.5,0.188871,0.188562,-0.192973,26,0.0189877,10,-3.63874e-05,-3.7145,-0.289067,-0.204105,1.53559,0.188562,
2,0,0,1,0,50277,0.181381,0.181076,-0.20294,26,0.01867,10,-3.67477e-05,-3.69263,-0.280736,-0.210162,1.67682,0.181076,
2,0,0,1,0,50278.5,0.173889,0.173507,-0.218057,26,0.0183341,10,-3.78344e-05,-3.66143,-0.280936,-0.210012,1.77397,0.173507,
2,0,0,1,0,50280,0.166398,0.166038,-0.231632,26,0.0179764,10,-3.84596e-05,-3.6352,-0.24229,-0.24351,2.2217,0.1660375,
2,0,0,1,0,50281.5,0.158907,0.158586,-0.253447,26,0.0175914,10,-4.01931e-05,-3.59611,-0.169185,-0.34873,3.46629,0.158586,
2,0,0,1,0,50283,0.151416,0.151026,-0.286719,26,0.017167,10,-4.33021e-05,-3.54254,-0.126221,-0.467432,5.23695,0.151026,
2,0,0,1,0,50284.5,0.143925,0.143574,-0.339012,26,0.0166807,10,-4.86732e-05,-3.46978,-0.0781741,-0.754726,9.9807,0.143574,
2,0,0,1,0,50286,0.136434,0.136109,-0.419005,26,0.0160942,10,-5.70305e-05,-3.37778,-0.084152,-0.701112,11.4368,0.136109,
2,0,0,1,0,50287.5,0.128943,0.12861,-0.508577,26,0.0153774,10,-6.54082e-05,-3.29364,-0.110001,-0.536361,10.6027,0.12861,
2,0,0,0,0,50289,0.121453,0.121134,-0.572292,26,0.0145407,10,-6.93238e-05,-3.24238,-0.226028,-0.261029,5.81765,0.121134,
2,0,0,1,0,50290.5,0.113962,0.113624,-0.595243,26,0.0136364,10,-6.76338e-05,-3.22531,-1.45978,-0.0404169,0.940749,0.113624,
2,0,0,0,0,50292,0.106471,0.106142,-0.595126,26,0.0127182,10,-6.31677e-05,-3.22539,1.73709,0.0339649,-0.790216,0.1061416,
2,0,0,1,0,50293.5,0.0989798,0.0986329,-0.585545,26,0.0118097,10,-5.7754e-05,-3.23244,1.41008,0.0418415,-0.954684,0.0986329,
2,0,0,0,0,50295,0.0914889,0.091175,-0.573872,26,0.0109189,10,-5.23228e-05,-3.24118,0.71504,0.0825129,-1.84046,0.091175,
2,0,0,1,0,50296.5,0.083998,0.0836408,-0.555223,26,0.0100515,10,-4.64393e-05,-3.25553,0.368822,0.159969,-3.45609,0.0836408,
2,0,0,0,0,50298,0.076507,0.0761671,-0.5378,26,0.00921149,10,-4.09626e-05,-3.26938,0.502043,0.11752,-2.4621,0.0761671,
2,0,0,1,0,50299.5,0.069016,0.0686838,-0.518767,26,0.00839794,10,-3.56309e-05,-3.28503,0.457459,0.128973,-2.61774,0.0686838,
2,0,0,0,0,50301,0.0615251,0.0611613,-0.503336,26,0.0076093,10,-3.07847e-05,-3.29814,0.604695,0.0975699,-1.92271,0.0611613,
2,0,0,1,0,50302.5,0.0540342,0.0536483,-0.48756,26,0.00684497,10,-2.61568e-05,-3.31197,0.598878,0.0985175,-1.8714,0.0536483,
2,0,0,1,0,50304,0.0465436,0.0462197,-0.469527,26,0.00610568,10,-2.17014e-05,-3.32834,0.496877,0.118742,-2.1812,0.0462197,
2,0,0,1,0,50305.5,0.0390526,0.0387255,-0.452902,26,0.00539223,10,-1.75388e-05,-3.344,0.451439,0.130693,-2.30809,0.0387255,
2,0,0,1,0,50307,0.0315615,0.0312177,-0.437304,26,0.00470427,10,-1.36516e-05,-3.35922,0.478421,0.123322,-2.10234,0.0312177,
2,0,0,1,0,50308.5,0.0240706,0.0237112,-0.421703,26,0.00404045,10,-9.9991e-06,-3.37499,0.584148,0.101002,-1.66982,0.0237112,
2,0,0,1,0,50310,0.0165795,0.0162119,-0.412186,26,0.00339418,10,-6.68232e-06,-3.38491,1.02925,0.0573235,-0.924886,0.0162119,
2,0,0,1,0,50311.5,0.00908846,0.00876015,-0.408338,26,0.00275852,10,-3.57711e-06,-3.38898,3.80648,0.0154999,-0.247395,0.00876015,
2,0,0,1,0,50313,0.00159739,0.00120574,-0.41489,26,0.00212313,10,-5.00251e-07,-3.38207, , , ,0.00120574,
2,0,0,0,0,50313.2,0.000199195,-0.00019553,-0.411749,26,0.00200372,10,8.05093e-08,-3.38537, , , ,-0.00019553,