File: Figure_codes/Fig_3-5/rawdata_trumpetplot_data/after 10th/20221101_1-115_003_TrumpetPlot_ParaChange_from10_every3_12_CV_C01_0.csv
mode,ox/red,error,control changes,counter inc.,time/s,control/V,Ewe/V,<I>/mA,cycle number,(Q-Qo)/C,I Range,P/W,log(|I|),Tafel slope mV/dec,alpha_eff,dI/d(E-IR),E-IR/V,
2,1,0,0,0,1196.52,2.44065e-05,-0.000287149,20.3897,1,0.0000000E+000,10,-5.85489e-06,-1.69059, , , ,-0.0002871489,
2,1,0,1,0,1196.54,0.0104008,0.0100635,24.4516,1,0.00038919,10,0.000246068,-1.61169,0.202553,0.291282,275.894,0.0100635,
2,1,0,1,0,1196.56,0.0212099,0.020922,26.7247,1,0.000851643,10,0.000559135,-1.57309,0.374053,0.157732,163.982,0.020922,
2,1,0,1,0,1196.58,0.0320052,0.0316767,28.1669,1,0.00134666,10,0.000892235,-1.55026,0.558952,0.105555,115.914,0.0316767,
2,1,0,1,0,1196.59,0.0428033,0.0424568,29.3227,1,0.00186441,10,0.00124495,-1.5328,0.64832,0.0910045,104.193,0.0424568,
2,1,0,1,0,1196.61,0.0535986,0.0532878,30.4879,1,0.00240274,10,0.00162463,-1.51587,0.608176,0.0970113,115.553,0.0532878,
2,1,0,1,0,1196.63,0.0644077,0.0640679,31.889,1,0.00296402,10,0.00204306,-1.49636,0.50876,0.115968,144.465,0.0640679,
2,1,0,1,0,1196.65,0.075203,0.0748299,33.6117,1,0.00355322,10,0.00251516,-1.47351,0.434214,0.135878,178.432,0.0748299,
2,1,0,1,0,1196.67,0.0860011,0.0856683,35.6594,1,0.00417651,10,0.00305489,-1.44783,0.419174,0.140753,195.91,0.0856683,
2,1,0,1,0,1196.68,0.0968075,0.0963922,37.8845,1,0.00483804,10,0.00365177,-1.42154,0.394485,0.149562,221.218,0.0963922,
2,1,0,1,0,1196.7,0.107606,0.107312,40.3574,1,0.00554244,10,0.00433084,-1.39408,0.402888,0.146443,230.557,0.107312,
2,1,0,1,0,1196.72,0.118401,0.118056,42.867,1,0.00629139,10,0.00506072,-1.36788,0.414557,0.142321,238.152,0.118056,
2,1,0,1,0,1196.74,0.129207,0.128875,45.5632,1,0.00708713,10,0.00587194,-1.34139,0.394469,0.149568,266.097,0.1288746,
2,1,0,1,0,1196.76,0.140005,0.139668,48.6034,1,0.00793443,10,0.00678836,-1.31333,0.369111,0.159844,303.421,0.139668,
2,1,0,1,0,1196.77,0.150803,0.150464,52.0327,1,0.0088403,10,0.00782907,-1.28372,0.366641,0.16092,326.883,0.150464,
2,1,0,1,0,1196.79,0.161604,0.161272,55.5685,1,0.00980935,10,0.00896165,-1.25517,0.39938,0.147729,320.235,0.161272,
2,1,0,1,0,1196.81,0.172405,0.172025,58.862,1,0.0108404,10,0.0101257,-1.23017,0.486764,0.121209,278.087,0.172025,
2,1,0,1,0,1196.83,0.183203,0.18287,61.4461,1,0.011925,10,0.0112367,-1.21151,0.798252,0.0739115,176.749,0.18287,
2,1,0,1,0,1196.85,0.194001,0.193681,62.3329,1,0.0130426,10,0.0120727,-1.20528,-2.82007,-0.0209215,-50.6161,0.193681,
2,1,0,1,0,1196.86,0.204808,0.204523,59.9386,1,0.0141487,10,0.0122588,-1.22229,-0.332874,-0.177244,-411.48,0.204523,
2,1,0,1,0,1196.88,0.215603,0.215322,53.4721,1,0.0151743,10,0.0115137,-1.27187,-0.165536,-0.356418,-739.292,0.215322,
2,1,0,1,0,1196.9,0.226401,0.226095,44.6424,1,0.0160576,10,0.0100934,-1.35025,-0.125606,-0.469724,-817.773,0.2260948,
2,1,0,1,0,1196.92,0.237207,0.236941,36.5066,1,0.0167843,10,0.00864991,-1.43763,-0.130957,-0.450531,-644.817,0.236941,
2,1,0,1,0,1196.94,0.248005,0.247729,30.7678,1,0.0173855,10,0.00762208,-1.5119,-0.170103,-0.346848,-418.84,0.2477292,
2,1,0,1,0,1196.95,0.258801,0.258556,27.2239,1,0.0179044,10,0.0070389,-1.56505,-0.249911,-0.236084,-252.089,0.258556,
2,1,0,1,0,1196.97,0.26961,0.269271,25.1153,1,0.0183737,10,0.00676283,-1.60006,-0.376133,-0.156859,-154.159,0.269271,
2,1,0,1,0,1196.99,0.280405,0.28013,23.7843,1,0.0188129,10,0.00666269,-1.62371,-0.544634,-0.10833,-100.703,0.28013,
2,1,0,1,0,1197.01,0.291203,0.290919,22.8798,1,0.0192323,10,0.00665616,-1.64055,-0.708661,-0.0832556,-74.4051,0.2909185,
2,1,0,1,0,1197.02,0.300012,0.299842,22.301,1,0.0195642,10,0.00668678,-1.65168,0.00124938,47.2233,33039.2,0.299842,
2,1,0,1,0,1197.04,0.290843,0.290575,4.17308,1,0.0197435,10,0.00121259,-2.37954,0.00798724,7.38678,1268.99,0.290575,
2,0,0,1,0,1197.06,0.280047,0.279812,-4.76292,1,0.0197264,10,-0.00133272,-2.32213,-0.01558,-3.7869,549.511,0.279812,
2,0,0,1,0,1197.07,0.269244,0.268962,-8.92667,1,0.0195987,10,-0.00240093,-2.04931,-0.0719217,-0.820336,277.359,0.268962,
2,0,0,1,0,1197.09,0.258443,0.258178,-11.1938,1,0.0194159,10,-0.00289,-1.95102,-0.153818,-0.383569,165.9,0.258178,
2,0,0,1,0,1197.11,0.247645,0.247331,-12.654,1,0.0192003,10,-0.00312971,-1.89777,-0.248561,-0.237366,116.899,0.2473305,
2,0,0,1,0,1197.13,0.236849,0.236555,-13.7474,1,0.0189621,10,-0.00325202,-1.86178,-0.338808,-0.17414,93.3614,0.236555,
2,0,0,1,0,1197.15,0.22604,0.225766,-14.688,1,0.0187058,10,-0.00331605,-1.83304,-0.419215,-0.140739,80.6118,0.225766,
2,0,0,1,0,1197.16,0.215245,0.214952,-15.5548,1,0.0184334,10,-0.00334353,-1.80814,-0.441066,-0.133767,81.2485,0.214952,
2,0,0,1,0,1197.18,0.204447,0.204152,-16.4415,1,0.0181455,10,-0.00335657,-1.78406,-0.454218,-0.129894,83.3571,0.204152,
2,0,0,1,0,1197.2,0.19364,0.193319,-17.4019,1,0.0178411,10,-0.00336411,-1.7594,-0.424692,-0.138924,94.3618,0.193319,
2,0,0,1,0,1197.22,0.182842,0.182604,-18.5192,1,0.0175181,10,-0.00338169,-1.73238,-0.368226,-0.160228,115.961,0.182604,
2,0,0,1,0,1197.24,0.172047,0.171742,-19.9668,1,0.0171722,10,-0.00342914,-1.69969,-0.295691,-0.199533,155.866,0.171742,
2,0,0,1,0,1197.25,0.161241,0.160916,-21.9599,1,0.0167958,10,-0.00353369,-1.65837,-0.23376,-0.252396,216.764,0.160916,
2,0,0,1,0,1197.27,0.150443,0.150131,-24.7334,1,0.0163768,10,-0.00371327,-1.60672,-0.188063,-0.313725,303.516,0.150131,
2,0,0,1,0,1197.29,0.139645,0.139405,-28.5344,1,0.0158987,10,-0.00397786,-1.54463,-0.16099,-0.366482,409.447,0.139405,
2,0,0,1,0,1197.31,0.128849,0.128586,-33.5109,1,0.0153413,10,-0.00430904,-1.47481,-0.154425,-0.382062,499.882,0.128586,
2,0,0,1,0,1197.33,0.118043,0.117788,-39.1533,1,0.0146872,10,-0.00461179,-1.40723,-0.17084,-0.345352,526.314,0.117788,
2,0,0,1,0,1197.34,0.107245,0.107041,-44.7601,1,0.0139314,10,-0.00479116,-1.34911,-0.201265,-0.293146,511.048,0.107041,
2,0,0,1,0,1197.36,0.0964468,0.096265,-49.8499,1,0.0130778,10,-0.0047988,-1.30234,-0.266375,-0.221492,430.19,0.096265,
2,0,0,1,0,1197.38,0.0856404,0.0853979,-54.1038,1,0.0121403,10,-0.00462036,-1.26677,-0.367218,-0.160667,338.319,0.0853979,
2,0,0,1,0,1197.4,0.0748451,0.0745691,-57.0596,1,0.0111373,10,-0.00425488,-1.24367,-0.639828,-0.0922123,204.8,0.0745691,
2,0,0,1,0,1197.42,0.0640471,0.0637317,-58.4999,1,0.0100947,10,-0.0037283,-1.23285,-2.45584,-0.0240244,54.6797,0.0637317,
2,0,0,1,0,1197.43,0.0532407,0.0529124,-58.2986,1,0.00904157,10,-0.00308472,-1.23434,1.57238,0.0375228,-85.1558,0.0529124,
2,0,0,1,0,1197.45,0.0424426,0.0421259,-56.8812,1,0.00800409,10,-0.00239617,-1.24503,0.814501,0.072437,-160.612,0.0421259,
2,0,0,1,0,1197.47,0.0316473,0.0313045,-54.9775,1,0.00699737,10,-0.00172104,-1.25981,0.697935,0.0845351,-181.32,0.0313045,
2,0,0,1,0,1197.49,0.0208437,0.0205414,-52.9348,1,0.00602622,10,-0.00108735,-1.27626,0.616621,0.0956828,-197.567,0.0205414,
2,0,0,1,0,1197.51,0.0100429,0.00974324,-50.617,1,0.00509377,10,-0.000493173,-1.2957,0.493491,0.119556,-235.918,0.009743236,
2,0,0,1,0,1197.52,-0.000755207,-0.00112381,-47.834,1,0.00420708,10,5.37564e-05,-1.32026,0.387666,0.152193,-283.684,-0.00112381,
2,0,0,1,0,1197.54,-0.0115505,-0.0118498,-44.5361,1,0.0033757,10,0.000527745,-1.35129,0.33448,0.176393,-306.716,-0.0118498,
2,0,0,1,0,1197.56,-0.0223597,-0.0227338,-41.4597,1,0.00260282,10,0.000942538,-1.38237,0.375046,0.157314,-255.012,-0.0227338,
2,0,0,1,0,1197.58,-0.033155,-0.0335351,-39.1934,1,0.00187849,10,0.00131436,-1.40679,0.550037,0.107265,-164.465,-0.0335351,
2,0,0,1,0,1197.6,-0.043953,-0.0443333,-37.8666,1,0.00118645,10,0.00167875,-1.42174,0.976954,0.0603918,-89.3854,-0.0443333,
2,0,0,1,0,1197.61,-0.0547594,-0.0551197,-37.2693,1,0.000511552,10,0.00205428,-1.42865,3.03826,0.019419,-28.2654,-0.0551197,
2,0,0,1,0,1197.63,-0.0655575,-0.0658903,-37.2119,1,-0.000157936,10,0.0024519,-1.42932,-4.95174,-0.011915,17.3159,-0.0658903,
2,0,0,1,0,1197.65,-0.0763528,-0.0767011,-37.5496,1,-0.000830222,10,0.00288009,-1.4254,-1.81341,-0.0325353,47.7088,-0.0767011,
2,0,0,1,0,1197.67,-0.0871592,-0.0874876,-38.1887,1,-0.00151139,10,0.00334104,-1.41807,-1.2404,-0.0475654,70.9208,-0.0874876,
2,0,0,1,0,1197.69,-0.0979573,-0.0982984,-39.0431,1,-0.00220632,10,0.00383787,-1.40846,-1.13971,-0.0517676,78.6094,-0.0982984,
2,0,0,1,1,1197.7,-0.0955546,-0.0960334,-27.4601,1,-0.0025896,10,0.00263708,-1.5613,-0.0271288,-2.17481,2303.31,-0.0960334,
2,0,0,1,1,1197.71,-0.0847538,-0.0852045,-8.59565,1,-0.00289873,10,0.000732388,-2.06572,-0.0120408,-4.90002,1393.82,-0.0852045,
2,1,0,1,1,1197.73,-0.0739557,-0.0743735,3.69606,1,-0.00293465,10,-0.000274889,-2.43226,0.0116209,5.07707,943.223,-0.0743735,
2,1,0,1,1,1197.75,-0.0631604,-0.06362,12.2492,1,-0.00278602,10,-0.000779296,-1.91189,0.0404687,1.45792,667.699,-0.06362,
2,1,0,1,1,1197.77,-0.0523512,-0.0527837,18.4227,1,-0.00250625,10,-0.000972419,-1.73465,0.0880218,0.670289,474.312,-0.0527837,
2,1,0,1,1,1197.79,-0.0415559,-0.0419336,22.7281,1,-0.00213319,10,-0.000953069,-1.64344,0.155992,0.378225,333.027,-0.0419336,
2,1,0,1,1,1197.8,-0.0307579,-0.0312086,25.6974,1,-0.00169533,10,-0.000801981,-1.59011,0.261589,0.225544,225.311,-0.0312086,
2,1,0,1,1,1197.82,-0.0199515,-0.0203182,27.7036,1,-0.00121329,10,-0.000562889,-1.55746,0.428536,0.137678,148.354,-0.0203182,
2,1,0,1,1,1197.84,-0.0091534,-0.00948194,28.9568,1,-0.000702451,10,-0.000274567,-1.53825,0.765295,0.0770944,86.8932,-0.00948194,
2,1,0,1,1,1197.86,-7.54729e-05,-0.00042076,29.4882,1,-0.000260293,10,-1.24074e-05,-1.53035, , , ,-0.00042076,