File: Figure_codes/Fig_3-5/rawdata_trumpetplot_data/after 10th/20221101_1-115_003_TrumpetPlot_ParaChange_from10_every3_13_CV_C01_2.csv
mode,ox/red,error,control changes,counter inc.,time/s,control/V,Ewe/V,<I>/mA,cycle number,(Q-Qo)/C,I Range,P/W,log(|I|),Tafel slope mV/dec,alpha_eff,dI/d(E-IR),E-IR/V,
2,1,0,1,0,5138.12,2.44065e-05,-0.000248974,26.1255,3,0.0000000E+000,10,-6.50457e-06,-1.58294, , , ,-0.000248974,
2,1,0,1,0,5138.13,0.0122624,0.0119022,30.4113,3,0.000432354,10,0.000361962,-1.51697,0.27388,0.215423,253.941,0.0119022,
2,1,0,1,0,5138.15,0.0250636,0.0247512,33.0582,3,0.000941813,10,0.000818229,-1.48072,0.430842,0.136941,176.208,0.0247512,
2,1,0,1,0,5138.16,0.0378704,0.037527,35.06,3,0.00148747,10,0.00131569,-1.45519,0.560264,0.105308,143.946,0.03752695,
2,1,0,1,0,5138.18,0.0506632,0.0503335,36.8659,3,0.00206302,10,0.00185559,-1.43338,0.584933,0.100866,145.166,0.0503335,
2,1,0,1,0,5138.2,0.0634672,0.0630796,38.8238,3,0.00266845,10,0.00244899,-1.4109,0.550512,0.107173,162.47,0.0630796,
2,1,0,1,0,5138.21,0.0762629,0.0758946,41.057,3,0.00330737,10,0.003116,-1.38661,0.505701,0.11667,187.033,0.0758946,
2,1,0,1,0,5138.23,0.0890668,0.0886417,43.5791,3,0.00398432,10,0.00386293,-1.36072,0.479012,0.12317,209.652,0.0886417,
2,1,0,1,0,5138.24,0.10186,0.1015,46.3494,3,0.00470409,10,0.00470448,-1.33396,0.490861,0.120197,217.394,0.1015,
2,1,0,1,0,5138.26,0.114666,0.114253,49.3,3,0.00546897,10,0.00563265,-1.30715,0.46678,0.126398,243.114,0.114253,
2,1,0,1,0,5138.28,0.127462,0.127105,52.4308,3,0.00628302,10,0.00666421,-1.28041,0.478812,0.123222,252.269,0.127105,
2,1,0,1,0,5138.29,0.140263,0.139875,55.8576,3,0.00714915,10,0.0078131,-1.25292,0.450499,0.130966,285.729,0.139875,
2,1,0,1,0,5138.31,0.153064,0.152722,59.7202,3,0.00807381,10,0.00912059,-1.22388,0.441281,0.133702,311.641,0.152722,
2,1,0,1,0,5138.32,0.165866,0.165551,63.7306,3,0.00906204,10,0.0105507,-1.19565,0.480871,0.122694,304.909,0.165551,
2,1,0,1,0,5138.34,0.178667,0.17831,67.4319,3,0.0101125,10,0.0120238,-1.17113,0.591201,0.0997968,262.169,0.17831,
2,1,0,1,0,5138.36,0.191463,0.191099,70.2539,3,0.011216,10,0.0134255,-1.15333,1.03169,0.057188,156.214,0.191099,
2,1,0,1,0,5138.37,0.204269,0.203907,70.9928,3,0.01235,10,0.0144759,-1.14879,-2.09978,-0.0280981,-77.3091,0.203907,
2,1,0,1,0,5138.39,0.217062,0.216758,67.9169,3,0.0134668,10,0.0147215,-1.16802,-0.381142,-0.154798,-406.942,0.216758,
2,1,0,1,0,5138.4,0.229866,0.229562,60.8329,3,0.0145004,10,0.013965,-1.21586,-0.215026,-0.274386,-648.195,0.229562,
2,1,0,1,0,5138.42,0.242662,0.242385,52.0809,3,0.0154031,10,0.0126236,-1.28332,-0.182113,-0.323975,-658.977,0.242385,
2,1,0,1,0,5138.44,0.255466,0.255185,44.4224,3,0.0161717,10,0.0113359,-1.3524,-0.197299,-0.299039,-520.511,0.255185,
2,1,0,1,0,5138.45,0.268259,0.267958,38.8371,3,0.0168345,10,0.0104067,-1.41075,-0.24992,-0.236075,-359.562,0.267958,
2,1,0,1,0,5138.47,0.281065,0.280765,35.0719,3,0.0174236,10,0.00984695,-1.45504,-0.338356,-0.174373,-239.649,0.280765,
2,1,0,1,0,5138.48,0.293861,0.293556,32.5295,3,0.0179631,10,0.00954923,-1.48772,-0.452021,-0.130525,-166.453,0.293556,
2,1,0,1,0,5138.49,0.298983,0.298884,28.7555,3,0.0182481,10,0.00859455,-1.54128,0.0221988,2.6578,2338.97,0.298884,
2,1,0,1,0,5138.51,0.286187,0.285942,6.78636,3,0.0185044,10,0.0019405,-2.16836,0.0100508,5.87018,1132.39,0.285942,
2,0,0,1,0,5138.53,0.273386,0.273145,-3.52994,3,0.0185207,10,-0.000964185,-2.45223,-0.013848,-4.26053,591.955,0.273145,
2,0,0,1,0,5138.54,0.260585,0.26032,-9.22419,3,0.018414,10,-0.00240125,-2.03507,-0.0588676,-1.00225,343.462,0.26032,
2,0,0,1,0,5138.56,0.247783,0.24749,-12.7303,3,0.0182359,10,-0.00315062,-1.89516,-0.129107,-0.456985,223.836,0.24749,
2,0,0,1,0,5138.57,0.234982,0.234684,-15.1441,3,0.0180116,10,-0.00355407,-1.81976,-0.215378,-0.273937,160.824,0.234684,
2,0,0,1,0,5138.59,0.222187,0.221917,-16.9633,3,0.017754,10,-0.00376444,-1.77049,-0.300616,-0.196263,129.535,0.221917,
2,0,0,1,0,5138.61,0.20938,0.209094,-18.4993,3,0.0174698,10,-0.00386809,-1.73285,-0.373928,-0.157784,113.755,0.209094,
2,0,0,1,0,5138.62,0.196587,0.19631,-19.9116,3,0.0171622,10,-0.00390884,-1.70089,-0.413686,-0.14262,110.84,0.19631,
2,0,0,1,0,5138.64,0.183783,0.183501,-21.3648,3,0.0168319,10,-0.00392047,-1.6703,-0.410003,-0.143901,120.141,0.183501,
2,0,0,1,0,5138.65,0.170987,0.170664,-23.0268,3,0.0164769,10,-0.00392984,-1.63777,-0.364712,-0.161771,145.753,0.170664,
2,0,0,1,0,5138.67,0.158183,0.157896,-25.194,3,0.0160918,10,-0.00397803,-1.5987,-0.294207,-0.200539,197.804,0.157896,
2,0,0,1,0,5138.69,0.145385,0.145081,-28.2108,3,0.0156657,10,-0.00409284,-1.54959,-0.230568,-0.25589,282.937,0.145081,
2,0,0,1,0,5138.7,0.132584,0.132291,-32.5167,3,0.0151812,10,-0.00430167,-1.48789,-0.190357,-0.309944,394.772,0.132291,
2,0,0,1,0,5138.72,0.119783,0.119521,-38.2787,3,0.014616,10,-0.00457509,-1.41704,-0.178146,-0.33119,495.074,0.119521,
2,0,0,1,0,5138.73,0.106987,0.106703,-44.8834,3,0.0139503,10,-0.00478917,-1.34791,-0.200812,-0.293808,513.204,0.106703,
2,0,0,1,0,5138.75,0.0941801,0.0939703,-51.3586,3,0.0131795,10,-0.00482618,-1.28939,-0.242298,-0.243502,486.217,0.0939703,
2,0,0,1,0,5138.77,0.0813844,0.0811987,-57.0697,3,0.0123102,10,-0.00463399,-1.24359,-0.324281,-0.181941,403.852,0.0811987,
2,0,0,1,0,5138.78,0.0685832,0.0683307,-61.6634,3,0.0113585,10,-0.0042135,-1.20997,-0.462045,-0.127693,306.248,0.0683307,
2,0,0,1,0,5138.8,0.0557876,0.0555401,-64.7496,3,0.0103443,10,-0.0035962,-1.18876,-0.877827,-0.0672114,169.261,0.0555401,
2,0,0,1,0,5138.81,0.0429808,0.0426805,-66.0532,3,0.00929535,10,-0.00281919,-1.18011,-4.02878,-0.0146446,37.6409,0.0426805,
2,0,0,1,0,5138.83,0.030188,0.0298422,-65.8731,3,0.00823846,10,-0.0019658,-1.18129,2.96061,0.0199283,-51.1538,0.0298422,
2,0,0,1,0,5138.85,0.017384,0.0170812,-64.9012,3,0.0071916,10,-0.00110859,-1.18775,1.63038,0.0361878,-91.5978,0.0170812,
2,0,0,1,0,5138.86,0.00458834,0.00424079,-63.5513,3,0.00616356,10,-0.000269507,-1.19688,1.27984,0.0460994,-114.31,0.00424079,
2,0,0,1,0,5138.88,-0.00821564,-0.00853393,-61.8393,3,0.00515943,10,0.000527732,-1.20874,0.884314,0.0667184,-160.831,-0.00853393,
2,0,0,1,0,5138.89,-0.0210196,-0.0213829,-59.4479,3,0.0041884,10,0.00127117,-1.22586,0.633388,0.0931498,-215.766,-0.0213829,
2,0,0,1,0,5138.91,-0.0338153,-0.0341597,-56.4557,3,0.00326099,10,0.00192851,-1.24829,0.54684,0.107893,-237.708,-0.0341597,
2,0,0,1,0,5138.93,-0.0466193,-0.0469864,-53.5579,3,0.0023818,10,0.00251649,-1.27118,0.605791,0.0973933,-203.84,-0.0469864,
2,0,0,1,0,5138.94,-0.0594121,-0.0597866,-51.3453,3,0.00154395,10,0.00306976,-1.2895,0.880613,0.0669988,-134.567,-0.0597866,
2,0,0,1,0,5138.96,-0.0722189,-0.0725549,-50.0657,3,0.00073378,10,0.00363252,-1.30046,1.70427,0.034619,-67.7891,-0.0725549,
2,0,0,1,0,5138.97,-0.0850146,-0.0853944,-49.573,3,-6.24847e-05,10,0.00423325,-1.30476,9.28228,0.00635619,-12.3199,-0.0853944,
2,0,0,1,0,5138.99,-0.0978158,-0.0981638,-49.7312,3,-0.000856253,10,0.0048818,-1.30337,-3.52815,-0.0167227,32.4966,-0.0981638,
2,0,0,1,0,5139.01,-0.110611,-0.110922,-50.3748,3,-0.00165655,10,0.00558765,-1.29779,-1.72675,-0.0341682,67.247,-0.110922,
2,0,0,1,0,5139.02,-0.123418,-0.123754,-51.4526,3,-0.00247086,10,0.00636744,-1.28859,-1.18839,-0.0496471,99.7756,-0.123754,
2,0,0,1,0,5139.04,-0.136214,-0.136542,-52.85,3,-0.00330521,10,0.00721625,-1.27695,-1.0261,-0.0574994,118.694,-0.136542,
2,0,0,1,0,5139.05,-0.149015,-0.149343,-54.498,3,-0.00416419,10,0.0081389,-1.26362,-0.938709,-0.0628523,133.716,-0.149343,
2,0,0,1,0,5139.07,-0.161816,-0.162164,-56.2648,3,-0.00505042,10,0.00912409,-1.24976,-0.931847,-0.0633151,139.003,-0.162164,
2,0,0,1,0,5139.09,-0.174615,-0.174911,-58.0471,3,-0.00596506,10,0.0101531,-1.23622,-0.951223,-0.0620254,140.496,-0.174911,
2,0,0,1,0,5139.1,-0.187419,-0.187735,-59.8547,3,-0.00690847,10,0.0112368,-1.2229,-0.969689,-0.0608443,142.12,-0.187735,
2,0,0,1,0,5139.12,-0.199647,-0.200031,-61.5903,3,-0.00783778,10,0.01232,-1.21049,0.318008,0.18553,-431.607,-0.200031,
2,0,0,1,1,5139.13,-0.192535,-0.192981,-44.7363,3,-0.00837197,10,0.00863327,-1.34934,-0.0558121,-1.05712,1871.3,-0.192981,
2,0,0,1,1,5139.14,-0.179739,-0.180126,-25.7946,3,-0.00892482,10,0.00464626,-1.58847,-0.0472943,-1.24751,1244.75,-0.180126,
2,0,0,1,1,5139.16,-0.166932,-0.167318,-11.9293,3,-0.00922044,10,0.001996,-1.92338,-0.0269086,-2.19261,958.177,-0.167318,
2,0,0,1,1,5139.17,-0.154139,-0.154591,-1.01104,3,-0.00931981,10,0.000156298,-2.99523,-0.0564556,-1.04507,767.905,-0.1545912,
2,1,0,1,1,5139.19,-0.141335,-0.141802,7.91143,3,-0.00926135,10,-0.00112185,-2.10175,0.0250957,2.351,638.725,-0.141802,
2,1,0,1,1,5139.21,-0.12854,-0.129023,15.4098,3,-0.00907236,10,-0.00198822,-1.8122,0.0641223,0.920117,539.138,-0.129023,
2,1,0,1,1,5139.22,-0.115736,-0.116148,21.7714,3,-0.00877271,10,-0.00252871,-1.66211,0.109206,0.540263,453.436,-0.116148,
2,1,0,1,1,5139.24,-0.102932,-0.103353,27.0901,3,-0.00838016,10,-0.00279986,-1.56719,0.163093,0.361756,379.712,-0.1033534,
2,1,0,1,1,5139.25,-0.0901362,-0.0905755,31.5567,3,-0.00790963,10,-0.00285826,-1.50091,0.225274,0.261904,321.082,-0.0905755,
2,1,0,1,1,5139.27,-0.0773322,-0.0777637,35.3127,3,-0.00737346,10,-0.00274604,-1.45207,0.302409,0.1951,268.097,-0.0777637,
2,1,0,1,1,5139.29,-0.0645393,-0.0649115,38.4407,3,-0.00678222,10,-0.00249524,-1.41521,0.39722,0.148532,222.401,-0.0649115,
2,1,0,1,1,5139.3,-0.0517325,-0.052105,41.0291,3,-0.00614544,10,-0.00213782,-1.38691,0.520395,0.113375,181.189,-0.052105,
2,1,0,1,1,5139.32,-0.0389369,-0.0393207,43.0976,3,-0.00547161,10,-0.00169463,-1.36555,0.694126,0.084999,142.719,-0.0393207,
2,1,0,1,1,5139.33,-0.0261357,-0.0265333,44.6822,3,-0.00476858,10,-0.00118557,-1.34987,0.969314,0.0608678,106,-0.0265333,
2,1,0,1,1,5139.35,-0.01334,-0.0137331,45.8021,3,-0.00404387,10,-0.000629005,-1.33911,1.4789,0.0398944,71.2456,-0.01373311,
2,1,0,1,1,5139.37,-0.000774628,-0.00113494,46.4979,3,-0.00331859,10,-5.27726e-05,-1.33257, , , ,-0.00113494,
2,1,0,0,1,5139.37,-0.000125413,-0.000363498,46.5408,3,-0.00328138,10,-1.69175e-05,-1.33217, , , ,-0.000363498,