File: Figure_codes/Fig_3-5/rawdata_trumpetplot_data/after 10th/20221101_1-115_003_TrumpetPlot_ParaChange_from10_every3_13_CV_C01_6.csv
mode,ox/red,error,control changes,counter inc.,time/s,control/V,Ewe/V,<I>/mA,cycle number,(Q-Qo)/C,I Range,P/W,log(|I|),Tafel slope mV/dec,alpha_eff,dI/d(E-IR),E-IR/V,
2,1,0,1,0,13018.6,2.44065e-05,-0.000344411,23.0197,7,0.0000000E+000,10,-7.92824e-06,-1.6379, , , ,-0.000344411,
2,1,0,1,0,13018.7,0.0122624,0.0118481,27.188,7,0.000384033,10,0.000322127,-1.56562,0.242371,0.243428,256.513,0.0118481,
2,1,0,1,0,13018.7,0.0250636,0.0247172,29.9708,7,0.000842733,10,0.000740796,-1.5233,0.358571,0.164542,191.941,0.0247172,
2,1,0,1,0,13018.7,0.0378703,0.0375142,32.2122,7,0.00134095,10,0.00120841,-1.49198,0.449413,0.131283,164.861,0.0375142,
2,1,0,1,0,13018.7,0.0506632,0.0503388,34.2317,7,0.0018729,10,0.00172318,-1.46557,0.505302,0.116762,155.998,0.0503388,
2,1,0,1,0,13018.7,0.0634672,0.0631156,36.2842,7,0.00243713,10,0.0022901,-1.44028,0.510708,0.115526,163.57,0.0631156,
2,1,0,1,0,13018.7,0.0762629,0.0758659,38.4378,7,0.00303497,10,0.00291612,-1.41524,0.504824,0.116872,175.347,0.0758659,
2,1,0,1,0,13018.7,0.0890668,0.0886937,40.744,7,0.00366848,10,0.00361373,-1.38994,0.508283,0.116077,184.584,0.0886937,
2,1,0,1,0,13018.8,0.10186,0.10149,43.1613,7,0.00433982,10,0.00438042,-1.36491,0.510914,0.115479,194.564,0.1014896,
2,1,0,1,0,13018.8,0.114666,0.114286,45.6645,7,0.00505092,10,0.00521879,-1.34042,0.532628,0.110771,197.468,0.114286,
2,1,0,1,0,13018.8,0.127462,0.127104,48.3095,7,0.00580243,10,0.00614032,-1.31597,0.521787,0.113073,213.183,0.127104,
2,1,0,1,0,13018.8,0.140263,0.139934,51.1616,7,0.00659817,10,0.00715922,-1.29106,0.500137,0.117968,235.656,0.139934,
2,1,0,1,0,13018.8,0.153064,0.152696,54.3204,7,0.00744196,10,0.00829449,-1.26504,0.494528,0.119306,252.883,0.152696,
2,1,0,1,0,13018.8,0.165866,0.16549,57.5514,7,0.0083375,10,0.0095242,-1.23994,0.536997,0.10987,246.605,0.16549,
2,1,0,1,0,13018.9,0.178667,0.178303,60.4983,7,0.00928294,10,0.010787,-1.21826,0.673569,0.0875931,206.517,0.178303,
2,1,0,1,0,13018.9,0.191463,0.191116,62.7253,7,0.0102704,10,0.0119878,-1.20256,1.15367,0.0511412,124.815,0.191116,
2,1,0,1,0,13018.9,0.204269,0.20395,63.4487,7,0.0112826,10,0.0129404,-1.19758,-4.36349,-0.0135213,-33.3112,0.2039503,
2,1,0,1,0,13018.9,0.217062,0.216773,61.654,7,0.0122871,10,0.0133649,-1.21004,-0.562268,-0.104932,-250.979,0.216773,
2,1,0,1,0,13018.9,0.229866,0.22958,57.1068,7,0.01324,10,0.0131106,-1.24331,-0.302735,-0.19489,-432.579,0.22958,
2,1,0,1,0,13018.9,0.242662,0.242344,51.0178,7,0.0141054,10,0.0123639,-1.29228,-0.242554,-0.243245,-484.029,0.242344,
2,1,0,1,0,13019,0.255466,0.255155,45.0892,7,0.0148726,10,0.0115047,-1.34593,-0.245257,-0.240564,-424.133,0.255155,
2,1,0,1,0,13019,0.268259,0.267943,40.2394,7,0.0155532,10,0.0107818,-1.39535,-0.280822,-0.210097,-330.908,0.267943,
2,1,0,1,0,13019,0.281065,0.280783,36.5869,7,0.0161661,10,0.010273,-1.43667,-0.344489,-0.171268,-245.232,0.280783,
2,1,0,1,0,13019,0.293861,0.293561,33.873,7,0.0167286,10,0.0099438,-1.47015,-0.427474,-0.13802,-183.24,0.293561,
2,1,0,1,0,13019,0.298983,0.298826,30.3095,7,0.0170254,10,0.00905728,-1.51842,0.0283179,2.08349,2045.42,0.298826,
2,1,0,1,0,13019,0.286187,0.285983,10.9504,7,0.0173329,10,0.00313164,-1.96057,0.0230573,2.55884,1053.32,0.285983,
2,1,0,1,0,13019,0.273386,0.273134,0.794195,7,0.0174186,10,0.000216922,-3.10007,0.0439236,1.34324,612.231,0.273134,
2,0,0,1,0,13019.1,0.260585,0.260348,-5.40987,7,0.0173774,10,-0.00140845,-2.26681,-0.0279264,-2.1127,388.958,0.260348,
2,0,0,1,0,13019.1,0.247783,0.247496,-9.51747,7,0.0172555,10,-0.00235554,-2.02148,-0.0792125,-0.744832,269.263,0.247496,
2,0,0,1,0,13019.1,0.234982,0.234671,-12.4336,7,0.0170784,10,-0.00291781,-1.9054,-0.144369,-0.408676,196.172,0.234671,
2,0,0,1,0,13019.1,0.222187,0.221914,-14.6323,7,0.0168609,10,-0.0032471,-1.83469,-0.216801,-0.272139,154.646,0.221914,
2,0,0,1,0,13019.1,0.20938,0.209066,-16.4275,7,0.0166117,10,-0.00343443,-1.78443,-0.295438,-0.199703,127.664,0.209066,
2,0,0,1,0,13019.1,0.196587,0.19627,-17.9665,7,0.0163362,10,-0.00352628,-1.74554,-0.355867,-0.165792,116.122,0.1962698,
2,0,0,1,0,13019.2,0.183783,0.183446,-19.4183,7,0.0160368,10,-0.00356221,-1.71179,-0.391034,-0.150882,114.353,0.183446,
2,0,0,1,0,13019.2,0.170987,0.17066,-20.9024,7,0.0157141,10,-0.0035672,-1.6798,-0.392893,-0.150168,122.703,0.17066,
2,0,0,1,0,13019.2,0.158183,0.157895,-22.6446,7,0.0153659,10,-0.00357546,-1.64504,-0.341678,-0.172677,152.987,0.157895,
2,0,0,1,0,13019.2,0.145385,0.145109,-24.9227,7,0.0149861,10,-0.00361652,-1.60341,-0.27436,-0.215046,209.933,0.145109,
2,0,0,1,0,13019.2,0.132584,0.132293,-28.1237,7,0.0145628,10,-0.00372058,-1.55093,-0.219058,-0.269334,296.763,0.132293,
2,0,0,1,0,13019.2,0.119782,0.119508,-32.5255,7,0.0140788,10,-0.00388706,-1.48778,-0.192672,-0.306221,389.561,0.119508,
2,0,0,1,0,13019.3,0.106987,0.106742,-37.8932,7,0.0135154,10,-0.00404478,-1.42144,-0.200946,-0.293611,433.677,0.106742,
2,0,0,1,0,13019.3,0.0941801,0.0939618,-43.3773,7,0.0128641,10,-0.00407581,-1.36274,-0.241109,-0.244703,413.222,0.0939618,
2,0,0,1,0,13019.3,0.0813844,0.0811807,-48.4395,7,0.0121286,10,-0.00393235,-1.3148,-0.30167,-0.195578,368.55,0.0811807,
2,0,0,1,0,13019.3,0.0685832,0.068371,-52.6731,7,0.0113179,10,-0.00360131,-1.27841,-0.411994,-0.143206,293.612,0.06837099,
2,0,0,1,0,13019.3,0.0557876,0.0555422,-55.9363,7,0.0104472,10,-0.00310683,-1.25231,-0.624002,-0.094551,205.719,0.0555422,
2,0,0,1,0,13019.3,0.0429808,0.0426996,-57.9127,7,0.00953442,10,-0.00247285,-1.23723,-1.24804,-0.047274,106.578,0.0426996,
2,0,0,1,0,13019.4,0.030188,0.0298623,-58.7235,7,0.00859983,10,-0.00175362,-1.23119,-4.48825,-0.0131454,30.0866,0.0298623,
2,0,0,1,0,13019.4,0.017384,0.0170738,-58.8039,7,0.00765872,10,-0.00100401,-1.23059,10.3355,0.00570846,-13.0895,0.0170738,
2,0,0,1,0,13019.4,0.00458834,0.00428108,-58.4504,7,0.00672023,10,-0.000250231,-1.23321,3.5787,0.0164864,-37.5941,0.00428108,
2,0,0,1,0,13019.4,-0.00821564,-0.00858802,-57.7919,7,0.00578956,10,0.000496317,-1.23813,1.9004,0.0310461,-69.9592,-0.00858802,
2,0,0,1,0,13019.4,-0.0210196,-0.0213447,-56.6541,7,0.00487339,10,0.00120927,-1.24677,1.18417,0.0498239,-110.027,-0.02134471,
2,0,0,1,0,13019.4,-0.0338153,-0.0341565,-54.9872,7,0.00397966,10,0.00187817,-1.25974,0.869133,0.0678837,-145.565,-0.0341565,
2,0,0,1,0,13019.4,-0.0466193,-0.0470023,-53.0105,7,0.00311566,10,0.00249161,-1.27564,0.778213,0.0758148,-156.848,-0.0470023,
2,0,0,1,0,13019.5,-0.0594121,-0.0598343,-51.137,7,0.00228314,10,0.00305974,-1.29127,0.918851,0.0642107,-128.27,-0.0598343,
2,0,0,1,0,13019.5,-0.0722189,-0.0725592,-49.7445,7,0.00147691,10,0.00360942,-1.30325,1.32838,0.0444151,-86.3465,-0.0725592,
2,0,0,1,0,13019.5,-0.0850146,-0.0853774,-48.9119,7,0.000688376,10,0.00417597,-1.31059,2.69414,0.0218994,-41.876,-0.0853774,
2,0,0,1,0,13019.5,-0.0978158,-0.098185,-48.6512,7,-9.16128e-05,10,0.00477682,-1.31291,43.2372,0.00136457,-2.5942,-0.098185,
2,0,0,1,0,13019.5,-0.110611,-0.110994,-48.8465,7,-0.000871061,10,0.00542166,-1.31117,-3.59021,-0.0164336,31.3597,-0.110994,
2,0,0,1,0,13019.5,-0.123418,-0.123748,-49.4452,7,-0.001657,10,0.00611875,-1.30588,-1.86732,-0.0315961,61.0226,-0.123748,
2,0,0,1,0,13019.6,-0.136214,-0.136561,-50.3726,7,-0.00245533,10,0.00687894,-1.29781,-1.41749,-0.0416229,81.8752,-0.136561,
2,0,0,1,0,13019.6,-0.149015,-0.14937,-51.5245,7,-0.00327052,10,0.0076962,-1.28799,-1.22556,-0.0481412,96.8446,-0.14937,
2,0,0,1,0,13019.6,-0.161816,-0.162188,-52.8143,7,-0.00410536,10,0.00856584,-1.27725,-1.187,-0.0497051,102.457,-0.162188,
2,0,0,1,0,13019.6,-0.174615,-0.174895,-54.138,7,-0.00496114,10,0.00946846,-1.2665,-1.21121,-0.0487118,102.904,-0.174895,
2,0,0,1,0,13019.6,-0.187419,-0.187701,-55.4558,7,-0.00583801,10,0.0104091,-1.25605,-1.24031,-0.0475686,102.934,-0.187701,
2,0,0,1,0,13019.6,-0.199647,-0.199964,-56.6875,7,-0.00669626,10,0.0113355,-1.24651,0.310744,0.189867,-407.636,-0.1999644,
2,0,0,1,1,13019.6,-0.192535,-0.192983,-42.1601,7,-0.00719253,10,0.0081362,-1.3751,-0.0617619,-0.955282,1597.51,-0.192983,
2,0,0,1,1,13019.7,-0.179739,-0.180157,-26.1678,7,-0.0077294,10,0.0047143,-1.58223,-0.0572621,-1.03035,1049.03,-0.180157,
2,0,0,1,1,13019.7,-0.166932,-0.167318,-14.4467,7,-0.00804913,10,0.00241719,-1.84023,-0.0400275,-1.47399,810.822,-0.167318,
2,0,0,1,1,13019.7,-0.154139,-0.154538,-5.09528,7,-0.00820205,10,0.000787416,-2.29283,-0.0133251,-4.42774,665.903,-0.154538,
2,1,0,1,1,13019.7,-0.141335,-0.141781,2.66074,7,-0.00821898,10,-0.000377243,-2.575,0.0168635,3.49869,557.633,-0.141781,
2,1,0,1,1,13019.7,-0.12854,-0.128996,9.25183,7,-0.00812157,10,-0.00119345,-2.03377,0.042239,1.39681,480.325,-0.128996,
2,1,0,1,1,13019.7,-0.115736,-0.11618,15.0113,7,-0.00792573,10,-0.00174402,-1.82358,0.0809999,0.728396,419.793,-0.11618,
2,1,0,1,1,13019.8,-0.102932,-0.103329,20.0463,7,-0.00764381,10,-0.00207137,-1.69797,0.125371,0.470602,364.927,-0.103329,
2,1,0,1,1,13019.8,-0.0901362,-0.0905235,24.4167,7,-0.00728691,10,-0.00221029,-1.61231,0.174857,0.337418,319.835,-0.0905235,
2,1,0,1,1,13019.8,-0.0773322,-0.0777032,28.2638,7,-0.00686448,10,-0.00219619,-1.54877,0.230796,0.255637,280.888,-0.0777032,
2,1,0,1,1,13019.8,-0.0645393,-0.0649433,31.6098,7,-0.00638453,10,-0.00205285,-1.50018,0.296043,0.199295,245.265,-0.0649433,
2,1,0,1,1,13019.8,-0.0517325,-0.0521453,34.5259,7,-0.00585446,10,-0.00180036,-1.46186,0.374544,0.157525,211.868,-0.0521453,
2,1,0,1,1,13019.8,-0.0389369,-0.0393419,37.0149,7,-0.00528121,10,-0.00145624,-1.43162,0.4813,0.122585,176.823,-0.0393419,
2,1,0,1,1,13019.9,-0.0261357,-0.0264824,39.105,7,-0.00467144,10,-0.00103559,-1.40777,0.613299,0.0962011,146.58,-0.0264824,
2,1,0,1,1,13019.9,-0.01334,-0.0137204,40.7749,7,-0.0040317,10,-0.000559448,-1.38961,0.80751,0.0730641,116.128,-0.0137204,
2,1,0,1,1,13019.9,-0.000774628,-0.00118743,42.0589,7,-0.0033808,10,-4.99421e-05,-1.37614, , , ,-0.00118743,
2,1,0,0,1,13019.9,-0.000125413,-0.000554371,42.1229,7,-0.00334713,10,-2.33518e-05,-1.37548, , , ,-0.000554371,