File: Figure_codes/Fig_3-5/rawdata_trumpetplot_data/after 10th/20221101_1-115_003_TrumpetPlot_ParaChange_from10_every3_11_CV_C01_1.csv
mode,ox/red,error,control changes,counter inc.,time/s,control/V,Ewe/V,<I>/mA,cycle number,(Q-Qo)/C,I Range,P/W,log(|I|),Tafel slope mV/dec,alpha_eff,dI/d(E-IR),E-IR/V,
2,1,0,1,0,3164.65,2.44065e-05,-0.000344411,10.2972,2,0.0000000E+000,10,-3.54646e-06,-1.98728, , , ,-0.000344411,
2,1,0,1,0,3164.68,0.0101427,0.00979626,15.1488,2,0.000330504,10,0.000148402,-1.81962,0.11243,0.524773,307.941,0.00979626,
2,1,0,1,0,3164.7,0.0205441,0.0202413,17.5495,2,0.000758898,10,0.000355225,-1.75573,0.231675,0.254667,173.886,0.0202413,
2,1,0,1,0,3164.73,0.0309482,0.0305834,19.0121,2,0.00123544,10,0.000581453,-1.72097,0.363577,0.162277,120.259,0.0305834,
2,1,0,1,0,3164.75,0.0413439,0.0410369,20.1784,2,0.00174519,10,0.000828057,-1.69511,0.433449,0.136118,107.183,0.0410369,
2,1,0,1,0,3164.78,0.0517425,0.0513833,21.3463,2,0.0022849,10,0.00109684,-1.67068,0.413832,0.14257,118.833,0.0513833,
2,1,0,1,0,3164.81,0.0621438,0.0617912,22.6817,2,0.00285685,10,0.00140153,-1.64432,0.38428,0.153534,135.861,0.0617912,
2,1,0,1,0,3164.83,0.0725479,0.0721895,24.1531,2,0.00346566,10,0.0017436,-1.61703,0.378602,0.155836,146.899,0.0721895,
2,1,0,1,0,3164.86,0.0829437,0.0826016,25.7553,2,0.00411415,10,0.00212743,-1.58913,0.367858,0.160388,161.24,0.0826016,
2,1,0,1,0,3164.88,0.0933422,0.0929947,27.4199,2,0.00480566,10,0.00254991,-1.56193,0.393285,0.150018,160.434,0.09299469,
2,1,0,1,0,3164.91,0.103749,0.103383,29.0587,2,0.00553993,10,0.00300419,-1.53672,0.424899,0.138856,157.509,0.103383,
2,1,0,1,0,3164.94,0.114148,0.113831,30.7533,2,0.00631752,10,0.00350067,-1.51211,0.411361,0.143426,172.22,0.1138306,
2,1,0,1,0,3164.96,0.124543,0.124236,32.6952,2,0.00714196,10,0.00406194,-1.48552,0.371967,0.158616,202.439,0.124236,
2,1,0,1,0,3164.99,0.134942,0.134604,34.9846,2,0.00802148,10,0.00470907,-1.45612,0.344744,0.171142,233.849,0.134604,
2,1,0,1,0,3165.01,0.145349,0.145036,37.5322,2,0.00896438,10,0.00544354,-1.4256,0.357543,0.165015,241.57,0.145036,
2,1,0,1,0,3165.04,0.155747,0.155418,39.9558,2,0.00997219,10,0.00620984,-1.39842,0.418293,0.14105,219.728,0.155418,
2,1,0,1,0,3165.07,0.166143,0.165781,41.9451,2,0.0110384,10,0.0069537,-1.37732,0.629947,0.0936587,153.145,0.165781,
2,1,0,1,0,3165.09,0.176542,0.176239,42.8848,2,0.0121449,10,0.00755796,-1.3677,-26.0813,-0.00226215,-3.77691,0.176239,
2,1,0,1,0,3165.12,0.186949,0.186615,41.3798,2,0.0132472,10,0.00772209,-1.38321,-0.303828,-0.194189,-312.135,0.186615,
2,1,0,1,0,3165.14,0.197347,0.197041,36.3491,2,0.0142641,10,0.00716226,-1.43951,-0.13468,-0.438076,-618.916,0.197041,
2,1,0,1,0,3165.17,0.207743,0.207488,29.491,2,0.0151194,10,0.00611903,-1.53031,-0.106679,-0.553063,-636.639,0.207488,
2,1,0,1,0,3165.2,0.218141,0.21781,23.8082,2,0.0158072,10,0.00518565,-1.62327,-0.128525,-0.459053,-428.62,0.21781,
2,1,0,1,0,3165.22,0.228548,0.22823,20.3753,2,0.0163771,10,0.00465027,-1.6909,-0.189931,-0.31064,-247.479,0.22823,
2,1,0,1,0,3165.25,0.238947,0.238618,18.4188,2,0.0168788,10,0.00439506,-1.73474,-0.302331,-0.19515,-140.467,0.238618,
2,1,0,1,0,3165.27,0.249343,0.249017,17.2594,2,0.0173415,10,0.00429787,-1.76298,-0.445831,-0.132337,-89.3475,0.249017,
2,1,0,1,0,3165.3,0.259741,0.259416,16.511,2,0.01778,10,0.00428322,-1.78223,-0.622867,-0.0947232,-61.062,0.259416,
2,1,0,1,0,3165.33,0.270148,0.269858,15.9614,2,0.0182017,10,0.00430731,-1.79693,-0.782333,-0.0754155,-46.9475,0.269858,
2,1,0,1,0,3165.35,0.280547,0.280229,15.498,2,0.0186103,10,0.00434299,-1.80972,-0.87379,-0.067522,-40.8529,0.280229,
2,1,0,1,0,3165.38,0.290942,0.290613,15.1124,2,0.019008,10,0.00439187,-1.82067,-1.05347,-0.0560054,-33.0292,0.290613,
2,1,0,0,0,3165.4,0.300012,0.299727,14.813,2,0.0193476,10,0.00443986,-1.82936,0.000898968,65.6308,30921.6,0.299727,
2,1,0,1,0,3165.42,0.290704,0.290431,0.462999,2,0.0194882,10,0.000134469,-3.33442,0.019926,2.96096,804.559,0.290431,
2,0,0,1,0,3165.45,0.280305,0.279992,-4.57391,2,0.0194233,10,-0.00128066,-2.33971,-0.0348023,-1.69529,290.366,0.279992,
2,0,0,1,0,3165.48,0.269909,0.2696,-6.65572,2,0.0192741,10,-0.00179438,-2.17681,-0.10653,-0.553837,142.56,0.2696,
2,0,0,1,0,3165.5,0.2595,0.259224,-7.79644,2,0.0190849,10,-0.00202102,-2.1081,-0.194561,-0.303247,92.1754,0.259224,
2,0,0,1,0,3165.53,0.249104,0.248788,-8.61466,2,0.0188709,10,-0.00214322,-2.06476,-0.288822,-0.204278,68.5669,0.248788,
2,0,0,1,0,3165.55,0.238705,0.238426,-9.27341,2,0.0186382,10,-0.00221102,-2.03276,-0.35707,-0.165234,59.7587,0.238426,
2,0,0,1,0,3165.58,0.22831,0.227938,-9.83955,2,0.0183894,10,-0.00224281,-2.00702,-0.409704,-0.144006,55.4058,0.227938,
2,0,0,1,0,3165.61,0.2179,0.217621,-10.4177,2,0.0181258,10,-0.00226711,-1.98223,-0.440203,-0.134029,54.4243,0.217621,
2,0,0,1,0,3165.63,0.207504,0.207212,-10.9737,2,0.0178478,10,-0.00227388,-1.95965,-0.460782,-0.128043,54.853,0.207212,
2,0,0,1,0,3165.66,0.197106,0.196802,-11.566,2,0.0175546,10,-0.00227622,-1.93682,-0.438072,-0.134681,60.9029,0.196802,
2,0,0,1,0,3165.68,0.18671,0.186356,-12.2617,2,0.0172448,10,-0.00228504,-1.91145,-0.380397,-0.155101,74.3473,0.186356,
2,0,0,1,0,3165.71,0.1763,0.175968,-13.1558,2,0.0169147,10,-0.002315,-1.88088,-0.309451,-0.19066,97.9229,0.175968,
2,0,0,1,0,3165.74,0.165905,0.165603,-14.3562,2,0.016558,10,-0.00237743,-1.84296,-0.242948,-0.242851,136.154,0.165603,
2,0,0,1,0,3165.76,0.155506,0.155179,-16.0767,2,0.0161637,10,-0.00249477,-1.7938,-0.185001,-0.318918,200.557,0.155179,
2,0,0,1,0,3165.79,0.145105,0.144809,-18.5974,2,0.0157146,10,-0.00269308,-1.73055,-0.145959,-0.404223,294.069,0.144809,
2,0,0,1,0,3165.81,0.134701,0.134399,-22.1619,2,0.0151867,10,-0.00297854,-1.65439,-0.132566,-0.445062,384.74,0.134399,
2,0,0,1,0,3165.84,0.124305,0.124016,-26.4436,2,0.0145555,10,-0.00327942,-1.57768,-0.140959,-0.418562,431.936,0.124016,
2,0,0,1,0,3165.87,0.113906,0.113641,-30.8084,2,0.0138101,10,-0.00350109,-1.51133,-0.17085,-0.345332,414.872,0.1136408,
2,0,0,1,0,3165.89,0.103505,0.103242,-34.7686,2,0.0129554,10,-0.0035896,-1.45881,-0.237894,-0.24801,335.749,0.103242,
2,0,0,1,0,3165.92,0.0931008,0.0928674,-37.8096,2,0.0120099,10,-0.00351128,-1.4224,-0.352944,-0.167166,246.325,0.0928674,
2,0,0,1,0,3165.94,0.0827051,0.082398,-39.7861,2,0.010998,10,-0.0032783,-1.40027,-0.726295,-0.0812342,125.97,0.082398,
2,0,0,1,0,3165.97,0.0723065,0.0719711,-40.4292,2,0.00995213,10,-0.00290973,-1.3933,20.6816,0.00285278,-4.49298,0.0719711,
2,0,0,1,0,3166,0.0618996,0.0616257,-39.7531,2,0.00890758,10,-0.00244982,-1.40063,0.781173,0.0755274,-116.98,0.0616257,
2,0,0,1,0,3166.02,0.0515011,0.0511701,-38.2439,2,0.00789318,10,-0.00195695,-1.41744,0.553556,0.106584,-159.028,0.0511701,
2,0,0,1,0,3166.05,0.0411053,0.0407622,-36.6111,2,0.0069203,10,-0.00149235,-1.43639,0.557748,0.105783,-151.233,0.0407622,
2,0,0,1,0,3166.07,0.0307068,0.0304116,-35.0622,2,0.00598851,10,-0.0010663,-1.45516,0.5313,0.111048,-151.927,0.0304116,
2,0,0,1,0,3166.1,0.0202999,0.0199762,-33.4147,2,0.00509818,10,-0.000667497,-1.47606,0.438668,0.134498,-175.214,0.0199762,
2,0,0,1,0,3166.13,0.00990136,0.00957887,-31.4312,2,0.00425465,10,-0.000301076,-1.50264,0.351125,0.168031,-206.027,0.00957887,
2,0,0,1,0,3166.15,-0.000494411,-0.000867191,-29.2281,2,0.00346634,10,2.53464e-05,-1.5342,0.320715,0.183964,-209.614,-0.000867191,
2,0,0,1,0,3166.18,-0.010893,-0.0112571,-27.1445,2,0.00273495,10,0.000305568,-1.56632,0.362614,0.162708,-172.463,-0.0112571,
2,0,0,1,0,3166.2,-0.0212998,-0.0216671,-25.6764,2,0.00205,10,0.000556333,-1.59047,0.544444,0.108367,-108.73,-0.0216671,
2,0,0,1,0,3166.23,-0.0316984,-0.0320739,-24.8719,2,0.00139431,10,0.000797738,-1.60429,1.16691,0.0505609,-49.1082,-0.0320739,
2,0,0,1,0,3166.26,-0.0420942,-0.0424468,-24.5886,2,0.000752385,10,0.00104371,-1.60927,4.84803,0.0121699,-11.6847,-0.0424468,
2,0,0,1,0,3166.28,-0.0524927,-0.0528314,-24.653,2,0.000112909,10,0.00130245,-1.60813,-2.53264,-0.0232958,22.4406,-0.0528314,
2,0,0,1,0,3166.31,-0.0628996,-0.0632308,-25.0158,2,-0.00053223,10,0.00158177,-1.60178,-1.29182,-0.045672,44.5743,-0.0632308,
2,0,0,1,0,3166.33,-0.0732982,-0.0736387,-25.5375,2,-0.00118895,10,0.00188054,-1.59282,-0.973631,-0.0605979,60.398,-0.0736387,
2,0,0,1,0,3166.36,-0.0836939,-0.0840837,-26.2363,2,-0.00186175,10,0.00220605,-1.5811,-0.822968,-0.0716917,73.419,-0.0840837,
2,0,0,1,0,3166.39,-0.0940925,-0.0944523,-27.0913,2,-0.00255469,10,0.00255884,-1.56717,-0.691751,-0.0852907,90.1851,-0.0944523,
2,0,0,1,1,3166.41,-0.0978574,-0.098238,-21.9557,2,-0.00309738,10,0.00215689,-1.65845,-0.0217844,-2.70836,2225.38,-0.098238,
2,0,0,1,1,3166.43,-0.0874588,-0.0878874,-5.46856,2,-0.00342886,10,0.000480618,-2.26213,-0.00963173,-6.12559,1155.62,-0.0878874,
2,1,0,1,1,3166.46,-0.077052,-0.0774434,4.03492,2,-0.00343673,10,-0.000312478,-2.39417,0.0106532,5.53825,724.314,-0.0774434,
2,1,0,1,1,3166.48,-0.0666562,-0.0671066,10.1222,2,-0.00324703,10,-0.000679266,-1.99472,0.0483665,1.21985,472.768,-0.0671066,
2,1,0,1,1,3166.51,-0.0562576,-0.0566679,14.1456,2,-0.00292754,10,-0.0008016,-1.84938,0.104018,0.567209,311.658,-0.0566679,
2,1,0,1,1,3166.54,-0.0458563,-0.0462272,16.7672,2,-0.00252277,10,-0.000775099,-1.77554,0.191343,0.308347,201.22,-0.0462272,
2,1,0,1,1,3166.56,-0.0354522,-0.0358479,18.4485,2,-0.00206324,10,-0.000661338,-1.73404,0.330167,0.178697,128.212,-0.0358479,
2,1,0,1,1,3166.59,-0.0250564,-0.0253774,19.4302,2,-0.00156964,10,-0.00049309,-1.71152,0.658543,0.0895918,67.8671,-0.0253774,
2,1,0,1,1,3166.61,-0.0146579,-0.0149738,19.9548,2,-0.00105669,10,-0.000298799,-1.69995,1.32567,0.0445057,34.6635,-0.0149738,
2,1,0,1,1,3166.64,-0.00425653,-0.00462952,20.1827,2,-0.000534308,10,-9.34363e-05,-1.69502,3.86131,0.0152798,12.0287,-0.00462952,
2,1,0,0,1,3166.65,-7.54729e-05,-0.000287149,20.1996,2,-0.000322127,10,-5.80028e-06,-1.69466, , , ,-0.0002871489,