File: Figure_codes/Fig_3-5/rawdata_trumpetplot_data/after 10th/20221101_1-115_003_TrumpetPlot_ParaChange_from10_every3_11_CV_C01_8.csv
mode,ox/red,error,control changes,counter inc.,time/s,control/V,Ewe/V,<I>/mA,cycle number,(Q-Qo)/C,I Range,P/W,log(|I|),Tafel slope mV/dec,alpha_eff,dI/d(E-IR),E-IR/V,
2,1,0,1,0,16955.6,2.44065e-05,-0.000287149,10.3277,9,0.0000000E+000,10,-2.96559e-06,-1.986, , , ,-0.0002871489,
2,1,0,1,0,16955.6,0.0101427,0.00984185,14.7663,9,0.000325562,10,0.000145328,-1.83073,0.118419,0.498232,284.996,0.00984185,
2,1,0,1,0,16955.6,0.0205441,0.0202052,17.0735,9,0.00074199,10,0.000344974,-1.76768,0.221428,0.266452,177.201,0.0202052,
2,1,0,1,0,16955.6,0.0309482,0.0305908,18.6683,9,0.0012079,10,0.00057108,-1.72889,0.311822,0.189211,137.803,0.0305908,
2,1,0,1,0,16955.7,0.0413439,0.0410539,20.0168,9,0.00171123,10,0.000821769,-1.6986,0.381402,0.154692,120.704,0.0410539,
2,1,0,1,0,16955.7,0.0517425,0.0513737,21.2734,9,0.00224814,10,0.00109289,-1.67216,0.398129,0.148193,123.075,0.0513737,
2,1,0,1,0,16955.7,0.0621438,0.0618156,22.5783,9,0.00281829,10,0.00139569,-1.64631,0.397718,0.148346,130.781,0.06181556,
2,1,0,1,0,16955.7,0.0725479,0.0722001,23.9436,9,0.00342324,10,0.00172873,-1.62081,0.421986,0.139815,130.57,0.0722001,
2,1,0,1,0,16955.8,0.0829437,0.0825889,25.3017,9,0.00406309,10,0.00208964,-1.59685,0.430802,0.136954,135.164,0.0825889,
2,1,0,1,0,16955.8,0.0933422,0.0930032,26.664,9,0.00473902,10,0.00247984,-1.57407,0.474808,0.124261,129.316,0.0930032,
2,1,0,1,0,16955.8,0.103749,0.103392,27.9875,9,0.00544969,10,0.00289368,-1.55304,0.501298,0.117695,128.588,0.103392,
2,1,0,1,0,16955.8,0.114148,0.113798,29.379,9,0.00619524,10,0.00334327,-1.53196,0.470702,0.125345,143.677,0.113798,
2,1,0,1,0,16955.9,0.124543,0.124202,31.001,9,0.00697961,10,0.0038504,-1.50862,0.423574,0.139291,168.563,0.124202,
2,1,0,1,0,16955.9,0.134942,0.134608,32.9012,9,0.00781028,10,0.00442877,-1.48279,0.395296,0.149255,191.826,0.134608,
2,1,0,1,0,16955.9,0.145349,0.144996,34.901,9,0.00869216,10,0.00506051,-1.45716,0.447982,0.131702,179.187,0.144996,
2,1,0,1,0,16956,0.155747,0.155413,36.5924,9,0.00962226,10,0.00568695,-1.43661,0.600671,0.0982235,140.109,0.155413,
2,1,0,1,0,16956,0.166143,0.165824,37.7237,9,0.0105902,10,0.00625551,-1.42339,1.38746,0.0425237,62.5317,0.165824,
2,1,0,1,0,16956,0.176542,0.17626,37.6549,9,0.0115738,10,0.00663705,-1.42418,-0.884987,-0.0666676,-97.6994,0.17626,
2,1,0,1,0,16956,0.186949,0.186619,35.4613,9,0.0125291,10,0.00661775,-1.45025,-0.250495,-0.235533,-324.82,0.186619,
2,1,0,1,0,16956.1,0.197347,0.197003,31.1939,9,0.0133983,10,0.00614528,-1.50593,-0.156115,-0.377925,-459.47,0.197003,
2,1,0,1,0,16956.1,0.207743,0.207489,26.4349,9,0.0141461,10,0.00548494,-1.57782,-0.142458,-0.414158,-427.505,0.207489,
2,1,0,1,0,16956.1,0.218141,0.217844,22.591,9,0.0147802,10,0.0049213,-1.64607,-0.170915,-0.3452,-305.007,0.217844,
2,1,0,1,0,16956.1,0.228548,0.228248,19.9998,9,0.0153312,10,0.00456493,-1.69897,-0.229098,-0.257532,-201.306,0.228248,
2,1,0,1,0,16956.2,0.238947,0.238616,18.3072,9,0.0158274,10,0.00436839,-1.73738,-0.327663,-0.180063,-128.806,0.238616,
2,1,0,1,0,16956.2,0.249343,0.249025,17.1938,9,0.0162879,10,0.00428169,-1.76463,-0.441202,-0.133725,-89.7956,0.249025,
2,1,0,1,0,16956.2,0.259741,0.25942,16.4093,9,0.0167241,10,0.00425691,-1.78491,-0.586331,-0.100626,-64.4534,0.25942,
2,1,0,1,0,16956.2,0.270148,0.269836,15.8196,9,0.0171427,10,0.00426869,-1.8008,-0.736959,-0.0800587,-49.4762,0.2698355,
2,1,0,1,0,16956.3,0.280547,0.28024,15.36,9,0.0175479,10,0.0043045,-1.81361,-0.899292,-0.0656071,-39.3351,0.28024,
2,1,0,1,0,16956.3,0.290942,0.29065,14.9745,9,0.017942,10,0.00435233,-1.82465,-0.956523,-0.0616817,-36.0345,0.29065,
2,1,0,0,0,16956.3,0.300012,0.299785,14.6731,9,0.0182784,10,0.00439877,-1.83348,0.00109768,53.7498,25607.4,0.299785,
2,1,0,1,0,16956.3,0.290704,0.290401,1.81637,9,0.0184375,10,0.000527475,-2.7408,0.00507519,11.6252,765.608,0.290401,
2,0,0,1,0,16956.4,0.280305,0.279997,-3.34881,9,0.0184078,10,-0.000937658,-2.47511,-0.022028,-2.67841,326.271,0.279997,
2,0,0,1,0,16956.4,0.269909,0.26961,-5.80495,9,0.0182851,10,-0.00156507,-2.2362,-0.0765565,-0.770673,172.96,0.26961,
2,0,0,1,0,16956.4,0.2595,0.25919,-7.25451,9,0.0181138,10,-0.0018803,-2.13939,-0.147372,-0.400348,112.813,0.25919,
2,0,0,1,0,16956.4,0.249104,0.248778,-8.22382,9,0.0179121,10,-0.0020459,-2.08493,-0.242199,-0.243602,77.9311,0.248778,
2,0,0,1,0,16956.5,0.238705,0.238411,-8.95331,9,0.0176885,10,-0.00213457,-2.04802,-0.323109,-0.182601,63.7844,0.238411,
2,0,0,1,0,16956.5,0.22831,0.228006,-9.56171,9,0.0174475,10,-0.00218012,-2.01946,-0.387063,-0.15243,56.9643,0.228006,
2,0,0,1,0,16956.5,0.2179,0.217592,-10.1432,9,0.0171912,10,-0.00220709,-1.99382,-0.447776,-0.131762,52.0149,0.217592,
2,0,0,1,0,16956.5,0.207504,0.207185,-10.645,9,0.0169209,10,-0.00220548,-1.97285,-0.514257,-0.114729,47.7148,0.207185,
2,0,0,1,0,16956.6,0.197106,0.196807,-11.1641,9,0.0166371,10,-0.00219717,-1.95218,-0.487443,-0.12104,52.8329,0.196807,
2,0,0,1,0,16956.6,0.18671,0.186422,-11.7335,9,0.0163394,10,-0.00218738,-1.93057,-0.469325,-0.125712,57.5295,0.186422,
2,0,0,1,0,16956.6,0.1763,0.175998,-12.3748,9,0.0160262,10,-0.00217794,-1.90746,-0.426861,-0.138218,66.7443,0.175998,
2,0,0,1,0,16956.6,0.165905,0.165582,-13.1725,9,0.0156946,10,-0.00218112,-1.88033,-0.343558,-0.171732,88.4216,0.165582,
2,0,0,1,0,16956.7,0.155506,0.155188,-14.2912,9,0.0153384,10,-0.00221782,-1.84493,-0.252759,-0.233423,130.296,0.1551875,
2,0,0,1,0,16956.7,0.145105,0.144784,-15.9415,9,0.0149468,10,-0.00230808,-1.79747,-0.189083,-0.312032,194.454,0.144784,
2,0,0,1,0,16956.7,0.134701,0.134411,-18.4394,9,0.0145018,10,-0.00247846,-1.73425,-0.147308,-0.400522,288.47,0.134411,
2,0,0,1,0,16956.8,0.124305,0.123977,-21.826,9,0.0139797,10,-0.00270591,-1.66103,-0.141587,-0.416705,355.045,0.123977,
2,0,0,1,0,16956.8,0.113906,0.113593,-25.5907,9,0.0133628,10,-0.00290692,-1.59192,-0.167133,-0.353013,352.039,0.113593,
2,0,0,1,0,16956.8,0.103505,0.103235,-29.1079,9,0.0126509,10,-0.00300495,-1.53599,-0.21436,-0.275238,312.193,0.103235,
2,0,0,1,0,16956.8,0.0931008,0.0928303,-31.9916,9,0.0118546,10,-0.00296979,-1.49496,-0.305493,-0.19313,240.898,0.0928303,
2,0,0,1,0,16956.9,0.0827051,0.0824373,-34.1323,9,0.010993,10,-0.00281378,-1.46683,-0.492501,-0.119797,159.28,0.0824373,
2,0,0,1,0,16956.9,0.0723065,0.0720145,-35.2383,9,0.0100887,10,-0.00253767,-1.45299,-1.54314,-0.0382337,52.508,0.0720145,
2,0,0,1,0,16956.9,0.0618997,0.0615653,-35.3268,9,0.00916941,10,-0.0021749,-1.4519,2.30445,0.0256026,-35.2666,0.0615653,
2,0,0,1,0,16956.9,0.0515011,0.0511553,-34.7022,9,0.00825826,10,-0.0017752,-1.45964,1.0674,0.0552746,-74.8147,0.0511553,
2,0,0,1,0,16957,0.0411053,0.0407824,-33.8496,9,0.00736711,10,-0.00138047,-1.47045,0.909891,0.0648429,-85.6544,0.0407824,
2,0,0,1,0,16957,0.0307068,0.0304159,-32.9704,9,0.0064984,10,-0.00100282,-1.48188,0.933393,0.0632102,-81.3864,0.0304159,
2,0,0,1,0,16957,0.0202999,0.0200112,-32.0987,9,0.00565241,10,-0.000642332,-1.49351,0.819438,0.0720006,-90.1337,0.0200112,
2,0,0,1,0,16957,0.00990136,0.00956933,-31.0619,9,0.00483109,10,-0.000297241,-1.50777,0.648667,0.0909557,-110.199,0.00956933,
2,0,0,1,0,16957.1,-0.000494411,-0.000917031,-29.8161,9,0.00403937,10,2.73423e-05,-1.52555,0.512876,0.115037,-133.694,-0.000917031,
2,0,0,1,0,16957.1,-0.010893,-0.0112454,-28.3025,9,0.00328385,10,0.000318273,-1.54818,0.455021,0.129664,-143.256,-0.0112454,
2,0,0,1,0,16957.1,-0.0212998,-0.0216989,-26.8983,9,0.00256691,10,0.000583663,-1.57028,0.508297,0.116074,-121.893,-0.0216989,
2,0,0,1,0,16957.1,-0.0316984,-0.032076,-25.8321,9,0.00188254,10,0.000828592,-1.58784,0.732821,0.0805108,-81.2044,-0.032076,
2,0,0,1,0,16957.2,-0.0420942,-0.0424754,-25.1992,9,0.00122007,10,0.00107035,-1.59861,1.35339,0.0435943,-42.9276,-0.0424754,
2,0,0,1,0,16957.2,-0.0524927,-0.0528314,-24.9595,9,0.000568557,10,0.00131864,-1.60276,8.59891,0.00686133,-6.68878,-0.0528314,
2,0,0,1,0,16957.2,-0.0628996,-0.0632658,-25.0409,9,-8.0814e-05,10,0.00158423,-1.60135,-3.33021,-0.0177166,17.3068,-0.0632658,
2,0,0,1,0,16957.2,-0.0732982,-0.0736461,-25.3145,9,-0.000734875,10,0.00186431,-1.59663,-1.51831,-0.0388591,38.408,-0.0736461,
2,0,0,1,0,16957.3,-0.0836939,-0.0840285,-25.7925,9,-0.00139899,10,0.00216731,-1.58851,-1.06959,-0.0551614,55.5538,-0.0840285,
2,0,0,1,0,16957.3,-0.0940925,-0.0944587,-26.4471,9,-0.00207781,10,0.00249816,-1.57762,-0.865143,-0.0681968,70.3874,-0.0944587,
2,0,0,1,1,16957.3,-0.0978574,-0.0982592,-21.5037,9,-0.00260646,10,0.00211294,-1.66749,-0.0237648,-2.48266,2025.46,-0.0982592,
2,0,0,1,1,16957.3,-0.0874588,-0.0878884,-7.09603,9,-0.00295583,10,0.000623659,-2.14898,-0.0154715,-3.81347,1017.14,-0.0878884,
2,1,0,1,1,16957.4,-0.0770519,-0.0774965,1.39687,9,-0.00302128,10,-0.000108253,-2.85484,0.010687,5.52071,665.656,-0.0774965,
2,1,0,1,1,16957.4,-0.0666562,-0.0670832,7.15473,9,-0.00290515,10,-0.000479962,-2.14541,0.0348084,1.69499,461.918,-0.0670832,
2,1,0,1,1,16957.4,-0.0562576,-0.0566351,11.2832,9,-0.00266196,10,-0.000639023,-1.94757,0.0772222,0.764029,334.196,-0.0566351,
2,1,0,1,1,16957.4,-0.0458563,-0.0462219,14.235,9,-0.00232778,10,-0.000657968,-1.84664,0.138621,0.425622,235.353,-0.04622186,
2,1,0,1,1,16957.5,-0.0354522,-0.0358044,16.2978,9,-0.00192926,10,-0.000583533,-1.78787,0.227412,0.259441,164.523,-0.0358044,
2,1,0,1,1,16957.5,-0.0250564,-0.025457,17.7042,9,-0.0014858,10,-0.000450696,-1.75192,0.362174,0.162905,112.531,-0.025457,
2,1,0,1,1,16957.5,-0.0146579,-0.0150363,18.6708,9,-0.00101177,10,-0.000280741,-1.72884,0.580911,0.101565,73.9194,-0.0150363,
2,1,0,1,1,16957.6,-0.00425653,-0.00465284,19.2726,9,-0.000517841,10,-8.96725e-05,-1.71506,1.03267,0.0571336,42.9577,-0.00465284,
2,1,0,0,1,16957.6,-7.54729e-05,-0.000401673,19.4433,9,-0.000314524,10,-7.80985e-06,-1.71123, , , ,-0.000401673,