File: Figure_codes/Fig_3-5/rawdata_trumpetplot_data/after 10th/20221101_1-115_003_TrumpetPlot_ParaChange_from10_every3_07_CV_C01_23.csv
mode,ox/red,error,control changes,counter inc.,time/s,control/V,Ewe/V,<I>/mA,cycle number,(Q-Qo)/C,I Range,P/W,log(|I|),Tafel slope mV/dec,alpha_eff,dI/d(E-IR),E-IR/V,
2,0,0,0,0,46478,2.44065e-05,-0.000325324,-2.69949,24,0.0000000E+000,10,8.78208e-07,-2.56872, , , ,-0.000325324,
2,1,0,1,0,46478.1,0.007288,0.00700948,0.993033,24,-2.83566e-05,10,6.96064e-06,-3.00304,0.0100558,5.86725,199.099,0.00700948,
2,1,0,1,0,46478.3,0.0147816,0.0144673,1.87191,24,0.000161876,10,2.70815e-05,-2.72772,0.0581397,1.0148,73.5904,0.0144673,
2,1,0,1,0,46478.4,0.0222712,0.0219756,2.28497,24,0.000425681,10,5.02136e-05,-2.64112,0.123119,0.479211,42.5732,0.0219756,
2,1,0,1,0,46478.5,0.0297648,0.0294559,2.57802,24,0.000731493,10,7.59379e-05,-2.58871,0.168149,0.35088,35.1528,0.0294559,
2,1,0,1,0,46478.6,0.0372518,0.0369266,2.82767,24,0.00107061,10,0.000104416,-2.54857,0.184294,0.320141,35.3668,0.03692659,
2,1,0,1,0,46478.8,0.0447467,0.0444099,3.06348,24,0.00144131,10,0.000136049,-2.51379,0.229761,0.256788,30.8617,0.0444099,
2,1,0,1,0,46478.9,0.052235,0.0519337,3.31553,24,0.00184198,10,0.000172188,-2.47945,0.24865,0.237281,30.6886,0.0519337,
2,1,0,1,0,46479,0.0597299,0.0593635,3.54461,24,0.00227243,10,0.000210421,-2.45043,0.269956,0.218554,30.1902,0.0593635,
2,1,0,1,0,46479.1,0.0672156,0.0669509,3.75686,24,0.00272982,10,0.000251525,-2.42518,0.306292,0.192627,28.2185,0.06695094,
2,1,0,1,0,46479.3,0.0747105,0.0743928,3.94089,24,0.00321278,10,0.000293173,-2.40441,0.400411,0.147349,22.6725,0.0743928,
2,1,0,1,0,46479.4,0.0821988,0.0818525,4.10514,24,0.00371719,10,0.000336016,-2.38667,0.553405,0.106613,17.0842,0.0818525,
2,1,0,1,0,46479.5,0.0896937,0.0893675,4.25353,24,0.00424086,10,0.000380127,-2.37125,0.540837,0.10909,18.0975,0.0893675,
2,1,0,1,0,46479.6,0.0971794,0.0967975,4.41875,24,0.0047834,10,0.000427723,-2.3547,0.331846,0.177793,30.713,0.0967975,
2,1,0,1,0,46479.8,0.104674,0.104364,4.6847,24,0.00535292,10,0.000488913,-2.32932,0.252791,0.233394,42.6935,0.104364,
2,1,0,1,0,46479.9,0.112163,0.111838,5.03293,24,0.00596067,10,0.000562871,-2.29818,0.230517,0.255947,50.295,0.111838,
2,1,0,1,0,46480,0.119658,0.119376,5.41012,24,0.00661525,10,0.000645836,-2.26679,0.303895,0.194146,40.9133,0.119376,
2,1,0,1,0,46480.1,0.127143,0.126813,5.6784,24,0.00730995,10,0.000720096,-2.24577,0.409991,0.143905,31.8447,0.126813,
2,1,0,1,0,46480.3,0.134638,0.134332,5.84753,24,0.00803292,10,0.000785508,-2.23303,0.810077,0.0728326,16.6413,0.134332,
2,1,0,1,0,46480.4,0.142126,0.141813,5.91112,24,0.00877095,10,0.000838275,-2.22833,-2.86661,-0.0205818,-4.74506,0.141813,
2,1,0,1,0,46480.5,0.149621,0.149324,5.68866,24,0.00950204,10,0.000849453,-2.24499,-0.209675,-0.281388,-62.1842,0.149324,
2,1,0,1,0,46480.6,0.157107,0.156775,4.99169,24,0.010174,10,0.000782571,-2.30175,-0.100299,-0.588242,-114.277,0.156775,
2,1,0,1,0,46480.8,0.164602,0.164264,4.13259,24,0.0107444,10,0.000678837,-2.38378,-0.0937977,-0.629013,-101.658,0.164264,
2,1,0,1,0,46480.9,0.17209,0.171758,3.50042,24,0.0112202,10,0.000601226,-2.45588,-0.121443,-0.485825,-66.6208,0.171758,
2,1,0,1,0,46481,0.179585,0.179295,3.11231,24,0.0116333,10,0.000558023,-2.50692,-0.173731,-0.339606,-41.2995,0.179295,
2,1,0,1,0,46481.1,0.187072,0.186768,2.87351,24,0.0120075,10,0.000536679,-2.54159,-0.271315,-0.21746,-24.3456,0.186768,
2,1,0,1,0,46481.3,0.194566,0.194281,2.71896,24,0.0123578,10,0.000528241,-2.5656,-0.424366,-0.139031,-14.765,0.194281,
2,1,0,1,0,46481.4,0.202055,0.201709,2.61806,24,0.0126924,10,0.000528087,-2.58202,-0.528884,-0.111556,-11.4146,0.201709,
2,1,0,1,0,46481.5,0.209549,0.209266,2.55636,24,0.0130171,10,0.000534959,-2.59238,-0.605584,-0.0974266,-9.70326,0.209266,
2,1,0,1,0,46481.6,0.217036,0.216729,2.49993,24,0.0133342,10,0.000541807,-2.60207,-1.05387,-0.0559842,-5.46704,0.216729,
2,1,0,1,0,46481.8,0.224529,0.224221,2.46002,24,0.0136463,10,0.000551586,-2.60906,-1.76008,-0.0335212,-3.22847,0.224221,
2,1,0,1,0,46481.9,0.232019,0.231715,2.43493,24,0.013954,10,0.00056421,-2.61351,-1.79802,-0.0328139,-3.11933,0.2317148,
2,1,0,1,0,46482,0.239513,0.239257,2.41677,24,0.0142587,10,0.000578229,-2.61676,-1.12717,-0.0523433,-4.9243,0.239257,
2,1,0,1,0,46482.1,0.247001,0.246672,2.39531,24,0.0145603,10,0.000590856,-2.62064,-1.99562,-0.0295647,-2.75725,0.246672,
2,1,0,1,0,46482.3,0.254493,0.254205,2.37243,24,0.0148599,10,0.000603083,-2.62481,-2.12391,-0.027779,-2.57523,0.254205,
2,1,0,1,0,46482.4,0.261983,0.261697,2.35277,24,0.0151568,10,0.000615713,-2.62842,-2.01669,-0.0292558,-2.69282,0.261697,
2,1,0,1,0,46482.5,0.269477,0.269138,2.33847,24,0.0154518,10,0.000629371,-2.63107,-2.30726,-0.0255714,-2.33599,0.269138,
2,1,0,1,0,46482.6,0.276965,0.276685,2.32683,24,0.0157446,10,0.000643799,-2.63324,-1.77397,-0.0332588,-3.011,0.276685,
2,1,0,1,0,46482.8,0.284457,0.284181,2.30342,24,0.0160352,10,0.000654588,-2.63763,12.4885,0.00472435,0.424725,0.284181,
2,1,0,1,0,46482.9,0.291947,0.291639,2.28415,24,0.0163233,10,0.000666146,-2.64128,-1.53474,-0.038443,-3.42675,0.291639,
2,1,0,1,0,46483,0.29944,0.29911,2.26431,24,0.0166094,10,0.000677276,-2.64507,-0.00852761,-6.9187,-483.665,0.2991097,
2,0,0,1,0,46483.1,0.293742,0.293402,-0.354556,24,0.0166733,10,-0.000104027,-3.45032,-0.00360348,-16.3731,125.55,0.293402,
2,0,0,1,0,46483.2,0.286254,0.285926,-0.834672,24,0.0165916,10,-0.000238655,-3.07848,-0.0495768,-1.19007,38.189,0.285926,
2,0,0,1,0,46483.4,0.278761,0.278442,-1.03835,24,0.0164711,10,-0.00028912,-2.98366,-0.105791,-0.557702,22.6782,0.278442,
2,0,0,1,0,46483.5,0.271272,0.270974,-1.18019,24,0.0163294,10,-0.000319802,-2.92805,-0.173272,-0.340505,15.7535,0.270974,
2,0,0,1,0,46483.6,0.263778,0.263465,-1.29447,24,0.0161721,10,-0.000341048,-2.88791,-0.220822,-0.267183,13.4696,0.263465,
2,0,0,1,0,46483.7,0.25629,0.255976,-1.38895,24,0.0160026,10,-0.000355538,-2.85731,-0.272095,-0.216836,11.6785,0.255976,
2,0,0,1,0,46483.9,0.248797,0.248508,-1.46294,24,0.0158225,10,-0.000363552,-2.83477,-0.309967,-0.190343,10.8676,0.248508,
2,0,0,1,0,46484,0.241308,0.241019,-1.53258,24,0.0156331,10,-0.00036938,-2.81458,-0.363317,-0.162393,9.73981,0.241019,
2,0,0,1,0,46484.1,0.233814,0.233479,-1.60291,24,0.0154351,10,-0.000374245,-2.79509,-0.454349,-0.129856,8.12606,0.233479,
2,0,0,1,0,46484.2,0.226326,0.226049,-1.66821,24,0.015229,10,-0.000377097,-2.77775,-0.428488,-0.137693,8.93287,0.226049,
2,0,0,1,0,46484.4,0.218834,0.21851,-1.72557,24,0.015015,10,-0.000377054,-2.76307,-0.382131,-0.154397,10.4053,0.21851,
2,0,0,1,0,46484.5,0.211344,0.211045,-1.78704,24,0.0147936,10,-0.000377147,-2.74786,-0.477461,-0.12357,8.62938,0.2110453,
2,0,0,1,0,46484.6,0.203856,0.203523,-1.84886,24,0.0145643,10,-0.000376286,-2.7331,-0.814475,-0.0724393,5.23033,0.203523,
2,0,0,1,0,46484.7,0.196362,0.196032,-1.91329,24,0.0143274,10,-0.000375067,-2.71822,-0.63545,-0.0928476,6.9198,0.196032,
2,0,0,1,0,46484.9,0.18887,0.188544,-1.97551,24,0.0140823,10,-0.000372471,-2.70432,-0.362885,-0.162586,12.5661,0.188544,
2,0,0,1,0,46485,0.18138,0.181093,-2.05421,24,0.0138285,10,-0.000372003,-2.68736,-0.418861,-0.140858,11.3041,0.181093,
2,0,0,1,0,46485.1,0.173892,0.173576,-2.14603,24,0.0135645,10,-0.000372499,-2.66836,-0.377688,-0.156214,13.0636,0.173576,
2,0,0,1,0,46485.2,0.166398,0.166034,-2.26199,24,0.0132877,10,-0.000375567,-2.64551,-0.361553,-0.163185,14.3697,0.1660337,
2,0,0,1,0,46485.4,0.158905,0.158572,-2.40243,24,0.012995,10,-0.000380959,-2.61935,-0.237771,-0.248138,23.3004,0.158572,
2,0,0,1,0,46485.5,0.151417,0.151058,-2.6197,24,0.0126798,10,-0.000395726,-2.58175,-0.162828,-0.362345,37.2427,0.151058,
2,0,0,1,0,46485.6,0.143927,0.143672,-2.97817,24,0.0123291,10,-0.000427879,-2.52605,-0.111734,-0.528041,61.6711,0.143672,
2,0,0,1,0,46485.7,0.136435,0.136112,-3.54752,24,0.0119209,10,-0.00048286,-2.45008,-0.0947418,-0.622745,86.1746,0.136112,
2,0,0,1,0,46485.9,0.128941,0.128619,-4.24025,24,0.0114332,10,-0.000545374,-2.37261,-0.104342,-0.565446,93.2898,0.128619,
2,0,0,1,0,46486,0.121453,0.121198,-4.89088,24,0.01086,10,-0.000592764,-2.31061,-0.142056,-0.415328,79.3147,0.121198,
2,0,0,1,0,46486.1,0.113963,0.113635,-5.42594,24,0.0102117,10,-0.000616576,-2.26552,-0.212103,-0.278167,58.913,0.113635,
2,0,0,1,0,46486.2,0.106471,0.106183,-5.78794,24,0.00950656,10,-0.000614581,-2.23748,-0.422107,-0.139775,31.5464,0.106183,
2,0,0,1,0,46486.4,0.0989825,0.0986803,-5.92545,24,0.00877084,10,-0.000584726,-2.22728,-2.43721,-0.024208,5.58858,0.0986803,
2,0,0,1,0,46486.5,0.0914889,0.0911818,-5.8547,24,0.00803136,10,-0.000533842,-2.2325,0.821801,0.0717936,-16.3886,0.0911818,
2,0,0,1,0,46486.6,0.0839993,0.0836271,-5.67516,24,0.00730929,10,-0.000474597,-2.24602,0.458145,0.12878,-28.5369,0.0836271,
2,0,0,1,0,46486.7,0.076507,0.0761699,-5.51257,24,0.00660889,10,-0.000419891,-2.25865,0.559901,0.105376,-22.6623,0.0761699,
2,0,0,1,0,46486.9,0.0690187,0.0687148,-5.37894,24,0.00592753,10,-0.000369612,-2.2693,0.782412,0.0754078,-15.829,0.0687148,
2,0,0,1,0,46487,0.0615251,0.0612467,-5.2609,24,0.00526071,10,-0.000322213,-2.27894,0.807438,0.0730706,-15.0168,0.0612467,
2,0,0,1,0,46487.1,0.0540355,0.0537067,-5.13422,24,0.00460968,10,-0.000275742,-2.28953,0.696541,0.0847043,-16.9714,0.0537067,
2,0,0,1,0,46487.2,0.0465432,0.0462206,-4.99459,24,0.0039747,10,-0.000230853,-2.3015,0.578492,0.101989,-19.8722,0.0462206,
2,0,0,1,0,46487.4,0.0390549,0.0387507,-4.84715,24,0.00335873,10,-0.000187831,-2.31451,0.480662,0.122747,-23.1616,0.0387507,
2,0,0,1,0,46487.5,0.0315613,0.0312237,-4.66607,24,0.00276272,10,-0.000145692,-2.33105,0.453394,0.13013,-23.6923,0.0312237,
2,0,0,1,0,46487.6,0.0240717,0.0237371,-4.47166,24,0.0021901,10,-0.000106144,-2.34953,0.432239,0.136499,-23.8647,0.0237371,
2,0,0,1,0,46487.7,0.0165781,0.0162716,-4.30275,24,0.0016399,10,-7.00127e-05,-2.36625,0.455385,0.129561,-21.7694,0.0162716,
2,0,0,1,0,46487.9,0.00909108,0.00871554,-4.16661,24,0.00110992,10,-3.63142e-05,-2.38022,0.561008,0.105168,-17.0622,0.00871554,
2,0,0,1,0,46488,0.00159616,0.00119934,-4.0874,24,0.000594756,10,-4.90219e-06,-2.38855, , , ,0.00119934,
2,0,0,1,0,46488,0.000199195,-0.000143994,-4.0565,24,0.000499459,10,5.84111e-07,-2.39185, , , ,-0.000143994,