File: Figure_codes/Fig_3-5/rawdata_trumpetplot_data/after 10th/20221101_1-115_003_TrumpetPlot_ParaChange_from10_every3_09_CV_C01_8.csv
mode,ox/red,error,control changes,counter inc.,time/s,control/V,Ewe/V,<I>/mA,cycle number,(Q-Qo)/C,I Range,P/W,log(|I|),Tafel slope mV/dec,alpha_eff,dI/d(E-IR),E-IR/V,
2,0,0,0,0,16943.6,2.44065e-05,-0.000363498,-5.34539,9,0.0000000E+000,10,1.94304e-06,-2.27202, , , ,-0.000363498,
2,1,0,1,0,16943.7,0.00978761,0.0094322,2.34933,9,-1.1972e-05,10,2.21593e-05,-2.62906,0.0194945,3.02649,263.317,0.0094322,
2,1,0,1,0,16943.8,0.0197755,0.0194433,3.82984,9,0.000311104,10,7.44648e-05,-2.41682,0.098455,0.599259,89.3388,0.0194433,
2,1,0,1,0,16943.9,0.0297635,0.0294704,4.5437,9,0.000732636,10,0.000133905,-2.34259,0.173658,0.339748,60.1878,0.0294704,
2,1,0,1,0,16944,0.0397514,0.0394555,5.12559,9,0.00121715,10,0.000202233,-2.29026,0.195395,0.301953,60.4785,0.0394555,
2,1,0,1,0,16944.1,0.0497484,0.0494318,5.6959,9,0.00175884,10,0.000281559,-2.24444,0.246432,0.239417,53.1326,0.0494318,
2,1,0,1,0,16944.2,0.0597273,0.0594462,6.21116,9,0.0023539,10,0.00036923,-2.20683,0.280403,0.210411,50.9849,0.0594462,
2,1,0,1,0,16944.3,0.0697152,0.0694413,6.68919,9,0.00299984,10,0.000464506,-2.17463,0.351281,0.167957,43.8691,0.0694413,
2,1,0,1,0,16944.4,0.0797031,0.0793755,7.11801,9,0.00369113,10,0.000564996,-2.14764,0.419588,0.140614,39.0663,0.0793755,
2,1,0,1,0,16944.5,0.0896911,0.0894137,7.48764,9,0.00442206,10,0.000669498,-2.12565,0.427813,0.137911,40.3593,0.0894137,
2,1,0,1,0,16944.6,0.099679,0.0993719,7.97273,9,0.00519254,10,0.000792265,-2.09839,0.326522,0.180692,56.1547,0.09937188,
2,1,0,1,0,16944.7,0.109667,0.10933,8.70337,9,0.00602289,10,0.000951543,-2.06031,0.234237,0.251882,85.5551,0.10933,
2,1,0,1,0,16944.8,0.119655,0.119348,9.58542,9,0.0069371,10,0.001144,-2.01839,0.275955,0.213803,79.8988,0.119348,
2,1,0,1,0,16944.9,0.129643,0.129331,10.2657,9,0.00793148,10,0.00132768,-1.98861,0.415977,0.141835,56.7942,0.129331,
2,1,0,1,0,16945,0.139631,0.139299,10.7248,9,0.00898281,10,0.00149395,-1.96961,0.711998,0.0828654,34.67,0.139299,
2,1,0,1,0,16945.1,0.149619,0.149325,10.7065,9,0.0100604,10,0.00159875,-1.97035,-0.402915,-0.146433,-60.9332,0.149325,
2,1,0,1,0,16945.2,0.159607,0.15928,9.19698,9,0.0110688,10,0.0014649,-2.03635,-0.0916118,-0.644022,-230.518,0.15928,
2,1,0,1,0,16945.3,0.169595,0.169286,6.89641,9,0.0118691,10,0.00116747,-2.16138,-0.0826199,-0.714113,-192.429,0.169286,
2,1,0,1,0,16945.4,0.179582,0.179262,5.51419,9,0.0124807,10,0.000988487,-2.25852,-0.138343,-0.426476,-92.1049,0.179262,
2,1,0,1,0,16945.5,0.18957,0.189234,4.86559,9,0.0129963,10,0.000920735,-2.31286,-0.241236,-0.244573,-46.4792,0.189234,
2,1,0,1,0,16945.6,0.199558,0.199282,4.50718,9,0.0134628,10,0.000898202,-2.34609,-0.405298,-0.145572,-25.6067,0.199282,
2,1,0,1,0,16945.7,0.209546,0.209302,4.29116,9,0.013902,10,0.000898147,-2.36743,-0.437799,-0.134765,-22.6083,0.209302,
2,1,0,1,0,16945.8,0.219534,0.219233,4.14268,9,0.0143231,10,0.00090821,-2.38272,-0.848113,-0.0695662,-11.2497,0.219233,
2,1,0,1,0,16945.9,0.229522,0.229226,4.03455,9,0.0147323,10,0.000924821,-2.39421,-1.02615,-0.0574963,-9.06571,0.229226,
2,1,0,1,0,16946,0.23951,0.239172,3.96941,9,0.0151324,10,0.00094937,-2.40127,-2.5003,-0.0235972,-3.65468,0.239172,
2,1,0,1,0,16946.1,0.249498,0.249215,3.90581,9,0.0155257,10,0.000973385,-2.40829,-2.00464,-0.0294317,-4.48815,0.2492148,
2,1,0,1,0,16946.2,0.259486,0.259208,3.85574,9,0.0159138,10,0.000999437,-2.41389,-1.09917,-0.0536768,-8.07458,0.259208,
2,1,0,1,0,16946.3,0.269474,0.26922,3.80879,9,0.016297,10,0.0010254,-2.41921,-3.38338,-0.0174382,-2.59238,0.26922,
2,1,0,1,0,16946.4,0.279462,0.279128,3.76318,9,0.0166755,10,0.00105041,-2.42444,-2.18816,-0.0269632,-3.95706,0.279128,
2,1,0,1,0,16946.5,0.28945,0.28915,3.7164,9,0.0170492,10,0.0010746,-2.42988,-5.92082,-0.00996483,-1.4437,0.28915,
2,1,0,1,0,16946.6,0.299438,0.299147,3.66631,9,0.0174178,10,0.00109677,-2.43577,-0.0253362,-2.32868,-301.842,0.299147,
2,0,0,1,0,16946.6,0.291747,0.291437,-1.21131,9,0.0174443,10,-0.00035302,-2.91675,-0.0212558,-2.77571,124.594,0.291437,
2,0,0,1,0,16946.7,0.281759,0.281382,-1.82769,9,0.0172867,10,-0.000514279,-2.7381,-0.12006,-0.49142,34.9088,0.281382,
2,0,0,1,0,16946.8,0.271771,0.271436,-2.12169,9,0.0170891,10,-0.000575901,-2.67332,-0.187404,-0.314828,26.0078,0.271436,
2,0,0,1,0,16946.9,0.261783,0.261443,-2.34212,9,0.0168665,10,-0.000612332,-2.63039,-0.327919,-0.179922,16.3937,0.2614435,
2,0,0,1,0,16947,0.251795,0.251428,-2.50565,9,0.0166249,10,-0.00062999,-2.60108,-0.326813,-0.180531,17.6494,0.251428,
2,0,0,1,0,16947.1,0.241807,0.241474,-2.64999,9,0.0163672,10,-0.000639903,-2.57676,-0.373813,-0.157833,16.3788,0.241474,
2,0,0,1,0,16947.2,0.231815,0.231512,-2.79899,9,0.0160954,10,-0.000648,-2.553,-0.466439,-0.12649,13.798,0.231512,
2,0,0,1,0,16947.3,0.221831,0.22152,-2.92468,9,0.0158103,10,-0.000647876,-2.53392,-0.474992,-0.124213,14.1674,0.22152,
2,0,0,1,0,16947.4,0.211843,0.21155,-3.05522,9,0.0155119,10,-0.000646331,-2.51496,-0.625676,-0.0942981,11.2372,0.2115497,
2,0,0,1,0,16947.5,0.201856,0.201514,-3.1904,9,0.0152002,10,-0.00064291,-2.49615,-0.585005,-0.100854,12.5706,0.201514,
2,0,0,1,0,16947.6,0.191868,0.191564,-3.34027,9,0.0148744,10,-0.000639878,-2.47622,-0.431231,-0.136818,17.8757,0.191564,
2,0,0,1,0,16947.7,0.18188,0.181538,-3.53345,9,0.0145327,10,-0.000641457,-2.4518,-0.337722,-0.1747,23.9966,0.181538,
2,0,0,1,0,16947.8,0.171892,0.171537,-3.76254,9,0.0141699,10,-0.000645414,-2.42452,-0.310143,-0.190235,27.9427,0.171537,
2,0,0,1,0,16947.9,0.161904,0.161563,-4.11495,9,0.0137783,10,-0.000664823,-2.38564,-0.213525,-0.276314,44.4311,0.161563,
2,0,0,1,0,16948,0.151916,0.151566,-4.7033,9,0.0133406,10,-0.000712863,-2.3276,-0.138446,-0.426159,78.484,0.151566,
2,0,0,1,0,16948.1,0.141928,0.141597,-5.7884,9,0.0128219,10,-0.000819621,-2.23744,-0.0950058,-0.621015,140.419,0.141597,
2,0,0,1,0,16948.2,0.13194,0.131629,-7.43716,9,0.0121659,10,-0.000978946,-2.12859,-0.0939801,-0.627792,182.23,0.131629,
2,0,0,1,0,16948.3,0.121952,0.121648,-9.17403,9,0.011334,10,-0.001116,-2.03744,-0.14164,-0.41655,148.784,0.121648,
2,0,0,1,0,16948.4,0.111964,0.111614,-10.4001,9,0.0103519,10,-0.00116079,-1.98296,-0.25827,-0.228443,92.6025,0.111614,
2,0,0,1,0,16948.5,0.101976,0.101679,-10.9876,9,0.00927837,10,-0.00111721,-1.9591,-1.12674,-0.0523633,22.407,0.101679,
2,0,0,1,0,16948.6,0.0919883,0.0916394,-10.8597,9,0.00818197,10,-0.000995175,-1.96418,0.609585,0.0967872,-40.9866,0.0916394,
2,0,0,1,0,16948.7,0.0820004,0.0817248,-10.2028,9,0.00712859,10,-0.000833823,-1.99128,0.313011,0.188492,-75.0208,0.0817248,
2,0,0,1,0,16948.8,0.0720124,0.0716855,-9.5434,9,0.00614496,10,-0.000684123,-2.0203,0.410231,0.143822,-53.6253,0.0716855,
2,0,0,1,0,16948.9,0.0620245,0.0616599,-9.12956,9,0.00521431,10,-0.000562928,-2.03955,0.585177,0.100824,-35.9331,0.0616599,
2,0,0,1,0,16949,0.0520366,0.0517089,-8.80699,9,0.00431922,10,-0.000455399,-2.05517,0.604197,0.0976503,-33.5367,0.0517089,
2,0,0,1,0,16949.1,0.0420486,0.0417103,-8.47223,9,0.00345623,10,-0.00035338,-2.072,0.589391,0.100103,-33.13,0.0417103,
2,0,0,1,0,16949.2,0.0320607,0.0317331,-8.10604,9,0.00262883,10,-0.000257229,-2.09119,0.453325,0.130149,-41.1158,0.0317331,
2,0,0,1,0,16949.3,0.0220728,0.0217652,-7.63942,9,0.0018426,10,-0.000166274,-2.11694,0.346199,0.170422,-50.796,0.0217652,
2,0,0,1,0,16949.4,0.0120848,0.0117345,-7.18074,9,0.00110343,10,-8.42627e-05,-2.14383,0.371618,0.158765,-44.5132,0.0117345,
2,0,0,1,0,16949.5,0.0020969,0.00173524,-6.88752,9,0.000405305,10,-1.19515e-05,-2.16194,0.88852,0.0664025,-17.7505,0.00173524,
2,0,0,1,0,16949.6,-0.00789103,-0.00823453,-6.66283,9,-0.000268662,10,5.48653e-05,-2.17634,1.74983,0.0337176,-8.78148,-0.00823453,
2,0,0,1,0,16949.7,-0.017879,-0.0182384,-6.66405,9,-0.000931903,10,0.000121541,-2.17626,-2.03851,-0.0289427,7.51444,-0.0182384,
2,0,0,1,0,16949.8,-0.0278669,-0.0282271,-6.75756,9,-0.00160099,10,0.000190746,-2.17021,-1.08728,-0.0542637,14.3381,-0.0282271,
2,0,0,1,0,16949.9,-0.0378548,-0.0382643,-6.96218,9,-0.00228551,10,0.000266403,-2.15725,-0.748283,-0.0788472,21.4146,-0.0382643,
2,0,0,1,0,16950,-0.0478428,-0.0482185,-7.21996,9,-0.00299329,10,0.000348135,-2.14147,-0.499428,-0.118135,33.371,-0.0482185,
2,0,0,1,0,16950.1,-0.0578216,-0.0581669,-7.56059,9,-0.00373023,10,0.000439776,-2.12144,-0.460045,-0.128248,37.842,-0.0581669,
2,0,0,1,0,16950.2,-0.0678187,-0.0681845,-7.9727,9,-0.00450495,10,0.000543615,-2.09839,-0.381608,-0.154609,48.0805,-0.0681845,
2,0,0,1,0,16950.3,-0.0778066,-0.07816,-8.46767,9,-0.00532544,10,0.000661833,-2.07224,-0.379391,-0.155512,51.4532,-0.07816,
2,0,0,1,0,16950.4,-0.0877945,-0.0881768,-9.06079,9,-0.00620017,10,0.000798952,-2.04283,-0.33239,-0.177502,62.7313,-0.0881768,
2,0,0,1,0,16950.5,-0.0977825,-0.0981683,-9.64455,9,-0.00713448,10,0.000946788,-2.01572,-0.384634,-0.153392,57.7491,-0.0981683,
2,0,0,1,1,16950.6,-0.0927386,-0.0931214,-1.50789,9,-0.00768609,10,0.000140417,-2.82163,-0.00485188,-12.1602,609.392,-0.0931214,
2,1,0,1,1,16950.7,-0.0827529,-0.0831157,2.23802,9,-0.00761996,10,-0.000186015,-2.65014,0.0216553,2.72451,230.942,-0.0831157,
2,1,0,1,1,16950.8,-0.0727627,-0.0730841,3.88832,9,-0.00730433,10,-0.000284174,-2.41024,0.0783566,0.752968,113.284,-0.0730841,
2,1,0,1,1,16950.9,-0.0627748,-0.0631248,4.70639,9,-0.00687041,10,-0.00029709,-2.32731,0.181023,0.325925,59.8438,-0.0631248,
2,1,0,1,1,16951,-0.0527868,-0.0531532,5.15532,9,-0.00637502,10,-0.000274022,-2.28774,0.406194,0.145251,29.1877,-0.0531532,
2,1,0,1,1,16951.1,-0.0427989,-0.043146,5.37287,9,-0.00584755,10,-0.000231818,-2.26979,0.737652,0.0799835,16.7883,-0.043146,
2,1,0,1,1,16951.2,-0.0328109,-0.0331616,5.46815,9,-0.00530563,10,-0.000181333,-2.26216,2.6226,0.0224967,4.79494,-0.0331616,
2,1,0,1,1,16951.3,-0.022823,-0.0231529,5.47966,9,-0.00475866,10,-0.00012687,-2.26125,-9.43749,-0.00625166,-1.33687,-0.0231529,
2,1,0,1,1,16951.4,-0.0128351,-0.0131893,5.45984,9,-0.00421238,10,-7.20115e-05,-2.26282,-3.34478,-0.0176394,-3.75845,-0.0131893,
2,1,0,1,1,16951.5,-0.00284713,-0.0032017,5.44062,9,-0.00366806,10,-1.74192e-05,-2.26435,-8.45292,-0.00697984,-1.48246,-0.0032017,
2,1,0,1,1,16951.6,-2.55332e-05,-0.000382585,5.4538,9,-0.00351515,10,-2.08654e-06,-2.2633, , , ,-0.000382585,