File: Figure_codes/Fig_3-5/rawdata_trumpetplot_data/after 10th/20221101_1-115_003_TrumpetPlot_ParaChange_from10_every3_06_CV_C01_19.csv
mode,ox/red,error,control changes,counter inc.,time/s,control/V,Ewe/V,<I>/mA,cycle number,(Q-Qo)/C,I Range,P/W,log(|I|),Tafel slope mV/dec,alpha_eff,dI/d(E-IR),E-IR/V,
2,0,0,0,0,38582.5,2.44065e-05,-0.000401673,-1.42552,20,0.0000000E+000,10,5.72593e-07,-2.84603, , , ,-0.000401673,
2,1,0,1,0,38582.7,0.00729063,0.00695973,1.13728,20,7.48895e-05,10,7.91514e-06,-2.94413,0.0260481,2.26504,96.3111,0.00695973,
2,1,0,1,0,38582.9,0.014778,0.0144689,1.54458,20,0.000335442,10,2.23484e-05,-2.81119,0.101245,0.582746,34.8712,0.01446888,
2,1,0,1,0,38583.1,0.0222743,0.0219376,1.74564,20,0.000648366,10,3.82952e-05,-2.75805,0.163993,0.359772,24.6018,0.0219376,
2,1,0,1,0,38583.2,0.0297626,0.0294436,1.92994,20,0.000996035,10,5.68242e-05,-2.71446,0.189151,0.311919,23.4258,0.0294436,
2,1,0,1,0,38583.4,0.0372544,0.0369358,2.09897,20,0.00137626,10,7.75273e-05,-2.67799,0.222689,0.264943,21.6753,0.0369358,
2,1,0,1,0,38583.6,0.0447472,0.0444469,2.26792,20,0.00178876,10,0.000100802,-2.64437,0.238558,0.247319,21.9454,0.0444469,
2,1,0,1,0,38583.8,0.0522345,0.0519594,2.43766,20,0.00223261,10,0.000126659,-2.61303,0.243382,0.242418,23.0398,0.0519594,
2,1,0,1,0,38584,0.0597308,0.0594423,2.59435,20,0.00270725,10,0.000154214,-2.58597,0.290264,0.203263,20.5456,0.0594423,
2,1,0,1,0,38584.2,0.0672182,0.0669304,2.7342,20,0.00320905,10,0.000183001,-2.56317,0.323126,0.182591,19.4816,0.0669304,
2,1,0,1,0,38584.4,0.0747074,0.0743933,2.86124,20,0.00373587,10,0.000212857,-2.54345,0.463332,0.127339,14.1794,0.0743933,
2,1,0,1,0,38584.5,0.0822019,0.0818577,2.95595,20,0.0042843,10,0.000241967,-2.5293,0.537334,0.109801,12.6967,0.0818577,
2,1,0,1,0,38584.7,0.0896911,0.0893665,3.06042,20,0.00485063,10,0.000273499,-2.51422,0.473598,0.124578,14.8897,0.0893665,
2,1,0,1,0,38584.9,0.097182,0.0968474,3.20291,20,0.00543915,10,0.000310193,-2.49446,0.289453,0.203833,25.4847,0.0968474,
2,1,0,1,0,38585.1,0.104675,0.104379,3.42646,20,0.00606172,10,0.000357649,-2.46515,0.227207,0.259675,34.7709,0.104379,
2,1,0,1,0,38585.3,0.112162,0.111863,3.71433,20,0.00673274,10,0.000415498,-2.43012,0.2323,0.253982,36.7319,0.111863,
2,1,0,1,0,38585.5,0.119655,0.119346,3.97088,20,0.00745626,10,0.000473908,-2.40111,0.356312,0.165585,25.6085,0.1193458,
2,1,0,1,0,38585.7,0.127146,0.126811,4.12395,20,0.00821906,10,0.000522962,-2.38469,0.56192,0.104997,16.9264,0.126811,
2,1,0,1,0,38585.9,0.134635,0.134293,4.22968,20,0.0090054,10,0.000568017,-2.37369,1.36319,0.0432808,7.13847,0.134293,
2,1,0,1,0,38586,0.142129,0.141803,4.21386,20,0.00980268,10,0.000597537,-2.37532,-0.52159,-0.113116,-18.5408,0.141803,
2,1,0,1,0,38586.2,0.149619,0.149304,3.85979,20,0.0105682,10,0.000576282,-2.41344,-0.117902,-0.500414,-75.1841,0.149304,
2,1,0,1,0,38586.4,0.157106,0.156779,3.18888,20,0.0112327,10,0.000499949,-2.49636,-0.0786562,-0.7501,-93.1047,0.156779,
2,1,0,1,0,38586.6,0.164602,0.164282,2.59287,20,0.0117731,10,0.000425963,-2.58622,-0.0964156,-0.611934,-62.1851,0.164282,
2,1,0,1,0,38586.8,0.172091,0.171807,2.24298,20,0.0122256,10,0.000385359,-2.64917,-0.148154,-0.398233,-34.9649,0.171807,
2,1,0,1,0,38587,0.179582,0.179235,2.05047,20,0.0126284,10,0.000367515,-2.68815,-0.242689,-0.24311,-19.4329,0.179235,
2,1,0,1,0,38587.2,0.187074,0.186783,1.9331,20,0.0130034,10,0.00036107,-2.71375,-0.424854,-0.138871,-10.503,0.186783,
2,1,0,1,0,38587.4,0.194563,0.194208,1.86568,20,0.0133616,10,0.00036233,-2.72916,-0.518687,-0.113749,-8.27611,0.194208,
2,1,0,1,0,38587.5,0.202059,0.201764,1.82091,20,0.0137096,10,0.000367395,-2.73971,-0.767488,-0.0768742,-5.45097,0.201764,
2,1,0,1,0,38587.7,0.209546,0.209247,1.78507,20,0.0140501,10,0.000373521,-2.74835,-0.686911,-0.0858917,-5.99773,0.209247,
2,1,0,1,0,38587.9,0.217035,0.216687,1.76137,20,0.0143848,10,0.000381667,-2.75415,-1.3246,-0.0445419,-3.05638,0.216687,
2,1,0,1,0,38588.1,0.22453,0.224214,1.74018,20,0.0147156,10,0.000390173,-2.7594,-1.71097,-0.0344834,-2.34222,0.224214,
2,1,0,1,0,38588.3,0.232019,0.231742,1.72141,20,0.0150425,10,0.000398921,-2.76412,-3.21359,-0.0183596,-1.23454,0.231742,
2,1,0,1,0,38588.5,0.23951,0.23924,1.71209,20,0.0153665,10,0.000409601,-2.76647,-1.90735,-0.030933,-2.05838,0.23924,
2,1,0,1,0,38588.7,0.247003,0.246682,1.69028,20,0.0156879,10,0.000416963,-2.77204,-1.50932,-0.0390905,-2.583,0.246682,
2,1,0,1,0,38588.9,0.25449,0.2542,1.67745,20,0.0160066,10,0.000426408,-2.77535,-1.59985,-0.0368784,-2.41752,0.2542,
2,1,0,1,0,38589,0.261983,0.261641,1.66614,20,0.0163231,10,0.000435932,-2.77829,-2.29624,-0.0256942,-1.67057,0.261641,
2,1,0,1,0,38589.2,0.269474,0.269147,1.65382,20,0.0166373,10,0.00044512,-2.78151,-2.99422,-0.0197046,-1.27454,0.269147,
2,1,0,1,0,38589.4,0.276963,0.276656,1.64528,20,0.0169491,10,0.000455178,-2.78376,-3.35945,-0.0175624,-1.12607,0.276656,
2,1,0,1,0,38589.6,0.284458,0.284151,1.63319,20,0.0172588,10,0.000464074,-2.78696,-2.49303,-0.023666,-1.50419,0.284151,
2,1,0,1,0,38589.8,0.291947,0.291615,1.6151,20,0.0175655,10,0.000470987,-2.7918,-1.09364,-0.0539483,-3.40527,0.291615,
2,1,0,1,0,38590,0.299434,0.299132,1.60208,20,0.0178695,10,0.000479234,-2.79532,-0.0160937,-3.66603,-196.851,0.299132,
2,0,0,1,0,38590.1,0.294196,0.293875,-0.315802,20,0.0179136,10,-9.28062e-05,-3.50059,-0.00838562,-7.03585,70.5842,0.293875,
2,0,0,1,0,38590.3,0.286701,0.286375,-0.582476,20,0.0178213,10,-0.000166807,-3.23472,-0.0602845,-0.978692,22.185,0.286375,
2,0,0,1,0,38590.5,0.279212,0.278898,-0.711678,20,0.0176956,10,-0.000198486,-3.14772,-0.113379,-0.520378,14.4952,0.2788983,
2,0,0,1,0,38590.7,0.271725,0.271425,-0.803165,20,0.0175496,10,-0.000217999,-3.0952,-0.141423,-0.417188,13.1383,0.271425,
2,0,0,1,0,38590.9,0.264228,0.263916,-0.881319,20,0.0173878,10,-0.000232594,-3.05487,-0.208528,-0.282935,9.71627,0.263916,
2,0,0,1,0,38591.1,0.256741,0.256421,-0.944996,20,0.0172135,10,-0.000242317,-3.02457,-0.280775,-0.210133,7.73518,0.256421,
2,0,0,1,0,38591.3,0.249248,0.248914,-1.0004,20,0.0170278,10,-0.000249014,-2.99982,-0.346916,-0.17007,6.65013,0.248914,
2,0,0,1,0,38591.5,0.241756,0.241453,-1.05245,20,0.016832,10,-0.000254118,-2.9778,-0.374504,-0.157542,6.45792,0.241453,
2,0,0,1,0,38591.6,0.234268,0.233929,-1.10369,20,0.0166269,10,-0.000258186,-2.95715,-0.366875,-0.160818,6.91344,0.233929,
2,0,0,1,0,38591.8,0.226772,0.226491,-1.14543,20,0.0164128,10,-0.00025943,-2.94103,-0.401064,-0.147109,6.59404,0.226491,
2,0,0,1,0,38592,0.219284,0.218948,-1.19548,20,0.0161906,10,-0.000261749,-2.92246,-0.523765,-0.112646,5.22664,0.218948,
2,0,0,1,0,38592.2,0.211796,0.211485,-1.237,20,0.0159599,10,-0.000261607,-2.90763,-0.742273,-0.0794856,3.83612,0.211485,
2,0,0,1,0,38592.4,0.204301,0.203955,-1.28265,20,0.0157204,10,-0.000261603,-2.89189,-0.559208,-0.105506,5.28828,0.203955,
2,0,0,1,0,38592.6,0.196812,0.196469,-1.32608,20,0.0154726,10,-0.000260532,-2.87743,-0.512098,-0.115212,5.96986,0.1964688,
2,0,0,1,0,38592.8,0.189321,0.188962,-1.37935,20,0.0152157,10,-0.000260645,-2.86033,-0.402789,-0.146479,7.91016,0.1889621,
2,0,0,1,0,38592.9,0.181828,0.181483,-1.43642,20,0.0149487,10,-0.000260685,-2.84272,-0.430586,-0.137023,7.67599,0.181483,
2,0,0,1,0,38593.1,0.174341,0.174006,-1.50681,20,0.0146703,10,-0.000262194,-2.82194,-0.326131,-0.180909,10.6204,0.174006,
2,0,0,1,0,38593.3,0.166848,0.166525,-1.58781,20,0.0143773,10,-0.00026441,-2.7992,-0.296049,-0.199291,12.3995,0.166525,
2,0,0,1,0,38593.5,0.159357,0.159007,-1.7137,20,0.0140654,10,-0.00027249,-2.76606,-0.215572,-0.27369,18.2704,0.159007,
2,0,0,1,0,38593.7,0.151868,0.151532,-1.88994,20,0.013726,10,-0.000286386,-2.72355,-0.1455,-0.405498,30.0317,0.151532,
2,0,0,1,0,38593.9,0.144373,0.144087,-2.19136,20,0.0133421,10,-0.000315747,-2.65929,-0.0968177,-0.609393,52.3725,0.144087,
2,0,0,1,0,38594.1,0.136884,0.136559,-2.6626,20,0.0128865,10,-0.000363601,-2.57469,-0.0862198,-0.684298,70.9597,0.136559,
2,0,0,1,0,38594.3,0.129393,0.129081,-3.21648,20,0.0123331,10,-0.000415185,-2.49262,-0.100498,-0.587078,73.5095,0.129081,
2,0,0,1,0,38594.4,0.1219,0.121608,-3.71101,20,0.0116795,10,-0.000451289,-2.43051,-0.149972,-0.393408,56.861,0.121608,
2,0,0,1,0,38594.6,0.114413,0.114089,-4.07215,20,0.0109457,10,-0.000464586,-2.39018,-0.251072,-0.234992,37.2096,0.114089,
2,0,0,1,0,38594.8,0.10692,0.106636,-4.24351,20,0.0101606,10,-0.000452513,-2.37228,-0.871036,-0.0677354,11.2177,0.106636,
2,0,0,1,0,38595,0.0994284,0.0991138,-4.24124,20,0.00935922,10,-0.000420365,-2.37251,0.820373,0.0719185,-11.9009,0.0991138,
2,0,0,1,0,38595.2,0.0919401,0.0916198,-4.10607,20,0.00857344,10,-0.000376197,-2.38657,0.439944,0.134108,-21.4735,0.0916198,
2,0,0,1,0,38595.4,0.0844447,0.0840875,-3.94481,20,0.00781593,10,-0.00033171,-2.40397,0.52385,0.112628,-17.3573,0.0840875,
2,0,0,1,0,38595.6,0.0769565,0.0766189,-3.82576,20,0.00708575,10,-0.000293125,-2.41728,0.574523,0.102694,-15.3392,0.0766189,
2,0,0,1,0,38595.8,0.0694682,0.0691474,-3.7302,20,0.00637535,10,-0.000257934,-2.42827,0.695708,0.0848057,-12.341,0.0691474,
2,0,0,1,0,38595.9,0.0619728,0.0616626,-3.63046,20,0.00568182,10,-0.000223864,-2.44004,0.645053,0.0914653,-12.981,0.0616626,
2,0,0,1,0,38596.1,0.0544836,0.0541327,-3.53492,20,0.00500724,10,-0.000191355,-2.45162,0.706965,0.0834554,-11.5076,0.0541327,
2,0,0,1,0,38596.3,0.0469927,0.0467028,-3.42895,20,0.00435165,10,-0.000160142,-2.46484,0.55582,0.106149,-14.1961,0.0467028,
2,0,0,1,0,38596.5,0.0394999,0.0391965,-3.31306,20,0.00371693,10,-0.00012986,-2.47977,0.433441,0.13612,-17.5945,0.0391965,
2,0,0,1,0,38596.7,0.0320125,0.0316798,-3.18726,20,0.00310555,10,-0.000100972,-2.49658,0.407562,0.144763,-17.9632,0.0316798,
2,0,0,1,0,38596.9,0.0245198,0.0242282,-3.04755,20,0.0025185,10,-7.38366e-05,-2.51605,0.402345,0.14664,-17.4681,0.0242282,
2,0,0,1,0,38597.1,0.0170289,0.0167283,-2.93365,20,0.00195489,10,-4.90751e-05,-2.53259,0.450065,0.131092,-15.0393,0.0167283,
2,0,0,1,0,38597.3,0.0095397,0.00918868,-2.84875,20,0.00141091,10,-2.61762e-05,-2.54535,0.734758,0.0802985,-8.90269,0.00918868,
2,0,0,1,0,38597.4,0.00204518,0.00167902,-2.82196,20,0.000879866,10,-4.73811e-06,-2.54945,1.75554,0.033608,-3.66554,0.00167902,
2,0,0,1,0,38597.5,0.000177222,-0.000220343,-2.78757,20,0.000748025,10,6.14223e-07,-2.55477, , , ,-0.000220343,