File: Figure_codes/Fig_3-5/rawdata_trumpetplot_data/after 10th/20221101_1-115_003_TrumpetPlot_ParaChange_from10_every3_03_CV_C01_19.csv
mode,ox/red,error,control changes,counter inc.,time/s,control/V,Ewe/V,<I>/mA,cycle number,(Q-Qo)/C,I Range,P/W,log(|I|),Tafel slope mV/dec,alpha_eff,dI/d(E-IR),E-IR/V,
2,0,0,1,0,38372.5,2.44065e-05,-0.000325324,-0.0904896,20,0.0000000E+000,10,2.94384e-08,-4.0434, , , ,-0.000325324,
2,1,0,1,0,38373.9,0.00729041,0.00695094,0.203356,20,0.000258019,10,1.41351e-06,-3.69174,0.0872612,0.676131,5.33353,0.00695094,
2,1,0,1,0,38375.4,0.0147815,0.0144599,0.234797,20,0.000610114,10,3.39513e-06,-3.62931,0.150635,0.391674,3.58439,0.0144599,
2,1,0,1,0,38376.9,0.0222725,0.0219262,0.261454,20,0.00100482,10,5.73269e-06,-3.5826,0.163632,0.360565,3.6645,0.0219262,
2,1,0,1,0,38378.4,0.0297635,0.0294117,0.289527,20,0.001439,10,8.51549e-06,-3.53831,0.214458,0.275113,3.09358,0.0294117,
2,1,0,1,0,38379.9,0.0372545,0.0369364,0.314868,20,0.00191297,10,1.16301e-05,-3.50187,0.218261,0.270318,3.32714,0.0369364,
2,1,0,1,0,38381.4,0.0447456,0.0444209,0.339794,20,0.00242574,10,1.5094e-05,-3.46878,0.235814,0.250197,3.31981,0.0444209,
2,1,0,1,0,38382.9,0.0522367,0.0518597,0.363688,20,0.00297577,10,1.88607e-05,-3.43927,0.231932,0.254385,3.60159,0.0518597,
2,1,0,1,0,38384.4,0.0597277,0.0594163,0.386396,20,0.00356062,10,2.29582e-05,-3.41297,0.312432,0.188841,2.83759,0.0594163,
2,1,0,1,0,38385.9,0.0672187,0.0669069,0.405763,20,0.0041764,10,2.71483e-05,-3.39173,0.365158,0.161574,2.54906,0.0669069,
2,1,0,1,0,38387.4,0.0747092,0.0743262,0.420079,20,0.0048184,10,3.12229e-05,-3.37667,0.528931,0.111546,1.83156,0.0743262,
2,1,0,0,0,38388.9,0.0822001,0.0818742,0.433851,20,0.00548334,10,3.55212e-05,-3.36266,0.547539,0.107755,1.83361,0.0818742,
2,1,0,1,0,38390.4,0.0896911,0.0893596,0.455071,20,0.00617331,10,4.0665e-05,-3.34192,0.285846,0.206405,3.67758,0.0893596,
2,1,0,0,0,38391.9,0.097182,0.0968556,0.488149,20,0.00690228,10,4.728e-05,-3.31145,0.195395,0.301952,5.74661,0.0968556,
2,1,0,1,0,38393.4,0.104673,0.104339,0.532533,20,0.00768761,10,5.55639e-05,-3.27365,0.200175,0.294742,6.08676,0.104339,
2,1,0,0,0,38394.9,0.112164,0.111806,0.566658,20,0.0085335,10,6.33559e-05,-3.24668,0.324536,0.181798,4.01335,0.111806,
2,1,0,1,0,38396.4,0.119655,0.119312,0.592932,20,0.0094273,10,7.07439e-05,-3.22699,0.513028,0.115003,2.66053,0.119312,
2,1,0,0,0,38397.9,0.127146,0.126793,0.609344,20,0.0103549,10,7.72606e-05,-3.21514,0.767847,0.0768382,1.8353,0.126793,
2,1,0,1,0,38399.4,0.134637,0.134323,0.610797,20,0.0113004,10,8.20441e-05,-3.2141,-0.37787,-0.156138,-3.71265,0.134323,
2,1,0,1,0,38400.9,0.142127,0.141816,0.546018,20,0.0121986,10,7.74343e-05,-3.26279,-0.0995925,-0.592414,-12.5442,0.141816,
2,1,0,1,0,38402.4,0.149618,0.149266,0.437283,20,0.0129585,10,6.52714e-05,-3.35924,-0.0771328,-0.764914,-13.1015,0.149266,
2,1,0,1,0,38403.9,0.157109,0.156801,0.364722,20,0.0135753,10,5.71889e-05,-3.43804,-0.121775,-0.484499,-6.90119,0.156801,
2,1,0,1,0,38405.4,0.1646,0.164292,0.331348,20,0.0141153,10,5.44378e-05,-3.47972,-0.235128,-0.250927,-3.24815,0.164292,
2,1,0,1,0,38406.9,0.172091,0.171793,0.314029,20,0.0146192,10,5.39481e-05,-3.50303,-0.456504,-0.129243,-1.5861,0.171793,
2,1,0,1,0,38408.4,0.179582,0.179256,0.304642,20,0.0151045,10,5.4609e-05,-3.51621,-0.868574,-0.0679274,-0.810039,0.179256,
2,1,0,1,0,38409.9,0.187074,0.186771,0.2999,20,0.0155784,10,5.60126e-05,-3.52302,-1.18437,-0.0498155,-0.580418,0.186771,
2,1,0,1,0,38411.4,0.194564,0.194253,0.29396,20,0.0160447,10,5.71026e-05,-3.53171,-1.74331,-0.0338437,-0.388933,0.194253,
2,1,0,1,0,38412.9,0.202056,0.201758,0.292029,20,0.016505,10,5.89191e-05,-3.53457,-0.98835,-0.0596955,-0.676334,0.201758,
2,1,0,1,0,38414.4,0.209547,0.209242,0.289011,20,0.0169611,10,6.04732e-05,-3.53909,-1.06754,-0.0552672,-0.622373,0.209242,
2,1,0,1,0,38415.9,0.217038,0.216717,0.286256,20,0.0174124,10,6.20364e-05,-3.54325,-3.15743,-0.0186861,-0.208703,0.216717,
2,1,0,1,0,38417.4,0.224529,0.224219,0.283422,20,0.0178605,10,6.35487e-05,-3.54757,-2.91385,-0.0202481,-0.223959,0.224219,
2,1,0,1,0,38418.9,0.232019,0.231691,0.281339,20,0.0183051,10,6.51835e-05,-3.55077,-1.65249,-0.0357036,-0.392727,0.231691,
2,1,0,0,0,38420.4,0.23951,0.239181,0.27994,20,0.0187465,10,6.69564e-05,-3.55293,17.7556,0.00332289,0.0361458,0.239181,
2,1,0,1,0,38421.9,0.247001,0.246641,0.277979,20,0.0191849,10,6.85611e-05,-3.55599,-1.22582,-0.0481311,-0.52138,0.2466412,
2,1,0,0,0,38423.4,0.254492,0.254181,0.27576,20,0.0196204,10,7.00929e-05,-3.55947,-1.15896,-0.0509076,-0.549715,0.2541807,
2,1,0,1,0,38424.9,0.261983,0.26168,0.274677,20,0.0200536,10,7.18773e-05,-3.56118,-1.05763,-0.0557853,-0.596759,0.26168,
2,1,0,0,0,38426.4,0.269474,0.269152,0.273125,20,0.0204841,10,7.3512e-05,-3.56364,3.17303,0.0185942,0.198265,0.269152,
2,1,0,1,0,38427.9,0.276965,0.276588,0.270793,20,0.0209121,10,7.4898e-05,-3.56736,-1.67901,-0.0351398,-0.37163,0.276588,
2,1,0,0,0,38429.4,0.284456,0.284107,0.269306,20,0.0213375,10,7.65118e-05,-3.56975,-11.0843,-0.00532283,-0.0559952,0.284107,
2,1,0,1,0,38430.9,0.291947,0.291625,0.267667,20,0.0217605,10,7.80583e-05,-3.57241,-1.2686,-0.0465078,-0.486262,0.2916247,
2,1,0,1,0,38432.4,0.299437,0.299129,0.265569,20,0.0221807,10,7.94394e-05,-3.57582,-0.00252174,-23.3966,-121.354,0.299129,
2,0,0,1,0,38433.7,0.293744,0.293397,-0.01604,20,0.0222186,10,-4.7061e-06,-4.79479,-0.00518313,-11.3831,5.33151,0.293397,
2,0,0,1,0,38435.2,0.286253,0.285914,-0.0462059,20,0.0221486,10,-1.32109e-05,-4.3353,-0.035371,-1.66803,3.03758,0.285914,
2,0,0,0,0,38436.7,0.278763,0.278468,-0.0680869,20,0.0220414,10,-1.896e-05,-4.16694,-0.0656282,-0.899004,2.35615,0.278468,
2,0,0,1,0,38438.2,0.271272,0.270925,-0.0839924,20,0.0219069,10,-2.27556e-05,-4.07576,-0.101404,-0.581834,1.89986,0.270925,
2,0,0,0,0,38439.7,0.263781,0.263475,-0.0976288,20,0.0217497,10,-2.57228e-05,-4.01042,-0.156393,-0.377256,1.44594,0.263475,
2,0,0,1,0,38441.2,0.25629,0.255953,-0.109217,20,0.0215731,10,-2.79544e-05,-3.96171,-0.170215,-0.34662,1.47566,0.255953,
2,0,0,0,0,38442.7,0.248799,0.248464,-0.121087,20,0.0213798,10,-3.00857e-05,-3.9169,-0.185999,-0.317205,1.49192,0.248464,
2,0,0,1,0,38444.2,0.241308,0.240961,-0.129851,20,0.021171,10,-3.12891e-05,-3.88655,-0.230629,-0.255822,1.30336,0.240961,
2,0,0,0,0,38445.7,0.233817,0.233485,-0.13996,20,0.0209479,10,-3.26786e-05,-3.854,-0.291148,-0.202646,1.10033,0.233485,
2,0,0,1,0,38447.2,0.226326,0.225987,-0.148448,20,0.0207109,10,-3.35473e-05,-3.82843,-0.270707,-0.217948,1.26668,0.225987,
2,0,0,0,0,38448.7,0.218835,0.218501,-0.156451,20,0.020461,10,-3.41848e-05,-3.80562,-0.297482,-0.198332,1.21666,0.218501,
2,0,0,1,0,38450.2,0.211344,0.211017,-0.164589,20,0.0201984,10,-3.4731e-05,-3.7836,-0.387125,-0.152406,0.983967,0.211017,
2,0,0,1,0,38451.7,0.203854,0.203532,-0.174611,20,0.019922,10,-3.55388e-05,-3.75793,-0.673554,-0.0875951,0.598198,0.203532,
2,0,0,1,0,38453.2,0.196363,0.196052,-0.184005,20,0.0196323,10,-3.60746e-05,-3.73517,-0.33945,-0.173811,1.2463,0.196052,
2,0,0,1,0,38454.7,0.188871,0.188532,-0.193925,20,0.0193274,10,-3.65612e-05,-3.71237,-0.245129,-0.240689,1.82218,0.188532,
2,0,0,1,0,38456.2,0.181381,0.18107,-0.206376,20,0.0190061,10,-3.73686e-05,-3.68534,-0.230272,-0.256219,2.05903,0.18107,
2,0,0,1,0,38457.7,0.173889,0.173553,-0.220318,20,0.0186653,10,-3.82368e-05,-3.65695,-0.210415,-0.280398,2.39858,0.173553,
2,0,0,1,0,38459.2,0.166398,0.166043,-0.23728,20,0.0183007,10,-3.93986e-05,-3.62474,-0.239726,-0.246115,2.29382,0.166043,
2,0,0,1,0,38460.7,0.158907,0.158569,-0.260353,20,0.0179057,10,-4.12839e-05,-3.58444,-0.166217,-0.354957,3.62661,0.158569,
2,0,0,1,0,38462.2,0.151416,0.151067,-0.29661,20,0.0174667,10,-4.48079e-05,-3.52781,-0.114442,-0.515545,5.99232,0.151067,
2,0,0,1,0,38463.7,0.143925,0.143586,-0.357526,20,0.0169563,10,-5.13359e-05,-3.44669,-0.0770791,-0.765448,10.7059,0.143586,
2,0,0,1,0,38465.2,0.136434,0.136107,-0.448648,20,0.0163322,10,-6.10643e-05,-3.34809,-0.0786309,-0.750341,13.0806,0.136107,
2,0,0,1,0,38466.7,0.128943,0.128627,-0.541485,20,0.0155657,10,-6.96497e-05,-3.26641,-0.117681,-0.501353,10.5501,0.128627,
2,0,0,0,0,38468.2,0.121453,0.121122,-0.603843,20,0.014678,10,-7.31387e-05,-3.21908,-0.290369,-0.203189,4.77326,0.121122,
2,0,0,1,0,38469.7,0.113962,0.113616,-0.619221,20,0.0137318,10,-7.03536e-05,-3.20815,16.0937,0.00366604,-0.0886688,0.113616,
2,0,0,0,0,38471.2,0.106471,0.106149,-0.613548,20,0.0127811,10,-6.51275e-05,-3.21215,1.37191,0.0430058,-1.03204,0.106149,
2,0,0,1,0,38472.7,0.0989798,0.098653,-0.600196,20,0.0118469,10,-5.92111e-05,-3.22171,0.933616,0.0631952,-1.47719,0.098653,
2,0,0,0,0,38474.2,0.0914889,0.0911984,-0.583769,20,0.0109367,10,-5.32388e-05,-3.23376,0.673651,0.0875824,-1.98855,0.0911984,
2,0,0,1,0,38475.7,0.083998,0.0836451,-0.561507,20,0.0100547,10,-4.69673e-05,-3.25065,0.37029,0.159335,-3.49321,0.0836451,
2,0,0,0,0,38477.2,0.076507,0.0761332,-0.543334,20,0.00920313,10,-4.13657e-05,-3.26493,0.521946,0.113039,-2.39538,0.0761332,
2,0,0,1,0,38478.7,0.069016,0.0687039,-0.522732,20,0.00838068,10,-3.59138e-05,-3.28172,0.569885,0.10353,-2.12407,0.0687039,
2,0,0,0,0,38480.2,0.0615251,0.061174,-0.509052,20,0.00758347,10,-3.11407e-05,-3.29324,0.501319,0.11769,-2.34118,0.061174,
2,0,0,1,0,38481.7,0.0540342,0.0536684,-0.492292,20,0.00681141,10,-2.64206e-05,-3.30778,0.660456,0.0893322,-1.71413,0.0536684,
2,0,0,1,0,38483.2,0.0465436,0.0462089,-0.474645,20,0.006064,10,-2.19328e-05,-3.32363,0.434894,0.135665,-2.5186,0.0462089,
2,0,0,1,0,38484.7,0.0390526,0.0387689,-0.458425,20,0.00534263,10,-1.77727e-05,-3.33873,0.433888,0.13598,-2.42232,0.0387689,
2,0,0,1,0,38486.2,0.0315615,0.0312274,-0.441731,20,0.00464699,10,-1.37941e-05,-3.35484,0.456665,0.129198,-2.22473,0.0312274,
2,0,0,1,0,38487.7,0.0240706,0.023762,-0.424966,20,0.00397508,10,-1.00981e-05,-3.37165,0.625372,0.0943439,-1.56999,0.023762,
2,0,0,1,0,38489.2,0.0165795,0.0162201,-0.416575,20,0.00332229,10,-6.75688e-06,-3.38031,1.08498,0.054379,-0.884184,0.0162201,
2,0,0,1,0,38490.7,0.00908846,0.00876334,-0.411953,20,0.00268066,10,-3.61008e-06,-3.38515,-91.6444,-0.000643793,0.0103411,0.00876334,
2,0,0,1,0,38492.2,0.00159739,0.0011982,-0.416287,20,0.00203984,10,-4.98794e-07,-3.38061, , , ,0.0011982,
2,0,0,0,0,38492.5,0.000199195,-0.000178351,-0.414837,20,0.00191953,10,7.39866e-08,-3.38212, , , ,-0.000178351,