File: Figure_codes/Fig_3-5/rawdata_trumpetplot_data/after 10th/20221101_1-115_003_TrumpetPlot_ParaChange_from10_every3_02_CV_C01_35.csv
mode,ox/red,error,control changes,counter inc.,time/s,control/V,Ewe/V,<I>/mA,cycle number,(Q-Qo)/C,I Range,P/W,log(|I|),Tafel slope mV/dec,alpha_eff,dI/d(E-IR),E-IR/V,
2,0,0,1,0,69294.6,2.44065e-05,-0.000268062,-0.409142,36,0.0000000E+000,10,1.09675e-07,-3.38813, , , ,-0.000268062,
2,0,0,1,0,69297.9,0.00329552,0.00294611,-0.14044,36,-0.000580393,10,-4.13752e-07,-3.85251,-0.0201654,-2.92581,16.9149,0.00294611,
2,0,0,1,0,69301.4,0.00679121,0.00646019,-0.103377,36,-0.000969751,10,-6.67838e-07,-3.98557,-0.0293956,-2.0071,8.20192,0.00646019,
2,0,0,1,0,69304.9,0.010287,0.0099808,-0.080431,36,-0.00125776,10,-8.02766e-07,-4.09458,-0.0365295,-1.61513,5.1452,0.0099808,
2,0,0,1,0,69308.4,0.0137828,0.0134314,-0.0651945,36,-0.00148223,10,-8.75651e-07,-4.18579,-0.0388257,-1.51961,3.88309,0.0134314,
2,0,0,1,0,69311.8,0.0172785,0.0169179,-0.0531167,36,-0.00165893,10,-8.98623e-07,-4.27477,-0.0436465,-1.35177,2.81169,0.01691789,
2,0,0,1,0,69315.3,0.0207743,0.0204353,-0.0441003,36,-0.00180025,10,-9.01203e-07,-4.35556,-0.0407496,-1.44787,2.49731,0.0204353,
2,0,0,1,0,69318.8,0.0242701,0.0239304,-0.0360633,36,-0.00191038,10,-8.63009e-07,-4.44293,-0.0401619,-1.46905,2.04464,0.0239304,
2,0,0,1,0,69322.3,0.0277659,0.0273969,-0.0292772,36,-0.00199502,10,-8.02105e-07,-4.53347,-0.0365377,-1.61477,1.8225,0.0273969,
2,0,0,1,0,69325.8,0.0312617,0.0309429,-0.0236692,36,-0.00205641,10,-7.32395e-07,-4.62582,-0.0284113,-2.07664,1.83624,0.0309429,
2,0,0,1,0,69329.3,0.0347575,0.0344519,-0.0165884,36,-0.00209559,10,-5.71501e-07,-4.7802,-0.0196587,-3.00122,1.87204,0.0344519,
2,0,0,1,0,69332.8,0.0382532,0.0379299,-0.010318,36,-0.00211267,10,-3.91362e-07,-4.9864,-0.0150895,-3.91002,1.54033,0.0379299,
2,1,0,1,0,69336.3,0.041749,0.0414292,-0.00534196,36,-0.00210983,10,-2.21313e-07,-5.2723,-0.00836896,-7.04986,1.36803,0.04142924,
2,0,0,1,0,69339.8,0.0452447,0.0449275,-0.000179488,36,-0.00208978,10,-8.06395e-09,-6.74596,-0.0592551,-0.995696,1.38209,0.0449275,
2,0,0,1,0,69343.3,0.0487405,0.0484448,0.00447421,36,-0.00205135,10,2.16752e-07,-5.34928,0.00582879,10.1222,1.4344,0.0484448,
2,0,0,1,0,69346.8,0.0522363,0.0518922,0.00977456,36,-0.00199553,10,5.07224e-07,-5.0099,0.0139409,4.23215,1.50386,0.05189224,
2,1,0,1,0,69350.3,0.0557321,0.0554308,0.0145235,36,-0.0019219,10,8.05048e-07,-4.83793,0.0313306,1.88314,1.00775,0.05543083,
2,1,0,1,0,69353.8,0.0592279,0.0589037,0.017781,36,-0.00183538,10,1.04737e-06,-4.75004,0.0336534,1.75316,1.21985,0.0589037,
2,1,0,1,0,69357.3,0.0627237,0.0624381,0.0217681,36,-0.00173398,10,1.35916e-06,-4.66218,0.0557042,1.05917,0.909496,0.0624381,
2,1,0,1,0,69360.8,0.0662195,0.0659236,0.0259283,36,-0.00161999,10,1.70929e-06,-4.58623,0.0499921,1.18019,1.16242,0.0659236,
2,1,0,1,0,69364.3,0.0697152,0.0694271,0.0278769,36,-0.00149346,10,1.93542e-06,-4.55475,0.0748387,0.788363,0.890214,0.06942714,
2,1,0,1,0,69367.8,0.073211,0.0728735,0.0320762,36,-0.00135484,10,2.3375e-06,-4.49382,0.093607,0.630294,0.804106,0.0728735,
2,1,0,1,0,69371.3,0.0767068,0.0763687,0.0356251,36,-0.0012053,10,2.72064e-06,-4.44824,0.080973,0.728638,1.00726,0.0763687,
2,1,0,1,0,69374.8,0.0802025,0.0799071,0.0385619,36,-0.00104393,10,3.08137e-06,-4.41384,0.0799253,0.738189,1.11973,0.0799071,
2,1,0,1,0,69378.3,0.0836983,0.0833619,0.0427834,36,-0.000869553,10,3.56651e-06,-4.36872,0.095502,0.617788,1.03321,0.0833619,
2,1,0,1,0,69381.8,0.0871941,0.0868899,0.0471813,36,-0.000680864,10,4.09958e-06,-4.32623,0.109536,0.538634,0.976464,0.0868899,
2,1,0,1,0,69385.3,0.0906899,0.0903299,0.050303,36,-0.000479583,10,4.54386e-06,-4.29841,0.0872588,0.676149,1.32673,0.0903299,
2,1,0,1,0,69388.8,0.0941857,0.0938791,0.0549231,36,-0.000263172,10,5.15613e-06,-4.26024,0.0952986,0.619107,1.33211,0.0938791,
2,1,0,1,0,69392.2,0.0976815,0.0973328,0.0601208,36,-3.06123e-05,10,5.85173e-06,-4.22098,0.0967368,0.609902,1.4205,0.09733285,
2,1,0,1,0,69395.7,0.101177,0.100902,0.0636283,36,0.000218044,10,6.42023e-06,-4.19635,0.129706,0.454874,1.1347,0.100902,
2,1,0,1,0,69399.2,0.104673,0.104317,0.0688791,36,0.000480953,10,7.18523e-06,-4.16191,0.130843,0.450921,1.19109,0.104317,
2,1,0,1,0,69402.7,0.108169,0.107865,0.071633,36,0.000758414,10,7.72667e-06,-4.14489,0.145375,0.405846,1.14171,0.107865,
2,1,0,1,0,69406.2,0.111664,0.11136,0.0763285,36,0.00105013,10,8.49993e-06,-4.11731,0.127139,0.464058,1.37749,0.11136,
2,1,0,1,0,69409.7,0.11516,0.114841,0.0803193,36,0.00135619,10,9.22397e-06,-4.09518,0.165654,0.356164,1.11274,0.114841,
2,1,0,1,0,69413.2,0.118656,0.118361,0.0834866,36,0.00167648,10,9.88153e-06,-4.07838,0.247291,0.238586,0.77882,0.118361,
2,1,0,1,0,69416.7,0.122152,0.121808,0.0870034,36,0.00200774,10,1.05977e-05,-4.06046,0.245322,0.2405,0.813197,0.121808,
2,1,0,1,0,69420.2,0.125648,0.125334,0.0894257,36,0.00234954,10,1.12081e-05,-4.04854,0.660722,0.0892963,0.31057,0.125334,
2,1,0,1,0,69423.7,0.129143,0.128754,0.0904101,36,0.00269678,10,1.16406e-05,-4.04378,0.84987,0.0694224,0.242774,0.128754,
2,1,0,1,0,69427.2,0.132639,0.132289,0.0886799,36,0.00304337,10,1.17314e-05,-4.05217,-0.265358,-0.222341,-0.762371,0.132289,
2,1,0,1,0,69430.7,0.136135,0.135813,0.0848886,36,0.00337983,10,1.1529e-05,-4.07115,-0.116586,-0.506064,-1.66554,0.135813,
2,1,0,1,0,69434.2,0.139631,0.139289,0.0779808,36,0.00369768,10,1.08619e-05,-4.10801,-0.0888197,-0.664267,-2.02448,0.139289,
2,1,0,1,0,69437.7,0.143126,0.142824,0.0715254,36,0.00399074,10,1.02156e-05,-4.14554,-0.0816748,-0.722377,-1.99534,0.142824,
2,1,0,1,0,69441.2,0.146622,0.146276,0.0633729,36,0.00425613,10,9.26992e-06,-4.1981,-0.0815262,-0.723694,-1.80225,0.146276,
2,1,0,1,0,69444.7,0.150118,0.14977,0.0581643,36,0.00449876,10,8.71126e-06,-4.23534,-0.11331,-0.520693,-1.1826,0.1497699,
2,1,0,1,0,69448.2,0.153614,0.153254,0.0542452,36,0.00472506,10,8.31332e-06,-4.26564,-0.18076,-0.326399,-0.701511,0.153254,
2,1,0,1,0,69451.7,0.15711,0.156763,0.0521426,36,0.00494102,10,8.17405e-06,-4.28281,-0.260133,-0.226807,-0.464699,0.156763,
2,1,0,1,0,69455.2,0.160605,0.160274,0.0515418,36,0.00515165,10,8.26083e-06,-4.28784,-0.354176,-0.166584,-0.334707,0.160274,
2,1,0,1,0,69458.7,0.164101,0.163793,0.0508151,36,0.00535991,10,8.32313e-06,-4.29401,-1.50149,-0.0392942,-0.0785735,0.163793,
2,1,0,1,0,69462.2,0.167597,0.167264,0.0509363,36,0.00556672,10,8.51983e-06,-4.29297,-3.25041,-0.0181515,-0.0360859,0.167264,
2,1,0,1,0,69465.7,0.171093,0.170741,0.0508668,36,0.00577418,10,8.68503e-06,-4.29357,2.44664,0.0241147,0.0478958,0.170741,
2,1,0,1,0,69469.2,0.174588,0.174247,0.0509691,36,0.00598097,10,8.88122e-06,-4.29269,1.21637,0.0485051,0.0971577,0.174247,
2,1,0,1,0,69472.7,0.178084,0.177771,0.0512239,36,0.00618897,10,9.10613e-06,-4.29053,0.601415,0.0981019,0.197259,0.177771,
2,1,0,1,0,69476.1,0.18158,0.181265,0.0517924,36,0.00639806,10,9.38815e-06,-4.28573,0.699661,0.0843265,0.171378,0.181265,
2,1,0,1,0,69479.6,0.185076,0.184761,0.0522123,36,0.00660859,10,9.64681e-06,-4.28223,-14.5178,-0.00406399,-0.00834383,0.184761,
2,1,0,1,0,69483.1,0.188572,0.188214,0.0530795,36,0.00682046,10,9.9903e-06,-4.27507,0.66779,0.0883511,0.182466,0.188214,
2,1,0,1,0,69486.6,0.192067,0.191739,0.0533516,36,0.00703406,10,1.02296e-05,-4.27285,0.940488,0.0627334,0.130785,0.191739,
2,1,0,1,0,69490.1,0.195563,0.195255,0.053677,36,0.00724941,10,1.04807e-05,-4.27021,7.36486,0.00801102,0.0168018,0.195255,
2,1,0,1,0,69493.6,0.199059,0.198697,0.0540351,36,0.00746513,10,1.07366e-05,-4.26732,1.20749,0.0488619,0.103725,0.198697,
2,1,0,1,0,69497.1,0.202555,0.202234,0.0547691,36,0.00768299,10,1.10762e-05,-4.26146,1.07951,0.0546544,0.117325,0.202234,
2,1,0,1,0,69500.6,0.20605,0.205677,0.0553817,36,0.00790287,10,1.13907e-05,-4.25663,3.59449,0.016414,0.0353188,0.2056766,
2,1,0,1,0,69504.1,0.209546,0.209286,0.0551364,36,0.00812381,10,1.15393e-05,-4.25856,1.70369,0.0346306,0.0750574,0.209286,
2,1,0,1,0,69507.6,0.213042,0.212742,0.0556939,36,0.00834432,10,1.18484e-05,-4.25419,0.765744,0.0770492,0.167955,0.212742,
2,1,0,1,0,69511.1,0.216538,0.216222,0.0560035,36,0.00856713,10,1.21092e-05,-4.25178,0.501664,0.117609,0.257879,0.216222,
2,1,0,1,0,69514.6,0.220034,0.219701,0.0568836,36,0.00879217,10,1.24974e-05,-4.24501,0.384717,0.15336,0.341513,0.219701,
2,1,0,1,0,69518.1,0.223529,0.223224,0.0576063,36,0.00901901,10,1.28591e-05,-4.23953,1.62423,0.036325,0.0810801,0.2232243,
2,1,0,1,0,69521.6,0.227025,0.226696,0.0579041,36,0.00924701,10,1.31266e-05,-4.23729,4.41995,0.0133486,0.0301342,0.226696,
2,1,0,1,0,69525.1,0.230521,0.230181,0.0582329,36,0.00947642,10,1.34041e-05,-4.23483,-1.37618,-0.0428724,-0.0972968,0.230181,
2,1,0,1,0,69528.6,0.234017,0.233662,0.0589175,36,0.00970698,10,1.37668e-05,-4.22976,0.478895,0.1232,0.282635,0.233662,
2,1,0,1,0,69532.1,0.237512,0.237181,0.0594726,36,0.00994053,10,1.41058e-05,-4.22568,1.90645,0.0309475,0.0720306,0.237181,
2,1,0,1,0,69535.6,0.241008,0.240749,0.0594799,36,0.0101749,10,1.43197e-05,-4.22563,2.62275,0.0224954,0.0526296,0.240749,
2,1,0,1,0,69539.1,0.244504,0.24418,0.0600581,36,0.0104098,10,1.4665e-05,-4.22143,0.743482,0.0793564,0.186037,0.24418,
2,1,0,1,0,69542.6,0.248,0.247678,0.060825,36,0.0106472,10,1.5065e-05,-4.21592,0.571885,0.103168,0.244565,0.247678,
2,1,0,1,0,69546.1,0.251496,0.251207,0.0611325,36,0.0108862,10,1.53569e-05,-4.21373,-10.0056,-0.00589671,-0.0140956,0.251207,
2,1,0,1,0,69548.4,0.253818,0.253527,0.0609931,36,0.0110452,10,1.54634e-05,-4.21472, , , ,0.253527,