File: Figure_codes/Fig_3-5/rawdata_trumpetplot_data/after 10th/20221101_1-115_003_TrumpetPlot_ParaChange_from10_every3_04_CV_C01_20.csv
mode,ox/red,error,control changes,counter inc.,time/s,control/V,Ewe/V,<I>/mA,cycle number,(Q-Qo)/C,I Range,P/W,log(|I|),Tafel slope mV/dec,alpha_eff,dI/d(E-IR),E-IR/V,
2,0,0,1,0,40462.6,2.44065e-05,-0.000306236,-0.385608,21,0.0000000E+000,10,1.18087e-07,-3.41385, , , ,-0.000306236,
2,1,0,1,0,40463.4,0.00729063,0.00698088,0.352651,21,0.000171513,10,2.46181e-06,-3.45266,0.0586308,1.0063,13.6558,0.00698088,
2,1,0,1,0,40464.1,0.0147814,0.0144069,0.427365,21,0.000476744,10,6.15702e-06,-3.3692,0.112556,0.524184,8.752,0.0144069,
2,1,0,1,0,40464.8,0.0222725,0.0219771,0.482357,21,0.000828455,10,1.06008e-05,-3.31663,0.152695,0.386391,7.26709,0.0219771,
2,1,0,1,0,40465.6,0.0297635,0.0294741,0.53366,21,0.00121947,10,1.57291e-05,-3.27274,0.191972,0.307336,6.40308,0.0294741,
2,1,0,1,0,40466.3,0.0372544,0.0369257,0.58444,21,0.00164828,10,2.15809e-05,-3.23326,0.200842,0.293764,6.69265,0.0369257,
2,1,0,1,0,40467.1,0.0447458,0.0444666,0.632969,21,0.00211544,10,2.8146e-05,-3.19862,0.222829,0.264777,6.5622,0.0444666,
2,1,0,1,0,40467.8,0.0522363,0.0519262,0.68165,21,0.00261923,10,3.53955e-05,-3.16644,0.24364,0.24216,6.42916,0.0519262,
2,1,0,1,0,40468.6,0.0597282,0.0594097,0.7226,21,0.00315634,10,4.29295e-05,-3.1411,0.298521,0.197641,5.58123,0.0594097,
2,1,0,1,0,40469.3,0.0672182,0.0669161,0.762102,21,0.0037231,10,5.09969e-05,-3.11799,0.334169,0.176558,5.22713,0.0669161,
2,1,0,1,0,40470.1,0.0747092,0.0743835,0.794316,21,0.00431587,10,5.9084e-05,-3.10001,0.5171,0.114098,3.52795,0.0743835,
2,1,0,1,0,40470.8,0.0822001,0.081888,0.817814,21,0.00493027,10,6.69691e-05,-3.08735,0.545233,0.108211,3.46183,0.08188799,
2,1,0,1,0,40471.6,0.0896911,0.0893586,0.853776,21,0.00556624,10,7.62922e-05,-3.06866,0.357441,0.165062,5.5111,0.0893586,
2,1,0,1,0,40472.3,0.097182,0.0968737,0.90854,21,0.00623557,10,8.80136e-05,-3.04166,0.214001,0.2757,9.76967,0.0968737,
2,1,0,1,0,40473.1,0.104673,0.104383,0.988432,21,0.00695492,10,0.000103176,-3.00505,0.193035,0.305643,11.7614,0.104383,
2,1,0,1,0,40473.8,0.112164,0.111831,1.06538,21,0.00773504,10,0.000119142,-2.9725,0.271958,0.216946,8.99957,0.111831,
2,1,0,1,0,40474.6,0.119655,0.119342,1.12025,21,0.00856511,10,0.000133692,-2.95069,0.548315,0.107602,4.70071,0.119342,
2,1,0,1,0,40475.3,0.127146,0.126806,1.15132,21,0.00942811,10,0.000145994,-2.9388,0.713468,0.0826947,3.724,0.126806,
2,1,0,1,0,40476.1,0.134637,0.134299,1.16306,21,0.0103099,10,0.000156197,-2.9344,-0.708272,-0.0833013,-3.7797,0.134299,
2,1,0,1,0,40476.8,0.142127,0.141805,1.07724,21,0.0111681,10,0.000152758,-2.96769,-0.128415,-0.459447,-19.2314,0.141805,
2,1,0,1,0,40477.6,0.149619,0.149309,0.883428,21,0.0119162,10,0.000131903,-3.05383,-0.0749671,-0.787012,-27.0927,0.149309,
2,1,0,1,0,40478.3,0.157109,0.156763,0.711469,21,0.0125177,10,0.000111532,-3.14784,-0.0985233,-0.598843,-16.653,0.156763,
2,1,0,1,0,40479.1,0.164601,0.164283,0.625264,21,0.0130247,10,0.00010272,-3.20394,-0.178824,-0.329933,-8.05725,0.164283,
2,1,0,1,0,40479.8,0.172091,0.171755,0.580362,21,0.0134856,10,9.96802e-05,-3.2363,-0.376089,-0.156878,-3.57705,0.171755,
2,1,0,1,0,40480.6,0.179582,0.179245,0.560062,21,0.0139229,10,0.000100388,-3.25176,-0.632763,-0.0932419,-2.0443,0.179245,
2,1,0,1,0,40481.3,0.187074,0.186757,0.547889,21,0.0143469,10,0.000102322,-3.26131,-1.36628,-0.0431829,-0.920015,0.186757,
2,1,0,1,0,40482.1,0.194564,0.194268,0.53766,21,0.0147624,10,0.00010445,-3.26949,-1.21693,-0.0484828,-1.01669,0.194268,
2,1,0,1,0,40482.8,0.202056,0.201733,0.530336,21,0.0151718,10,0.000106986,-3.27545,-1.54545,-0.0381766,-0.788901,0.201733,
2,1,0,1,0,40483.6,0.209546,0.209253,0.524459,21,0.0155767,10,0.000109745,-3.28029,-1.0591,-0.0557077,-1.14223,0.209253,
2,1,0,1,0,40484.3,0.217038,0.216707,0.518937,21,0.0159773,10,0.000112457,-3.28489,-2.69286,-0.0219098,-0.444603,0.216707,
2,1,0,1,0,40485.1,0.224528,0.224261,0.514921,21,0.0163748,10,0.000115477,-3.28826,-1.47484,-0.0400042,-0.804883,0.224261,
2,1,0,1,0,40485.8,0.232019,0.231719,0.512425,21,0.0167689,10,0.000118739,-3.29037,-2.18637,-0.0269854,-0.537921,0.231719,
2,1,0,1,0,40486.6,0.23951,0.239167,0.506959,21,0.0171606,10,0.000121248,-3.29503,-1.88561,-0.0312896,-0.618762,0.239167,
2,1,0,1,0,40487.3,0.247001,0.246693,0.505393,21,0.0175496,10,0.000124677,-3.29637,-1.23375,-0.0478216,-0.939503,0.246693,
2,1,0,1,0,40488.1,0.254492,0.254201,0.500469,21,0.017936,10,0.00012722,-3.30062,-3.61411,-0.0163249,-0.319473,0.254201,
2,1,0,1,0,40488.8,0.261983,0.261657,0.497569,21,0.0183196,10,0.000130192,-3.30315,-1.91461,-0.0308157,-0.599251,0.261657,
2,1,0,1,0,40489.6,0.269474,0.269142,0.492451,21,0.0187005,10,0.000132539,-3.30764,-9.37998,-0.00628999,-0.120964,0.269142,
2,1,0,1,0,40490.3,0.276965,0.276641,0.489748,21,0.0190785,10,0.000135484,-3.31003,-1.56417,-0.0377197,-0.721076,0.276641,
2,1,0,1,0,40491.1,0.284456,0.284153,0.484766,21,0.0194535,10,0.000137748,-3.31447,-1.73857,-0.033936,-0.64173,0.2841531,
2,1,0,1,0,40491.8,0.291947,0.291629,0.481279,21,0.0198252,10,0.000140355,-3.3176,-1.76861,-0.0333594,-0.628171,0.291629,
2,1,0,1,0,40492.6,0.299437,0.299165,0.475963,21,0.0201939,10,0.000142392,-3.32243,-0.00282077,-20.9163,-205.75,0.299165,
2,0,0,1,0,40493.2,0.293745,0.293435,-0.074683,21,0.020219,10,-2.19146e-05,-4.12678,-0.0141962,-4.15605,10.9001,0.293435,
2,0,0,1,0,40494,0.286253,0.28594,-0.13051,21,0.0201307,10,-3.73179e-05,-3.88436,-0.0519555,-1.13559,5.75559,0.28594,
2,0,0,1,0,40494.7,0.278763,0.27844,-0.16702,21,0.020009,10,-4.65049e-05,-3.77723,-0.092879,-0.635235,4.12547,0.27844,
2,0,0,1,0,40495.5,0.271272,0.270944,-0.193748,21,0.0198635,10,-5.24947e-05,-3.71276,-0.129783,-0.454605,3.44444,0.270944,
2,0,0,1,0,40496.2,0.263781,0.263473,-0.218624,21,0.0196984,10,-5.76014e-05,-3.6603,-0.165044,-0.35748,3.05367,0.263473,
2,0,0,1,0,40497,0.25629,0.255978,-0.239942,21,0.0195166,10,-6.142e-05,-3.61989,-0.263301,-0.224078,2.08693,0.255978,
2,0,0,1,0,40497.7,0.248799,0.24848,-0.25736,21,0.0193205,10,-6.39487e-05,-3.58946,-0.249914,-0.236081,2.37676,0.24848,
2,0,0,1,0,40498.5,0.241308,0.240998,-0.273116,21,0.0191116,10,-6.58204e-05,-3.56365,-0.329102,-0.179276,1.9176,0.240998,
2,0,0,1,0,40499.2,0.233817,0.233495,-0.289615,21,0.018891,10,-6.76237e-05,-3.53818,-0.25062,-0.235416,2.65443,0.233495,
2,0,0,1,0,40500,0.226326,0.22605,-0.303834,21,0.0186589,10,-6.86818e-05,-3.51736,-0.368177,-0.160249,1.89771,0.22605,
2,0,0,1,0,40500.7,0.218835,0.218479,-0.319246,21,0.0184155,10,-6.97486e-05,-3.49587,-0.317792,-0.185656,2.30828,0.218479,
2,0,0,1,0,40501.5,0.211344,0.211005,-0.332523,21,0.0181611,10,-7.01641e-05,-3.47818,-0.495712,-0.119021,1.54728,0.211005,
2,0,0,1,0,40502.2,0.203854,0.203498,-0.348317,21,0.0178953,10,-7.08818e-05,-3.45803,-0.387186,-0.152382,2.07707,0.203498,
2,0,0,1,0,40503,0.196362,0.196057,-0.363509,21,0.0176184,10,-7.12684e-05,-3.43948,-0.358356,-0.164641,2.33437,0.196057,
2,0,0,1,0,40503.7,0.188872,0.188593,-0.381887,21,0.017329,10,-7.20212e-05,-3.41807,-0.285611,-0.206575,3.07895,0.188593,
2,0,0,1,0,40504.5,0.18138,0.181046,-0.40024,21,0.0170261,10,-7.24617e-05,-3.39768,-0.327108,-0.180369,2.81761,0.181046,
2,0,0,1,0,40505.2,0.17389,0.173564,-0.423,21,0.016708,10,-7.34173e-05,-3.37366,-0.273956,-0.215363,3.54987,0.173564,
2,0,0,1,0,40506,0.166398,0.166035,-0.450487,21,0.0163708,10,-7.47968e-05,-3.34632,-0.293135,-0.201273,3.55443,0.166035,
2,0,0,1,0,40506.7,0.158907,0.158578,-0.491748,21,0.0160084,10,-7.79807e-05,-3.30826,-0.172421,-0.342185,6.56983,0.158578,
2,0,0,1,0,40507.5,0.151417,0.151105,-0.55297,21,0.0156086,10,-8.35565e-05,-3.2573,-0.120788,-0.488459,10.5772,0.151105,
2,0,0,1,0,40508.2,0.143925,0.143636,-0.658499,21,0.0151475,10,-9.45843e-05,-3.18144,-0.0829377,-0.711377,18.2789,0.143636,
2,0,0,1,0,40509,0.136435,0.1361,-0.815557,21,0.0145875,10,-0.000110997,-3.08855,-0.0804396,-0.733469,23.3383,0.1361002,
2,0,0,1,0,40509.7,0.128943,0.128608,-0.986987,21,0.0139015,10,-0.000126935,-3.00569,-0.109409,-0.539259,20.6452,0.128608,
2,0,0,1,0,40510.5,0.121453,0.121115,-1.11493,21,0.0131006,10,-0.000135034,-2.95275,-0.202894,-0.290792,12.617,0.121115,
2,0,0,1,0,40511.2,0.113962,0.113646,-1.17255,21,0.0122276,10,-0.000133255,-2.93087,-0.901004,-0.0654825,2.99567,0.113646,
2,0,0,1,0,40512,0.106471,0.106164,-1.17078,21,0.0113352,10,-0.000124294,-2.93153,1.13905,0.0517977,-2.37018,0.106164,
2,0,0,1,0,40512.7,0.0989798,0.0986965,-1.14455,21,0.0104562,10,-0.000112963,-2.94136,0.65883,0.0895527,-3.99461,0.0986965,
2,0,0,1,0,40513.5,0.0914889,0.0911687,-1.11381,21,0.00960071,10,-0.000101545,-2.95319,0.593661,0.0993833,-4.31168,0.0911687,
2,0,0,1,0,40514.2,0.083998,0.0836377,-1.07786,21,0.00877005,10,-9.01498e-05,-2.96744,0.428304,0.137753,-5.79029,0.0836377,
2,0,0,1,0,40515,0.076507,0.0761841,-1.04684,21,0.00796376,10,-7.97523e-05,-2.98012,0.491492,0.120043,-4.89897,0.0761841,
2,0,0,1,0,40515.7,0.069016,0.068704,-1.01177,21,0.00718213,10,-6.95124e-05,-2.99492,0.539779,0.109304,-4.32784,0.068704,
2,0,0,1,0,40516.5,0.0615251,0.0611772,-0.981623,21,0.00642373,10,-6.00529e-05,-3.00806,0.525043,0.112372,-4.3124,0.06117719,
2,0,0,1,0,40517.2,0.0540342,0.0537246,-0.950355,21,0.00568886,10,-5.10575e-05,-3.02211,0.574639,0.102673,-3.80723,0.0537246,
2,0,0,1,0,40518,0.0465441,0.046237,-0.916696,21,0.00497796,10,-4.23853e-05,-3.03777,0.506101,0.116578,-4.17665,0.04623704,
2,0,0,1,0,40518.7,0.0390523,0.0387188,-0.885423,21,0.00429236,10,-3.42826e-05,-3.05285,0.388541,0.15185,-5.23843,0.0387188,
2,0,0,1,0,40519.5,0.0315618,0.0312542,-0.851368,21,0.00363216,10,-2.66088e-05,-3.06988,0.452122,0.130496,-4.33513,0.0312542,
2,0,0,1,0,40520.2,0.0240704,0.023782,-0.817082,21,0.00299644,10,-1.94318e-05,-3.08773,0.490783,0.120216,-3.84817,0.023782,
2,0,0,1,0,40521,0.0165796,0.0162742,-0.79462,21,0.0023824,10,-1.29318e-05,-3.09984,0.829593,0.0711192,-2.20475,0.0162742,
2,0,0,1,0,40521.7,0.00908846,0.00873585,-0.779203,21,0.00178326,10,-6.807e-06,-3.10835,1.86207,0.0316852,-0.964772,0.00873585,
2,0,0,1,0,40522.5,0.00159728,0.00122603,-0.784919,21,0.0011901,10,-9.62336e-07,-3.10518, , , ,0.00122603,
2,0,0,1,0,40522.6,0.000199195,-0.000206982,-0.778459,21,0.00107896,10,1.61127e-07,-3.10876, , , ,-0.000206982,