File: Figure_codes/Fig_3-5/rawdata_trumpetplot_data/after 10th/20221101_1-115_003_TrumpetPlot_ParaChange_from10_every3_11_CV_C01_18.csv
mode,ox/red,error,control changes,counter inc.,time/s,control/V,Ewe/V,<I>/mA,cycle number,(Q-Qo)/C,I Range,P/W,log(|I|),Tafel slope mV/dec,alpha_eff,dI/d(E-IR),E-IR/V,
2,1,0,1,0,36656.9,2.44065e-05,-0.000248974,9.59246,19,0.0000000E+000,10,-2.38828e-06,-2.01807, , , ,-0.000248974,
2,1,0,1,0,36656.9,0.0101427,0.00984291,12.9138,19,0.000290245,10,0.000127109,-1.88895,0.133805,0.440942,221.044,0.00984291,
2,1,0,1,0,36656.9,0.0205441,0.0201776,14.8192,19,0.000652297,10,0.000299017,-1.82917,0.220346,0.267761,154.487,0.0201776,
2,1,0,1,0,36656.9,0.0309482,0.0305707,16.2301,19,0.00105675,10,0.000496166,-1.78968,0.305288,0.19326,122.3,0.03057068,
2,1,0,1,0,36657,0.0413439,0.0409934,17.4088,19,0.00149446,10,0.000713647,-1.75923,0.37422,0.157661,107.054,0.0409934,
2,1,0,1,0,36657,0.0517425,0.0513833,18.4896,19,0.00196139,10,0.000950056,-1.73307,0.413921,0.142539,102.847,0.0513833,
2,1,0,1,0,36657,0.0621438,0.0617954,19.5536,19,0.00245605,10,0.00120832,-1.70877,0.443559,0.133015,101.503,0.0617954,
2,1,0,1,0,36657,0.0725479,0.0721683,20.6311,19,0.0029785,10,0.00148891,-1.68548,0.44751,0.13184,106.159,0.0721683,
2,1,0,1,0,36657.1,0.0829437,0.0826016,21.7506,19,0.00352958,10,0.00179664,-1.66253,0.470245,0.125466,106.489,0.0826016,
2,1,0,1,0,36657.1,0.0933422,0.0929947,22.8605,19,0.00410978,10,0.00212591,-1.64091,0.514556,0.114662,102.268,0.0929947,
2,1,0,1,0,36657.1,0.103749,0.103413,23.9807,19,0.00471862,10,0.00247992,-1.62014,0.51519,0.114521,107.172,0.103413,
2,1,0,1,0,36657.2,0.114148,0.113784,25.0971,19,0.00535667,10,0.00285565,-1.60038,0.518887,0.113705,111.362,0.113784,
2,1,0,1,0,36657.2,0.124543,0.124208,26.3157,19,0.00602476,10,0.00326861,-1.57979,0.494773,0.119247,122.419,0.124208,
2,1,0,1,0,36657.2,0.134942,0.134586,27.6777,19,0.0067265,10,0.00372503,-1.55787,0.462647,0.127527,137.848,0.134586,
2,1,0,1,0,36657.2,0.145349,0.144987,29.1574,19,0.00746546,10,0.00422746,-1.53525,0.476217,0.123893,140.923,0.144987,
2,1,0,1,0,36657.3,0.155747,0.155384,30.5452,19,0.00824192,10,0.00474622,-1.51506,0.558603,0.105621,125.804,0.155384,
2,1,0,1,0,36657.3,0.166143,0.165799,31.6909,19,0.00905192,10,0.00525431,-1.49907,0.812808,0.0725878,89.7186,0.165799,
2,1,0,1,0,36657.3,0.176542,0.176208,32.3094,19,0.00988578,10,0.00569317,-1.49067,3.94188,0.0149675,18.8525,0.176208,
2,1,0,1,0,36657.3,0.186949,0.186629,31.9886,19,0.010724,10,0.00596998,-1.495,-0.867627,-0.0680016,-84.7309,0.186629,
2,1,0,1,0,36657.4,0.197347,0.196983,30.5207,19,0.0115389,10,0.00601207,-1.51541,-0.363535,-0.162295,-192.982,0.196983,
2,1,0,1,0,36657.4,0.207743,0.207409,28.1449,19,0.0123026,10,0.00583752,-1.5506,-0.252614,-0.233558,-256.28,0.207409,
2,1,0,1,0,36657.4,0.218141,0.217783,25.4219,19,0.0129988,10,0.00553648,-1.59479,-0.229188,-0.25743,-255.516,0.217783,
2,1,0,1,0,36657.4,0.228548,0.22823,22.9309,19,0.0136262,10,0.00523353,-1.63958,-0.2414,-0.244408,-218.727,0.22823,
2,1,0,1,0,36657.5,0.238947,0.238654,20.8692,19,0.0141943,10,0.00498051,-1.68049,-0.272858,-0.216229,-176.214,0.238654,
2,1,0,1,0,36657.5,0.249343,0.249031,19.2639,19,0.014715,10,0.00479731,-1.71526,-0.330424,-0.178558,-134.395,0.249031,
2,1,0,1,0,36657.5,0.259741,0.259412,18.0404,19,0.0151991,10,0.00467988,-1.74375,-0.399772,-0.147584,-103.915,0.259412,
2,1,0,1,0,36657.5,0.270148,0.269842,17.0812,19,0.015655,10,0.00460923,-1.76748,-0.482925,-0.122172,-81.4803,0.269842,
2,1,0,1,0,36657.6,0.280547,0.280212,16.3121,19,0.0160887,10,0.00457084,-1.78749,-0.569908,-0.103526,-65.9715,0.2802116,
2,1,0,1,0,36657.6,0.290942,0.290631,15.7046,19,0.0165047,10,0.00456424,-1.80397,-0.673838,-0.0875581,-53.6586,0.290631,
2,1,0,0,0,36657.6,0.300012,0.299632,15.2474,19,0.0168558,10,0.00456861,-1.8168,0.00216795,27.2146,14368.9,0.299632,
2,1,0,1,0,36657.6,0.290704,0.290399,5.50037,19,0.017076,10,0.0015973,-2.25961,0.0190858,3.0913,657.278,0.2903989,
2,1,0,1,0,36657.7,0.280305,0.280002,0.406357,19,0.0171459,10,0.000113781,-3.39109,0.0163991,3.59776,365.453,0.280002,
2,0,0,1,0,36657.7,0.269909,0.269622,-2.60667,19,0.017114,10,-0.000702816,-2.58391,-0.0249545,-2.36431,229.654,0.269622,
2,0,0,1,0,36657.7,0.2595,0.259196,-4.59596,19,0.0170185,10,-0.00119126,-2.33762,-0.0657144,-0.897825,159.633,0.259196,
2,0,0,1,0,36657.7,0.249104,0.248761,-6.01446,19,0.0168794,10,-0.00149616,-2.2208,-0.118832,-0.496497,115.995,0.248761,
2,0,0,1,0,36657.8,0.238705,0.238384,-7.08461,19,0.0167085,10,-0.00168886,-2.14968,-0.180053,-0.327681,90.394,0.238384,
2,0,0,1,0,36657.8,0.22831,0.228009,-7.93513,19,0.0165128,10,-0.00180928,-2.10045,-0.24468,-0.241131,74.7082,0.228009,
2,0,0,1,0,36657.8,0.2179,0.217583,-8.66943,19,0.0162967,10,-0.00188632,-2.06201,-0.304328,-0.19387,65.4506,0.2175829,
2,0,0,1,0,36657.8,0.207504,0.207182,-9.29253,19,0.0160631,10,-0.00192525,-2.03187,-0.376865,-0.156555,56.7572,0.207182,
2,0,0,1,0,36657.9,0.197106,0.196749,-9.86641,19,0.0158137,10,-0.00194121,-2.00584,-0.41037,-0.143773,55.4485,0.196749,
2,0,0,1,0,36657.9,0.18671,0.186466,-10.4324,19,0.0155496,10,-0.00194529,-1.98162,-0.429862,-0.137253,55.9004,0.186466,
2,0,0,1,0,36657.9,0.1763,0.175977,-11.0183,19,0.0152707,10,-0.00193897,-1.95788,-0.43811,-0.134669,57.8627,0.1759768,
2,0,0,1,0,36658,0.165905,0.165567,-11.6568,19,0.0149762,10,-0.00192998,-1.93342,-0.416731,-0.141578,64.3832,0.1655668,
2,0,0,1,0,36658,0.155506,0.15518,-12.4262,19,0.0146636,10,-0.0019283,-1.90566,-0.329364,-0.179133,86.9621,0.1551801,
2,0,0,1,0,36658,0.145105,0.144781,-13.4898,19,0.0143273,10,-0.00195306,-1.87,-0.250044,-0.235959,124.435,0.1447807,
2,0,0,1,0,36658,0.134701,0.134379,-15.0694,19,0.0139573,10,-0.00202501,-1.82191,-0.19195,-0.307371,180.885,0.134379,
2,0,0,1,0,36658.1,0.124305,0.124006,-17.2935,19,0.0135378,10,-0.0021445,-1.76212,-0.165,-0.357577,241.643,0.124006,
2,0,0,1,0,36658.1,0.113906,0.11356,-19.9638,19,0.0130535,10,-0.00226709,-1.69976,-0.17551,-0.336162,261.911,0.11356,
2,0,0,1,0,36658.1,0.103505,0.103179,-22.6211,19,0.012499,10,-0.00233402,-1.64549,-0.210545,-0.280225,247.302,0.103179,
2,0,0,1,0,36658.1,0.0931008,0.0928335,-25.0641,19,0.011878,10,-0.00232679,-1.60095,-0.268989,-0.21934,214.36,0.0928335,
2,0,0,1,0,36658.2,0.0827051,0.0824415,-27.0541,19,0.0111991,10,-0.00223038,-1.56777,-0.371487,-0.158821,167.548,0.0824415,
2,0,0,1,0,36658.2,0.0723065,0.0720029,-28.5122,19,0.0104753,10,-0.00205296,-1.54497,-0.575924,-0.102444,113.877,0.07200288,
2,0,0,1,0,36658.2,0.0618997,0.0615982,-29.3891,19,0.00972118,10,-0.00181032,-1.53181,-1.25884,-0.0468684,53.7,0.0615982,
2,0,0,1,0,36658.2,0.0515011,0.0511648,-29.727,19,0.00895179,10,-0.00152098,-1.52685,-4.50855,-0.0130863,15.1752,0.0511648,
2,0,0,1,0,36658.3,0.0411053,0.0408004,-29.7421,19,0.00817814,10,-0.00121349,-1.52663,7.71115,0.00765126,-8.87943,0.0408004,
2,0,0,1,0,36658.3,0.0307068,0.0303777,-29.5751,19,0.00740663,10,-0.000898422,-1.52907,2.95911,0.0199384,-23.0126,0.0303777,
2,0,0,1,0,36658.3,0.0202999,0.0199443,-29.29,19,0.00664121,10,-0.000584169,-1.53328,1.96267,0.0300611,-34.3472,0.0199443,
2,0,0,1,0,36658.3,0.00990136,0.00959372,-28.8476,19,0.00588514,10,-0.000276756,-1.53989,1.37778,0.0428225,-48.2061,0.00959372,
2,0,0,1,0,36658.4,-0.000494411,-0.000845984,-28.2685,19,0.00514235,10,2.39147e-05,-1.5487,0.990024,0.0595945,-65.656,-0.000845984,
2,0,0,1,0,36658.4,-0.010893,-0.0112751,-27.4316,19,0.00441808,10,0.000309293,-1.56175,0.724308,0.0814571,-87.1727,-0.0112751,
2,0,0,1,0,36658.4,-0.0212998,-0.021665,-26.5034,19,0.00371693,10,0.000574194,-1.5767,0.70798,0.0833357,-86.2321,-0.021665,
2,0,0,1,0,36658.4,-0.0316984,-0.0320718,-25.6558,19,0.00303925,10,0.000822828,-1.59081,0.786111,0.075053,-75.1271,-0.0320718,
2,0,0,1,0,36658.5,-0.0420942,-0.0424776,-24.9719,19,0.00238164,10,0.00106074,-1.60255,1.03207,0.0571669,-55.7596,-0.0424776,
2,0,0,1,0,36658.5,-0.0524927,-0.0528664,-24.526,19,0.00173853,10,0.0012966,-1.61037,1.7726,0.0332845,-31.8926,-0.0528664,
2,0,0,1,0,36658.5,-0.0628996,-0.0632721,-24.3247,19,0.00110403,10,0.00153907,-1.61395,4.86933,0.0121167,-11.4986,-0.0632721,
2,0,0,1,0,36658.6,-0.0732982,-0.0736419,-24.2912,19,0.00047256,10,0.00178885,-1.61455,-10.4761,-0.00563186,5.33952,-0.0736419,
2,0,0,1,0,36658.6,-0.0836939,-0.0840975,-24.4327,19,-0.000160498,10,0.00205473,-1.61203,-2.64967,-0.0222669,21.2424,-0.0840975,
2,0,0,1,0,36658.6,-0.0940925,-0.0944831,-24.7298,19,-0.000799351,10,0.00233655,-1.60678,-1.55535,-0.0379336,36.6177,-0.0944831,
2,0,0,1,1,36658.6,-0.0978574,-0.0983101,-20.9702,19,-0.00129447,10,0.00206158,-1.6784,-0.0322818,-1.82766,1474.43,-0.0983101,
2,0,0,1,1,36658.6,-0.0874588,-0.0878778,-10.3196,19,-0.00168604,10,0.000906868,-1.98634,-0.0300698,-1.9621,785.499,-0.0878778,
2,0,0,1,1,36658.7,-0.077052,-0.0774721,-3.49033,19,-0.00185981,10,0.000270403,-2.45713,-0.0134629,-4.38243,556.728,-0.0774721,
2,1,0,1,1,36658.7,-0.0666562,-0.0670737,1.54931,19,-0.00188157,10,-0.000103918,-2.80986,0.0049562,11.9043,420.172,-0.0670737,
2,1,0,1,1,36658.7,-0.0562576,-0.0566902,5.4232,19,-0.00178846,10,-0.000307442,-2.26574,0.0372876,1.5823,329.432,-0.0566902,
2,1,0,1,1,36658.8,-0.0458563,-0.046224,8.51916,19,-0.00160526,10,-0.000393789,-2.0696,0.0739134,0.798231,263.424,-0.046224,
2,1,0,1,1,36658.8,-0.0354522,-0.0358786,10.9555,19,-0.00135073,10,-0.000393069,-1.96037,0.120863,0.488156,207.639,-0.0358786,
2,1,0,1,1,36658.8,-0.0250564,-0.0254252,12.8412,19,-0.00104017,10,-0.000326489,-1.8914,0.185176,0.318616,159.485,-0.0254252,
2,1,0,1,1,36658.8,-0.0146579,-0.015048,14.3211,19,-0.000685931,10,-0.000215504,-1.84402,0.259224,0.227602,127.102,-0.015048,
2,1,0,1,1,36658.9,-0.00425653,-0.00465178,15.4695,19,-0.000297828,10,-7.19608e-05,-1.81052,0.375008,0.15733,94.8569,-0.00465178,
2,1,0,0,1,36658.9,-7.54729e-05,-0.00042076,15.83,19,-0.000133324,10,-6.66064e-06,-1.80052, , , ,-0.00042076,