File: Figure_codes/Fig_3-5/rawdata_trumpetplot_data/after 10th/20221101_1-115_003_TrumpetPlot_ParaChange_from10_every3_05_CV_C01_8.csv
mode,ox/red,error,control changes,counter inc.,time/s,control/V,Ewe/V,<I>/mA,cycle number,(Q-Qo)/C,I Range,P/W,log(|I|),Tafel slope mV/dec,alpha_eff,dI/d(E-IR),E-IR/V,
2,0,0,1,0,16881.1,2.44065e-05,-0.000497109,-0.733518,9,0.0000000E+000,10,3.64639e-07,-3.13459, , , ,-0.000497109,
2,1,0,1,0,16881.4,0.00729063,0.00697211,0.761675,9,0.000187959,10,5.31048e-06,-3.11823,0.0657376,0.897507,26.353,0.00697211,
2,1,0,1,0,16881.8,0.0147802,0.0144754,0.900732,9,0.000508697,10,1.30385e-05,-3.0454,0.128222,0.460138,16.1373,0.0144754,
2,1,0,1,0,16882.2,0.0222725,0.0219359,1.00211,9,0.000872739,10,2.19822e-05,-2.99909,0.168056,0.351073,13.7313,0.0219359,
2,1,0,1,0,16882.5,0.0297644,0.0294707,1.10252,9,0.00127417,10,3.24921e-05,-2.95761,0.198896,0.296637,12.7366,0.0294707,
2,1,0,1,0,16882.9,0.0372544,0.0369127,1.19954,9,0.00171266,10,4.42781e-05,-2.92099,0.223521,0.263957,12.3805,0.03691268,
2,1,0,1,0,16883.3,0.0447449,0.0444254,1.29786,9,0.00218804,10,5.76581e-05,-2.88677,0.236698,0.249263,12.6204,0.0444254,
2,1,0,1,0,16883.7,0.0522363,0.0519166,1.38838,9,0.00269888,10,7.20797e-05,-2.85749,0.272476,0.216533,11.7234,0.0519166,
2,1,0,1,0,16884,0.0597291,0.0594101,1.47184,9,0.00324257,10,8.74419e-05,-2.83214,0.320535,0.184067,10.5648,0.0594101,
2,1,0,1,0,16884.4,0.0672182,0.0669224,1.55265,9,0.00381615,10,0.000103907,-2.80893,0.433361,0.136145,8.22013,0.0669224,
2,1,0,1,0,16884.8,0.0747092,0.074379,1.61433,9,0.00441614,10,0.000120072,-2.79201,0.497089,0.118691,7.48295,0.074379,
2,1,0,1,0,16885.2,0.0822001,0.0819218,1.67043,9,0.00503936,10,0.000136844,-2.77717,0.474823,0.124257,8.11029,0.0819218,
2,1,0,1,0,16885.5,0.0896911,0.0893828,1.74458,9,0.00568547,10,0.000155936,-2.75831,0.350537,0.168313,11.4735,0.0893828,
2,1,0,1,0,16885.9,0.097182,0.0968396,1.85687,9,0.00636565,10,0.000179819,-2.73122,0.210871,0.279792,20.2763,0.0968396,
2,1,0,1,0,16886.3,0.104673,0.104364,2.02718,9,0.00709834,10,0.000211565,-2.69311,0.192435,0.306596,24.1839,0.1043641,
2,1,0,1,0,16886.7,0.112164,0.111847,2.19063,9,0.00789644,10,0.000245016,-2.65943,0.267797,0.220316,18.811,0.111847,
2,1,0,1,0,16887,0.119655,0.119331,2.31177,9,0.00874873,10,0.000275866,-2.63606,0.493768,0.119489,10.7778,0.119331,
2,1,0,1,0,16887.4,0.127146,0.12686,2.38985,9,0.0096376,10,0.000303176,-2.62163,0.48525,0.121587,11.3739,0.12686,
2,1,0,1,0,16887.8,0.134637,0.13432,2.45984,9,0.0105569,10,0.000330406,-2.60909,5.29918,0.0111338,1.06853,0.13432,
2,1,0,1,0,16888.2,0.142128,0.141832,2.35065,9,0.0114747,10,0.000333396,-2.62881,-0.165597,-0.356287,-32.5389,0.141832,
2,1,0,1,0,16888.5,0.149619,0.149283,1.97166,9,0.012298,10,0.000294336,-2.70517,-0.0759025,-0.777313,-59.6978,0.149283,
2,1,0,1,0,16888.9,0.157108,0.156782,1.55389,9,0.0129608,10,0.000243623,-2.80858,-0.0780864,-0.755574,-45.8953,0.1567823,
2,1,0,1,0,16889.3,0.164601,0.164231,1.30248,9,0.0134979,10,0.000213908,-2.88523,-0.122773,-0.480562,-24.4407,0.1642307,
2,1,0,1,0,16889.7,0.172092,0.171743,1.16286,9,0.0139646,10,0.000199712,-2.93447,-0.18995,-0.310608,-14.1697,0.171743,
2,1,0,1,0,16890,0.179582,0.179241,1.089,9,0.0143928,10,0.000195193,-2.96297,-0.353963,-0.166684,-7.10499,0.179241,
2,1,0,1,0,16890.4,0.187073,0.186749,1.04527,9,0.0147991,10,0.000195203,-2.98077,-0.536267,-0.11002,-4.48571,0.186749,
2,1,0,1,0,16890.8,0.194564,0.194272,1.0167,9,0.0151922,10,0.000197516,-2.99281,-0.652365,-0.0904402,-3.5876,0.194272,
2,1,0,1,0,16891.2,0.202057,0.201721,0.998254,9,0.0155761,10,0.000201369,-3.00076,-0.689637,-0.0855522,-3.32107,0.201721,
2,1,0,1,0,16891.5,0.209546,0.209233,0.979885,9,0.0159532,10,0.000205024,-3.00883,-0.806878,-0.0731213,-2.794,0.209233,
2,1,0,1,0,16891.9,0.217037,0.216736,0.960751,9,0.0163243,10,0.000208229,-3.01739,-1.13222,-0.0521101,-1.96422,0.216736,
2,1,0,1,0,16892.3,0.224528,0.22419,0.952682,9,0.0166911,10,0.000213582,-3.02105,-1.81073,-0.0325836,-1.21333,0.22419,
2,1,0,1,0,16892.7,0.232019,0.231736,0.945976,9,0.0170536,10,0.000219217,-3.02412,-2.24948,-0.0262283,-0.967769,0.231736,
2,1,0,1,0,16893,0.23951,0.239209,0.934409,9,0.0174126,10,0.000223519,-3.02946,-1.44038,-0.0409615,-1.49474,0.2392087,
2,1,0,1,0,16893.4,0.247001,0.246735,0.925775,9,0.0177683,10,0.000228421,-3.03349,-0.999188,-0.059048,-2.13187,0.246735,
2,1,0,1,0,16893.8,0.254492,0.254131,0.91732,9,0.0181207,10,0.000233119,-3.03748,-1.81626,-0.0324843,-1.16385,0.254131,
2,1,0,1,0,16894.2,0.261983,0.261674,0.91082,9,0.0184699,10,0.000238338,-3.04057,-1.42874,-0.0412951,-1.46921,0.2616742,
2,1,0,1,0,16894.5,0.269474,0.269206,0.902886,9,0.0188162,10,0.000243062,-3.04437,-2.16416,-0.0272623,-0.958741,0.269206,
2,1,0,1,0,16894.9,0.276965,0.276654,0.89287,9,0.0191595,10,0.000247016,-3.04921,-1.49248,-0.0395315,-1.3771,0.276654,
2,1,0,1,0,16895.3,0.284456,0.284147,0.886011,9,0.0194993,10,0.000251757,-3.05256,-2.40751,-0.0245067,-0.846649,0.284147,
2,1,0,1,0,16895.7,0.291947,0.291651,0.874153,9,0.0198357,10,0.000254948,-3.05841,-1.0531,-0.0560252,-1.91031,0.291651,
2,1,0,1,0,16896,0.299436,0.299154,0.861897,9,0.0201686,10,0.00025784,-3.06454,-0.00221607,-26.6237,-406.62,0.299154,
2,0,0,1,0,16896.4,0.293745,0.293415,-0.220573,9,0.0201666,10,-6.47194e-05,-3.65645,-0.0253725,-2.32535,19.2746,0.293415,
2,0,0,1,0,16896.7,0.286254,0.285941,-0.313444,9,0.0200568,10,-8.96266e-05,-3.50384,-0.0713941,-0.826399,10.2155,0.285941,
2,0,0,1,0,16897.1,0.278763,0.278453,-0.376394,9,0.0199184,10,-0.000104808,-3.42436,-0.128266,-0.459981,6.80036,0.278453,
2,0,0,1,0,16897.5,0.271272,0.270988,-0.426164,9,0.0197604,10,-0.000115485,-3.37042,-0.153626,-0.38405,6.37386,0.270988,
2,0,0,1,0,16897.9,0.263781,0.26345,-0.465294,9,0.0195861,10,-0.000122581,-3.33227,-0.210211,-0.28067,5.10635,0.26345,
2,0,0,1,0,16898.2,0.25629,0.255962,-0.500549,9,0.0193981,10,-0.000128121,-3.30055,-0.34967,-0.168731,3.27419,0.255962,
2,0,0,1,0,16898.6,0.248799,0.248483,-0.529464,9,0.0191981,10,-0.000131563,-3.27616,-0.311322,-0.189514,3.91736,0.248483,
2,0,0,1,0,16899,0.241308,0.24104,-0.556987,9,0.0189871,10,-0.000134256,-3.25416,-0.336889,-0.175132,3.82295,0.24104,
2,0,0,1,0,16899.4,0.233817,0.233539,-0.583078,9,0.0187657,10,-0.000136171,-3.23427,-0.467325,-0.126251,2.88948,0.233539,
2,0,0,1,0,16899.7,0.226326,0.226062,-0.612339,9,0.0185344,10,-0.000138426,-3.21301,-0.387094,-0.152418,3.62623,0.226062,
2,0,0,1,0,16900.1,0.218835,0.218548,-0.637647,9,0.0182932,10,-0.000139357,-3.19542,-0.404998,-0.14568,3.614,0.218548,
2,0,0,1,0,16900.5,0.211344,0.211035,-0.663946,9,0.0180425,10,-0.000140116,-3.17787,-0.509135,-0.115883,2.99921,0.211035,
2,0,0,1,0,16900.9,0.203855,0.203492,-0.689301,9,0.0177816,10,-0.000140267,-3.16159,-0.463337,-0.127337,3.43627,0.203492,
2,0,0,1,0,16901.2,0.196362,0.196099,-0.718367,9,0.0175103,10,-0.000140871,-3.14365,-0.37392,-0.157788,4.43554,0.196099,
2,0,0,1,0,16901.6,0.188871,0.188531,-0.752811,9,0.017227,10,-0.000141928,-3.12331,-0.26463,-0.222953,6.55325,0.188531,
2,0,0,1,0,16902,0.18138,0.181034,-0.792306,9,0.0169307,10,-0.000143434,-3.10111,-0.305427,-0.193172,5.9687,0.181034,
2,0,0,1,0,16902.4,0.173891,0.173586,-0.843458,9,0.0166177,10,-0.000146413,-3.07394,-0.239489,-0.246358,8.07866,0.173586,
2,0,0,1,0,16902.7,0.166398,0.166046,-0.907604,9,0.0162832,10,-0.000150704,-3.0421,-0.223369,-0.264137,9.37805,0.166046,
2,0,0,1,0,16903.1,0.158906,0.158579,-1.00405,9,0.0159187,10,-0.000159221,-2.99824,-0.138529,-0.425904,16.7633,0.158579,
2,0,0,1,0,16903.5,0.151417,0.151143,-1.16735,9,0.0155066,10,-0.000176437,-2.9328,-0.101152,-0.583282,26.6501,0.151143,
2,0,0,1,0,16903.9,0.143926,0.143607,-1.43126,9,0.015016,10,-0.000205539,-2.84428,-0.0709479,-0.831597,46.6221,0.143607,
2,0,0,1,0,16904.2,0.136435,0.136078,-1.81499,9,0.0144023,10,-0.000246979,-2.74113,-0.0780739,-0.755694,53.4212,0.136078,
2,0,0,1,0,16904.6,0.128942,0.128596,-2.18967,9,0.0136426,10,-0.000281582,-2.65962,-0.119983,-0.491737,41.8359,0.128596,
2,0,0,1,0,16905,0.121453,0.121148,-2.42598,9,0.0127664,10,-0.000293902,-2.61511,-0.258279,-0.228435,21.5729,0.121148,
2,0,0,1,0,16905.4,0.113962,0.113665,-2.50443,9,0.0118296,10,-0.000284667,-2.60129,-5.11631,-0.0115318,1.12849,0.113665,
2,0,0,1,0,16905.7,0.106471,0.106159,-2.46536,9,0.0108871,10,-0.000261722,-2.60812,0.517342,0.114045,-10.9896,0.106159,
2,0,0,1,0,16906.1,0.0989799,0.0986623,-2.36088,9,0.00997492,10,-0.00023293,-2.62693,0.350494,0.168334,-15.46,0.0986623,
2,0,0,1,0,16906.5,0.0914889,0.0911485,-2.23826,9,0.00910808,10,-0.000204014,-2.65009,0.358385,0.164628,-14.3489,0.0911485,
2,0,0,1,0,16906.9,0.083998,0.0837012,-2.13761,9,0.0082832,10,-0.000178921,-2.67007,0.396339,0.148862,-12.4058,0.0837012,
2,0,0,1,0,16907.2,0.076507,0.0761352,-2.06398,9,0.00749,10,-0.000157141,-2.68529,0.500887,0.117791,-9.47549,0.0761352,
2,0,0,1,0,16907.6,0.0690161,0.0686944,-1.99279,9,0.00672244,10,-0.000136893,-2.70054,0.586227,0.100644,-7.85666,0.06869442,
2,0,0,1,0,16908,0.0615251,0.0611792,-1.9373,9,0.00597749,10,-0.000118522,-2.7128,0.575878,0.102452,-7.76089,0.0611792,
2,0,0,1,0,16908.4,0.0540342,0.0537233,-1.87761,9,0.00525622,10,-0.000100871,-2.7264,0.615847,0.095803,-7.01151,0.0537233,
2,0,0,1,0,16908.7,0.0465432,0.0462258,-1.80793,9,0.00455835,10,-8.35732e-05,-2.74282,0.496153,0.118915,-8.38902,0.0462258,
2,0,0,1,0,16909.1,0.0390523,0.0387336,-1.73896,9,0.00388681,10,-6.73561e-05,-2.75971,0.370329,0.159318,-10.7789,0.0387336,
2,0,0,1,0,16909.5,0.0315626,0.0312392,-1.66143,9,0.00324323,10,-5.19019e-05,-2.77952,0.390057,0.15126,-9.81274,0.0312392,
2,0,0,1,0,16909.9,0.0240704,0.023747,-1.58798,9,0.00262707,10,-3.77097e-05,-2.79916,0.428161,0.137799,-8.56782,0.023747,
2,0,0,1,0,16910.2,0.0165785,0.0162835,-1.53262,9,0.00203499,10,-2.49565e-05,-2.81457,0.579939,0.101735,-6.09267,0.0162835,
2,0,0,1,0,16910.6,0.00908845,0.00877747,-1.49445,9,0.00146142,10,-1.31175e-05,-2.82552,1.1681,0.0505094,-2.9459,0.00877747,
2,0,0,1,0,16911,0.0015984,0.00123481,-1.49552,9,0.000897892,10,-1.84668e-06,-2.82521, , , ,0.00123481,
2,0,0,1,0,16911.1,0.000199195,-0.000172625,-1.47948,9,0.000792527,10,2.55395e-07,-2.82989, , , ,-0.000172625,