File: Figure_codes/Fig_3-5/rawdata_trumpetplot_data/after 10th/20221101_1-115_003_TrumpetPlot_ParaChange_from10_every3_11_CV_C01_2.csv
mode,ox/red,error,control changes,counter inc.,time/s,control/V,Ewe/V,<I>/mA,cycle number,(Q-Qo)/C,I Range,P/W,log(|I|),Tafel slope mV/dec,alpha_eff,dI/d(E-IR),E-IR/V,
2,1,0,1,0,5134.78,2.44065e-05,-0.000306236,10.1846,3,0.0000000E+000,10,-3.11889e-06,-1.99206, , , ,-0.000306236,
2,1,0,1,0,5134.81,0.0101427,0.00983125,14.8938,3,0.00032544,10,0.000146425,-1.82699,0.112036,0.526616,303.812,0.00983125,
2,1,0,1,0,5134.83,0.0205441,0.0202497,17.2598,3,0.000746383,10,0.000349507,-1.76296,0.225272,0.261905,175.97,0.0202497,
2,1,0,1,0,5134.86,0.0309482,0.0306057,18.7914,3,0.00121609,10,0.000575124,-1.72604,0.34276,0.172132,125.956,0.0306057,
2,1,0,1,0,5134.88,0.0413439,0.0409977,20.0113,3,0.00172066,10,0.000820416,-1.69872,0.411729,0.143298,111.886,0.0409977,
2,1,0,1,0,5134.91,0.0517425,0.0513854,21.22,3,0.00225674,10,0.0010904,-1.67325,0.394226,0.14966,124.082,0.0513854,
2,1,0,1,0,5134.94,0.0621438,0.0618124,22.5683,3,0.00282582,10,0.001395,-1.6465,0.382568,0.154221,135.769,0.0618124,
2,1,0,1,0,5134.96,0.0725479,0.072215,24.0006,3,0.00343115,10,0.0017332,-1.61978,0.403371,0.146267,136.913,0.072215,
2,1,0,1,0,5134.99,0.0829437,0.0826228,25.4918,3,0.00407422,10,0.00210621,-1.5936,0.392893,0.150168,149.456,0.0826228,
2,1,0,1,0,5135.01,0.0933422,0.0930435,27.0439,3,0.00475742,10,0.00251625,-1.56793,0.423411,0.139345,146.996,0.0930435,
2,1,0,1,0,5135.04,0.103749,0.103429,28.562,3,0.00548027,10,0.00295414,-1.54421,0.446234,0.132218,147.339,0.103429,
2,1,0,1,0,5135.07,0.114148,0.11384,30.1428,3,0.00624314,10,0.00343146,-1.52082,0.428453,0.137705,162.028,0.11384,
2,1,0,1,0,5135.09,0.124543,0.124216,31.9813,3,0.00705007,10,0.0039726,-1.4951,0.375683,0.157047,196.072,0.124216,
2,1,0,1,0,5135.12,0.134942,0.134611,34.1749,3,0.00790971,10,0.00460034,-1.46629,0.352744,0.16726,223.092,0.134611,
2,1,0,1,0,5135.14,0.145349,0.145011,36.5301,3,0.00882898,10,0.00529725,-1.43735,0.378349,0.155941,222.148,0.1450108,
2,1,0,1,0,5135.17,0.155747,0.155426,38.7014,3,0.00980771,10,0.0060152,-1.41227,0.454813,0.129724,195.84,0.1554261,
2,1,0,1,0,5135.2,0.166143,0.165815,40.4712,3,0.0108386,10,0.00671072,-1.39285,0.694379,0.0849681,134.043,0.165815,
2,1,0,1,0,5135.22,0.176542,0.176192,41.1614,3,0.0119036,10,0.00725231,-1.38551,-3.08715,-0.0191115,-30.6108,0.176192,
2,1,0,1,0,5135.25,0.186949,0.186635,39.4039,3,0.0129575,10,0.00735415,-1.40446,-0.279238,-0.211289,-323.529,0.186635,
2,1,0,1,0,5135.27,0.197347,0.19706,34.501,3,0.0139233,10,0.00679876,-1.46217,-0.137753,-0.428301,-574.959,0.1970598,
2,1,0,1,0,5135.3,0.207743,0.207424,28.4051,3,0.0147395,10,0.0058919,-1.5466,-0.119443,-0.493961,-547.912,0.207424,
2,1,0,1,0,5135.33,0.218141,0.217833,23.5814,3,0.0154108,10,0.00513681,-1.62743,-0.147434,-0.40018,-369.744,0.217833,
2,1,0,1,0,5135.35,0.228548,0.228215,20.5878,3,0.0159813,10,0.00469844,-1.68639,-0.217375,-0.27142,-218.435,0.228215,
2,1,0,1,0,5135.38,0.238947,0.238653,18.7787,3,0.0164908,10,0.0044816,-1.72633,-0.319285,-0.184788,-135.497,0.2386532,
2,1,0,1,0,5135.4,0.249343,0.249025,17.6251,3,0.016963,10,0.00438909,-1.75387,-0.441746,-0.133561,-92.057,0.249025,
2,1,0,1,0,5135.43,0.259741,0.259435,16.8321,3,0.0174105,10,0.00436683,-1.77386,-0.596099,-0.0989768,-65.0662,0.259435,
2,1,0,1,0,5135.46,0.270148,0.269858,16.2479,3,0.0178402,10,0.00438462,-1.7892,-0.73025,-0.0807942,-51.213,0.269858,
2,1,0,1,0,5135.48,0.280547,0.28022,15.7527,3,0.0182559,10,0.00441423,-1.80264,-0.818898,-0.0720481,-44.3009,0.28022,
2,1,0,1,0,5135.51,0.290942,0.290651,15.3351,3,0.0186599,10,0.00445716,-1.81431,-0.921147,-0.0640506,-38.3514,0.290651,
2,1,0,0,0,5135.53,0.300012,0.299708,15.0089,3,0.0190043,10,0.00449829,-1.82365,0.000945685,62.3886,30150.8,0.299708,
2,1,0,1,0,5135.55,0.290704,0.290424,1.15687,3,0.0191569,10,0.000335985,-2.93671,0.0101481,5.81388,794.482,0.290424,
2,0,0,1,0,5135.58,0.280305,0.280012,-3.89378,3,0.0191102,10,-0.00109031,-2.40963,-0.0284576,-2.07326,299.988,0.280012,
2,0,0,1,0,5135.61,0.269909,0.269627,-6.0917,3,0.0189769,10,-0.00164248,-2.21526,-0.0906115,-0.651132,153.21,0.269627,
2,0,0,1,0,5135.63,0.2595,0.259188,-7.34532,3,0.0188009,10,-0.00190382,-2.13399,-0.172869,-0.341299,97.503,0.259188,
2,0,0,1,0,5135.66,0.249104,0.248807,-8.21601,3,0.018598,10,-0.0020442,-2.08534,-0.256998,-0.229574,73.575,0.248807,
2,0,0,1,0,5135.68,0.238705,0.23841,-8.92094,3,0.0183748,10,-0.00212685,-2.04959,-0.327055,-0.180398,62.7994,0.23841,
2,0,0,1,0,5135.71,0.22831,0.227994,-9.53857,3,0.0181345,10,-0.00217474,-2.02052,-0.391872,-0.150559,56.0516,0.227994,
2,0,0,1,0,5135.74,0.2179,0.217555,-10.1192,3,0.0178789,10,-0.00220148,-1.99485,-0.425241,-0.138745,54.7322,0.217555,
2,0,0,1,0,5135.76,0.207504,0.207196,-10.6711,3,0.0176086,10,-0.002211,-1.97179,-0.451626,-0.130639,54.45,0.207196,
2,0,0,1,0,5135.79,0.197106,0.196834,-11.256,3,0.0173234,10,-0.00221555,-1.94862,-0.440026,-0.134083,58.9297,0.196834,
2,0,0,1,0,5135.81,0.18671,0.186375,-11.9076,3,0.0170224,10,-0.00221928,-1.92418,-0.408597,-0.144397,67.1542,0.186375,
2,0,0,1,0,5135.84,0.1763,0.17596,-12.7007,3,0.0167027,10,-0.00223482,-1.89617,-0.342085,-0.172472,85.5722,0.17596,
2,0,0,1,0,5135.87,0.165905,0.165608,-13.7622,3,0.0163594,10,-0.00227914,-1.86131,-0.265806,-0.221966,119.251,0.165608,
2,0,0,1,0,5135.89,0.155506,0.155203,-15.2479,3,0.0159834,10,-0.00236652,-1.81679,-0.205398,-0.287248,171.231,0.155203,
2,0,0,1,0,5135.92,0.145105,0.144807,-17.4423,3,0.01556,10,-0.00252576,-1.7584,-0.157277,-0.375133,256.149,0.144807,
2,0,0,1,0,5135.94,0.134701,0.134407,-20.6245,3,0.015067,10,-0.00277207,-1.68562,-0.133306,-0.442591,356.427,0.134407,
2,0,0,1,0,5135.97,0.124305,0.124011,-24.6563,3,0.0144794,10,-0.00305764,-1.60807,-0.139517,-0.422889,406.521,0.124011,
2,0,0,1,0,5136,0.113906,0.113674,-28.7987,3,0.013783,10,-0.00327365,-1.54063,-0.169146,-0.34881,392.525,0.113674,
2,0,0,1,0,5136.02,0.103505,0.103287,-32.6877,3,0.0129815,10,-0.00337622,-1.48562,-0.222799,-0.264812,337.2,0.103287,
2,0,0,1,0,5136.05,0.0931008,0.0928484,-35.7114,3,0.0120902,10,-0.00331575,-1.44719,-0.330058,-0.178757,248.699,0.0928484,
2,0,0,1,0,5136.07,0.0827051,0.0824352,-37.7959,3,0.0111321,10,-0.00311571,-1.42256,-0.615569,-0.0958463,141.113,0.0824352,
2,0,0,1,0,5136.1,0.0723065,0.0719955,-38.6183,3,0.0101358,10,-0.00278034,-1.41321,-4.81886,-0.0122436,18.4285,0.0719955,
2,0,0,1,0,5136.13,0.0618996,0.0615854,-38.2025,3,0.0091346,10,-0.00235272,-1.41791,0.974977,0.0605142,-90.1296,0.0615854,
2,0,0,1,0,5136.15,0.0515011,0.0511786,-36.9961,3,0.00815639,10,-0.00189341,-1.43184,0.646116,0.0913148,-131.754,0.0511786,
2,0,0,1,0,5136.18,0.0411053,0.0407845,-35.6239,3,0.00721269,10,-0.0014529,-1.44826,0.645002,0.0914726,-127.244,0.0407845,
2,0,0,1,0,5136.2,0.0307068,0.0303862,-34.3564,3,0.00630301,10,-0.00104396,-1.46399,0.666933,0.0884647,-118.641,0.03038617,
2,0,0,1,0,5136.23,0.0202999,0.0199687,-33.0932,3,0.00542629,10,-0.000660829,-1.48026,0.584141,0.101003,-130.288,0.0199687,
2,0,0,1,0,5136.26,0.00990136,0.00957569,-31.5831,3,0.0045852,10,-0.00030243,-1.50055,0.460651,0.12808,-157.832,0.00957569,
2,0,0,1,0,5136.28,-0.000494411,-0.000850225,-29.8223,3,0.00378668,10,2.53557e-05,-1.52546,0.381589,0.154617,-179.685,-0.000850225,
2,0,0,1,0,5136.31,-0.010893,-0.0112592,-27.8882,3,0.00303718,10,0.000313998,-1.55458,0.37395,0.157775,-171.757,-0.01125918,
2,0,0,1,0,5136.33,-0.0212998,-0.0216692,-26.319,3,0.00233371,10,0.000570311,-1.57973,0.491882,0.119948,-123.393,-0.0216692,
2,0,0,1,0,5136.36,-0.0316984,-0.0320728,-25.3524,3,0.00166324,10,0.000813125,-1.59598,0.896521,0.06581,-65.1653,-0.0320728,
2,0,0,1,0,5136.39,-0.0420942,-0.0424383,-24.9044,3,0.00101096,10,0.0010569,-1.60372,2.44495,0.0241314,-23.4675,-0.0424383,
2,0,0,1,0,5136.41,-0.0524927,-0.0528155,-24.8401,3,0.000364905,10,0.00131194,-1.60485,-6.61661,-0.00891696,8.65353,-0.0528155,
2,0,0,1,0,5136.44,-0.0628996,-0.0632499,-25.0855,3,-0.000283579,10,0.00158666,-1.60058,-1.71059,-0.034491,33.7657,-0.0632499,
2,0,0,1,0,5136.46,-0.0732982,-0.0736164,-25.5196,3,-0.000940991,10,0.00187866,-1.59313,-1.11202,-0.0530568,52.8454,-0.0736164,
2,0,0,1,0,5136.49,-0.0836939,-0.0840741,-26.1344,3,-0.00161219,10,0.00219723,-1.58279,-0.905749,-0.0651395,66.4446,-0.08407414,
2,0,0,1,0,5136.52,-0.0940925,-0.0944354,-26.8965,3,-0.00230142,10,0.00253999,-1.5703,-0.730652,-0.0807498,84.833,-0.0944354,
2,0,0,1,1,5136.54,-0.0978574,-0.0982741,-21.9025,3,-0.00284043,10,0.00215245,-1.65951,-0.0221688,-2.6614,2191.46,-0.0982741,
2,0,0,1,1,5136.56,-0.0874588,-0.0878407,-6.08555,3,-0.00318033,10,0.000534559,-2.2157,-0.0115292,-5.11745,1122.54,-0.0878407,
2,1,0,1,1,5136.59,-0.077052,-0.0774869,3.08038,3,-0.00320909,10,-0.000238689,-2.5114,0.00735995,8.01636,701.588,-0.0774869,
2,1,0,1,1,5136.62,-0.0666562,-0.0670631,9.03936,3,-0.0030459,10,-0.000606207,-2.04386,0.0433478,1.36108,470.473,-0.0670631,
2,1,0,1,1,5136.64,-0.0562576,-0.0566457,13.0628,3,-0.00275479,10,-0.000739952,-1.88396,0.0954569,0.61808,313.049,-0.0566457,
2,1,0,1,1,5136.67,-0.0458563,-0.0462473,15.7328,3,-0.0023777,10,-0.0007276,-1.80319,0.174399,0.338305,207.041,-0.0462473,
2,1,0,1,1,5136.69,-0.0354522,-0.0357822,17.4915,3,-0.00194414,10,-0.000625884,-1.75717,0.298043,0.197958,134.705,-0.0357822,
2,1,0,1,1,5136.72,-0.0250564,-0.0254273,18.5762,3,-0.00147411,10,-0.000472341,-1.73104,0.529983,0.111324,80.6111,-0.0254273,
2,1,0,1,1,5136.75,-0.0146579,-0.0150268,19.2049,3,-0.000981999,10,-0.000288589,-1.71659,0.968738,0.060904,45.6422,-0.0150268,
2,1,0,1,1,5136.77,-0.00425653,-0.00462315,19.5392,3,-0.000477667,10,-9.03326e-05,-1.70909,1.98954,0.0296551,22.6112,-0.00462315,
2,1,0,0,1,5136.78,-7.54729e-05,-0.000478022,19.6227,3,-0.000271949,10,-9.38008e-06,-1.70724, , , ,-0.000478022,