File: Figure_codes/Fig_3-5/rawdata_trumpetplot_data/after 10th/20221101_1-115_003_TrumpetPlot_ParaChange_from10_every3_07_CV_C01_0.csv
mode,ox/red,error,control changes,counter inc.,time/s,control/V,Ewe/V,<I>/mA,cycle number,(Q-Qo)/C,I Range,P/W,log(|I|),Tafel slope mV/dec,alpha_eff,dI/d(E-IR),E-IR/V,
2,0,0,1,0,1165.02,2.44065e-05,-0.000248974,-2.63525,1,0.0000000E+000,10,6.5611e-07,-2.57918, , , ,-0.000248974,
2,1,0,1,0,1165.14,0.007288,0.00699617,1.98948,1,9.45706e-05,10,1.39187e-05,-2.70126,0.0353603,1.66854,124.52,0.00699617,
2,1,0,1,0,1165.26,0.0147816,0.0144632,2.41149,1,0.000377968,10,3.48779e-05,-2.61771,0.148645,0.396918,37.4953,0.0144632,
2,1,0,1,0,1165.39,0.0222712,0.0220004,2.64081,1,0.00069659,10,5.80988e-05,-2.57826,0.245949,0.239887,24.6845,0.0220004,
2,1,0,1,0,1165.51,0.0297648,0.0294479,2.84668,1,0.0010406,10,8.38286e-05,-2.54566,0.236945,0.249003,27.516,0.0294479,
2,1,0,1,0,1165.64,0.0372518,0.0369612,3.06017,1,0.00141039,10,0.000113108,-2.51425,0.20861,0.282824,33.7981,0.0369612,
2,1,0,1,0,1165.76,0.0447467,0.0444571,3.31293,1,0.00181059,10,0.000147284,-2.47979,0.20787,0.283832,36.8405,0.04445713,
2,1,0,1,0,1165.89,0.052235,0.0519051,3.61156,1,0.00224498,10,0.000187458,-2.4423,0.210531,0.280243,39.5669,0.0519051,
2,1,0,1,0,1166.01,0.0597299,0.0594019,3.93399,1,0.00271795,10,0.000233686,-2.40517,0.206075,0.286303,43.8221,0.0594019,
2,1,0,1,0,1166.14,0.0672156,0.0669793,4.24872,1,0.00322994,10,0.000284576,-2.37174,0.225678,0.261435,43.2691,0.0669793,
2,1,0,1,0,1166.26,0.0747105,0.074434,4.531,1,0.00378041,10,0.00033726,-2.34381,0.28734,0.205332,36.3175,0.07443402,
2,1,0,1,0,1166.39,0.0821988,0.0819188,4.7957,1,0.00436528,10,0.000392858,-2.31915,0.366083,0.161166,30.2107,0.0819188,
2,1,0,1,0,1166.51,0.0896937,0.0893637,5.06273,1,0.00498246,10,0.000452425,-2.29562,0.337638,0.174743,34.4726,0.0893637,
2,1,0,1,0,1166.64,0.0971794,0.0968819,5.32394,1,0.00563198,10,0.000515793,-2.27377,0.274275,0.215112,44.7189,0.0968819,
2,1,0,1,0,1166.76,0.104674,0.104401,5.7008,1,0.00632122,10,0.000595167,-2.24406,0.218499,0.270024,60.141,0.104401,
2,1,0,1,0,1166.89,0.112163,0.111875,6.20064,1,0.00706467,10,0.000693699,-2.20756,0.195964,0.301076,72.8685,0.111875,
2,1,0,1,0,1167.01,0.119657,0.119322,6.78893,1,0.00787739,10,0.000810067,-2.1682,0.207703,0.284059,75.1561,0.119322,
2,1,0,1,0,1167.14,0.127143,0.126804,7.3147,1,0.00876037,10,0.000927533,-2.1358,0.250016,0.235985,67.3945,0.126804,
2,1,0,1,0,1167.26,0.134638,0.134299,7.76514,1,0.00970621,10,0.00104285,-2.10985,0.337112,0.175016,53.1104,0.134299,
2,1,0,1,0,1167.39,0.142126,0.14185,8.09339,1,0.0107003,10,0.00114805,-2.09187,0.670892,0.0879426,27.7463,0.14185,
2,1,0,1,0,1167.51,0.149621,0.149336,8.07789,1,0.0117175,10,0.00120632,-2.0927,-0.4015,-0.146949,-46.0969,0.1493358,
2,1,0,1,0,1167.64,0.157107,0.156784,7.27616,1,0.0126865,10,0.00114079,-2.1381,-0.101522,-0.581153,-164.083,0.156784,
2,1,0,1,0,1167.76,0.164602,0.164301,5.76871,1,0.013506,10,0.000947806,-2.23892,-0.065981,-0.894197,-201.667,0.164301,
2,1,0,1,0,1167.89,0.17209,0.171824,4.51973,1,0.0141446,10,0.000776598,-2.34489,-0.0816353,-0.722727,-128.365,0.1718242,
2,1,0,1,0,1168.01,0.179585,0.179288,3.82683,1,0.0146641,10,0.000686102,-2.41716,-0.12308,-0.479362,-71.6557,0.179288,
2,1,0,1,0,1168.14,0.187072,0.186785,3.40104,1,0.0151145,10,0.000635265,-2.46839,-0.184817,-0.319234,-42.2544,0.186785,
2,1,0,1,0,1168.26,0.194566,0.19428,3.11377,1,0.0155218,10,0.000604945,-2.50671,-0.262785,-0.224518,-27.328,0.19428,
2,1,0,1,0,1168.39,0.202055,0.201794,2.9283,1,0.0159003,10,0.000590914,-2.53338,-0.29672,-0.198841,-22.7407,0.201794,
2,1,0,1,0,1168.51,0.209549,0.209228,2.81364,1,0.0162603,10,0.000588693,-2.55073,-0.364604,-0.161819,-17.7431,0.2092278,
2,1,0,1,0,1168.64,0.217036,0.216743,2.71237,1,0.0166067,10,0.000587888,-2.56665,-0.800747,-0.0736812,-7.80415,0.216743,
2,1,0,1,0,1168.76,0.224529,0.224269,2.64639,1,0.0169438,10,0.000593505,-2.57735,-0.955184,-0.0617682,-6.39989,0.224269,
2,1,0,1,0,1168.88,0.232019,0.231714,2.5991,1,0.0172734,10,0.000602247,-2.58518,-0.798268,-0.07391,-7.5093,0.231714,
2,1,0,1,0,1169.01,0.239513,0.23921,2.564,1,0.0175977,10,0.000613335,-2.59108,-1.03304,-0.0571131,-5.69922,0.23921,
2,1,0,1,0,1169.13,0.247001,0.246716,2.52989,1,0.0179169,10,0.000624163,-2.5969,-1.69982,-0.0347095,-3.41109,0.2467158,
2,1,0,1,0,1169.26,0.254493,0.254186,2.4844,1,0.0182322,10,0.0006315,-2.60478,-1.23857,-0.0476356,-4.64479,0.254186,
2,1,0,1,0,1169.38,0.261983,0.261747,2.45553,1,0.0185436,10,0.000642728,-2.60986,-1.10288,-0.0534965,-5.14708,0.261747,
2,1,0,1,0,1169.51,0.269477,0.269216,2.43935,1,0.0188516,10,0.000656713,-2.61273,-1.3597,-0.0433919,-4.12113,0.269216,
2,1,0,1,0,1169.63,0.276965,0.276677,2.41706,1,0.0191562,10,0.000668744,-2.61671,-1.49862,-0.0393696,-3.70057,0.276677,
2,1,0,1,0,1169.76,0.284457,0.284172,2.38106,1,0.0194578,10,0.00067663,-2.62323,-2.66386,-0.0221483,-2.06443,0.284172,
2,1,0,1,0,1169.88,0.291947,0.291628,2.3533,1,0.0197558,10,0.000686288,-2.62832,-1.09243,-0.0540082,-4.97147,0.291628,
2,1,0,1,0,1170.01,0.29944,0.299191,2.33766,1,0.020051,10,0.000699408,-2.63122,-0.00390905,-15.0932,-851.163,0.299191,
2,0,0,1,0,1170.12,0.293742,0.29345,-0.824889,1,0.0200502,10,-0.000242063,-3.0836,-0.0319423,-1.84708,56.1929,0.29345,
2,0,0,1,0,1170.25,0.286254,0.285976,-1.06549,1,0.0199285,10,-0.000304705,-2.97245,-0.084553,-0.697788,29.001,0.285976,
2,0,0,1,0,1170.37,0.278761,0.278458,-1.21464,1,0.0197826,10,-0.000338227,-2.91555,-0.16655,-0.354248,16.943,0.278458,
2,0,0,1,0,1170.5,0.271272,0.270931,-1.34319,1,0.01962,10,-0.000363913,-2.87186,-0.228575,-0.258121,13.5018,0.270931,
2,0,0,1,0,1170.62,0.263778,0.263459,-1.44617,1,0.0194438,10,-0.000381007,-2.83978,-0.252897,-0.233297,13.0978,0.263459,
2,0,0,1,0,1170.75,0.25629,0.255994,-1.5318,1,0.0192564,10,-0.000392132,-2.8148,-0.315211,-0.187176,11.1092,0.255994,
2,0,0,1,0,1170.87,0.248797,0.248467,-1.60046,1,0.0190588,10,-0.000397663,-2.79575,-0.333539,-0.176891,11.0781,0.248467,
2,0,0,1,0,1171,0.241308,0.24099,-1.67835,1,0.0188518,10,-0.000404465,-2.77512,-0.451163,-0.130773,8.55966,0.2409897,
2,0,0,1,0,1171.12,0.233814,0.233492,-1.75249,1,0.0186358,10,-0.000409192,-2.75635,-0.378015,-0.156078,10.6384,0.233492,
2,0,0,1,0,1171.25,0.226326,0.226065,-1.81896,1,0.0184111,10,-0.000411203,-2.74018,-0.369412,-0.159713,11.3209,0.226065,
2,0,0,1,0,1171.37,0.218834,0.218582,-1.8892,1,0.0181772,10,-0.000412945,-2.72372,-0.384949,-0.153267,11.311,0.218582,
2,0,0,1,0,1171.5,0.211344,0.211062,-1.96909,1,0.0179342,10,-0.000415599,-2.70574,-0.631634,-0.0934085,7.18414,0.211062,
2,0,0,1,0,1171.62,0.203856,0.203526,-2.06457,1,0.0176806,10,-0.000420193,-2.68517,-0.487451,-0.121038,9.71857,0.203526,
2,0,0,1,0,1171.75,0.196362,0.196054,-2.15749,1,0.0174155,10,-0.000422985,-2.66605,-0.290413,-0.203159,17.1041,0.196054,
2,0,0,1,0,1171.87,0.18887,0.188569,-2.2687,1,0.0171362,10,-0.000427808,-2.64422,-0.223922,-0.263485,23.5279,0.188569,
2,0,0,1,0,1171.99,0.18138,0.181101,-2.44485,1,0.0168394,10,-0.000442765,-2.61175,-0.223675,-0.263775,25.2183,0.181101,
2,0,0,1,0,1172.12,0.173892,0.173575,-2.67895,1,0.0165186,10,-0.000465,-2.57203,-0.172858,-0.34132,35.5505,0.173575,
2,0,0,1,0,1172.24,0.166398,0.166116,-2.99867,1,0.0161635,10,-0.000498127,-2.52307,-0.130074,-0.453588,53.1767,0.166116,
2,0,0,1,0,1172.37,0.158905,0.15858,-3.49114,1,0.0157576,10,-0.000553623,-2.45703,-0.097134,-0.607409,83.2059,0.15858,
2,0,0,1,0,1172.49,0.151417,0.151136,-4.26164,1,0.0152736,10,-0.000644088,-2.37042,-0.0834763,-0.706788,118.037,0.151136,
2,0,0,1,0,1172.62,0.143927,0.14361,-5.32575,1,0.0146752,10,-0.000764832,-2.27362,-0.0772197,-0.764053,158.605,0.14361,
2,0,0,1,0,1172.74,0.136435,0.136158,-6.49907,1,0.0139345,10,-0.000884897,-2.18715,-0.097141,-0.607365,153.6,0.136158,
2,0,0,1,0,1172.87,0.128941,0.128653,-7.47835,1,0.0130558,10,-0.000962114,-2.12619,-0.159631,-0.369603,107.669,0.128653,
2,0,0,1,0,1172.99,0.121453,0.121144,-8.07894,1,0.012078,10,-0.000978718,-2.09265,-0.396541,-0.148787,46.8229,0.121144,
2,0,0,1,0,1173.12,0.113963,0.113651,-8.24915,1,0.0110521,10,-0.000937521,-2.08359,2.95636,0.019957,-6.41429,0.113651,
2,0,0,1,0,1173.24,0.106471,0.106172,-8.03634,1,0.0100294,10,-0.000853235,-2.09494,0.36848,0.160117,-50.1334,0.106172,
2,0,0,1,0,1173.37,0.0989825,0.0986833,-7.52587,1,0.00905359,10,-0.000742677,-2.12344,0.231448,0.254916,-74.8837,0.0986833,
2,0,0,1,0,1173.49,0.0914889,0.0912213,-6.93298,1,0.00814856,10,-0.000632436,-2.15908,0.205218,0.287499,-77.7733,0.0912213,
2,0,0,1,0,1173.62,0.0839993,0.0837179,-6.42809,1,0.00731474,10,-0.000538147,-2.19192,0.256178,0.230308,-57.7457,0.0837179,
2,0,0,1,0,1173.74,0.076507,0.0761802,-6.09298,1,0.00653257,10,-0.000464164,-2.21517,0.38341,0.153882,-36.5624,0.0761802,
2,0,0,1,0,1173.87,0.0690187,0.0687376,-5.82339,1,0.00578711,10,-0.000400286,-2.23482,0.43996,0.134103,-30.5669,0.0687376,
2,0,0,1,0,1173.99,0.0615251,0.0611874,-5.59973,1,0.00507023,10,-0.000342633,-2.25183,0.412044,0.143189,-31.3726,0.0611874,
2,0,0,1,0,1174.12,0.0540355,0.0537328,-5.35947,1,0.00438357,10,-0.000287979,-2.27088,0.333949,0.176674,-36.9128,0.0537328,
2,0,0,1,0,1174.24,0.0465432,0.0462831,-5.06838,1,0.00373002,10,-0.000234581,-2.29513,0.283989,0.207755,-41.0194,0.0462831,
2,0,0,1,0,1174.37,0.0390549,0.0386974,-4.73681,1,0.00311643,10,-0.000183302,-2.32451,0.255728,0.230713,-42.5982,0.03869744,
2,0,0,1,0,1174.49,0.0315613,0.0312407,-4.41669,1,0.00254297,10,-0.00013798,-2.3549,0.264352,0.223187,-38.532,0.0312407,
2,0,0,1,0,1174.62,0.0240717,0.023766,-4.1903,1,0.00200411,10,-9.95865e-05,-2.37775,0.325008,0.181534,-29.7062,0.023766,
2,0,0,1,0,1174.74,0.0165781,0.0163148,-4.04496,1,0.00148873,10,-6.59928e-05,-2.39309,0.851095,0.0693225,-10.955,0.0163148,
2,0,0,1,0,1174.87,0.00909108,0.00878887,-3.97005,1,0.000986828,10,-3.48923e-05,-2.4012,7.53027,0.00783504,-1.21561,0.00878887,
2,0,0,1,0,1174.99,0.00159616,0.00124138,-4.00312,1,0.000488969,10,-4.9694e-06,-2.3976, , , ,0.001241384,
2,0,0,0,0,1175.01,0.000199195,-0.000172625,-3.98889,1,0.000395393,10,6.88582e-07,-2.39915, , , ,-0.000172625,