File: Figure_codes/Fig_3-5/rawdata_trumpetplot_data/after 10th/20221101_1-115_003_TrumpetPlot_ParaChange_from10_every3_14_CV_C01_1.csv
mode,ox/red,error,control changes,counter inc.,time/s,control/V,Ewe/V,<I>/mA,cycle number,(Q-Qo)/C,I Range,P/W,log(|I|),Tafel slope mV/dec,alpha_eff,dI/d(E-IR),E-IR/V,
2,1,0,1,0,3169.24,2.44065e-05,-0.000153538,47.236,2,0.0000000E+000,10,-7.25251e-06,-1.32573, , , ,-0.000153538,
2,1,0,1,0,3169.25,0.0133084,0.0129499,50.7509,2,0.000646343,10,0.00065722,-1.29456,0.611482,0.0964868,190.451,0.0129499,
2,1,0,1,0,3169.26,0.0273414,0.0270088,52.8603,2,0.00137309,10,0.00142769,-1.27687,1.01869,0.0579174,119.125,0.0270088,
2,1,0,1,0,3169.28,0.0413245,0.0409298,54.2098,2,0.00212298,10,0.0022188,-1.26592,1.46821,0.040185,84.9187,0.0409298,
2,1,0,1,0,3169.29,0.0553076,0.0549727,55.2552,2,0.00288953,10,0.00303753,-1.25763,1.68154,0.0350869,75.7048,0.0549727,
2,1,0,1,0,3169.31,0.0693407,0.0689563,56.462,2,0.00367105,10,0.00389341,-1.24824,1.27652,0.0462196,101.902,0.06895633,
2,1,0,1,0,3169.32,0.0833238,0.0829993,58.0544,2,0.00447238,10,0.00481847,-1.23616,1.02884,0.0573461,130.108,0.0829993,
2,1,0,1,0,3169.33,0.0973069,0.0969871,60.157,2,0.0052994,10,0.00583445,-1.22071,0.77623,0.0760084,178.854,0.0969871,
2,1,0,1,0,3169.35,0.11134,0.110968,62.941,2,0.00616098,10,0.0069844,-1.20107,0.679553,0.0868218,213.432,0.110968,
2,1,0,1,0,3169.36,0.125323,0.124935,66.138,2,0.00706428,10,0.00826296,-1.17955,0.624343,0.0944993,244.041,0.124935,
2,1,0,1,0,3169.38,0.139306,0.13897,69.7414,2,0.00801526,10,0.00969193,-1.15651,0.579506,0.101811,277.442,0.13897,
2,1,0,1,0,3169.39,0.153339,0.153023,73.8397,2,0.00902044,10,0.0112992,-1.13171,0.553618,0.106572,307.393,0.153023,
2,1,0,1,0,3169.4,0.167322,0.166887,78.3649,2,0.010086,10,0.0130781,-1.10588,0.543532,0.108549,331.968,0.166887,
2,1,0,1,0,3169.42,0.181305,0.180981,83.0563,2,0.0112164,10,0.0150316,-1.08063,0.58303,0.101195,327.72,0.180981,
2,1,0,1,0,3169.43,0.195338,0.194993,87.3546,2,0.0124108,10,0.0170335,-1.05871,0.755957,0.0780468,265.443,0.194993,
2,1,0,1,0,3169.45,0.209322,0.20901,90.3382,2,0.013657,10,0.0188815,-1.04413,1.61536,0.0365244,128.109,0.20901,
2,1,0,1,0,3169.46,0.223305,0.222993,90.5652,2,0.0149275,10,0.0201954,-1.04304,-1.61517,-0.0365286,-128.07,0.222993,
2,1,0,1,0,3169.47,0.237338,0.237081,86.3685,2,0.0161715,10,0.0204763,-1.06364,-0.417043,-0.141472,-472.455,0.2370806,
2,1,0,1,0,3169.49,0.251321,0.251061,77.618,2,0.017323,10,0.0194869,-1.11004,-0.246052,-0.239787,-721.941,0.251061,
2,1,0,1,0,3169.5,0.265304,0.265075,66.8387,2,0.0183334,10,0.0177173,-1.17497,-0.204587,-0.288385,-752.238,0.2650753,
2,1,0,1,0,3169.52,0.279337,0.279104,57.0434,2,0.0191974,10,0.0159211,-1.24379,-0.212682,-0.27741,-620.557,0.2791045,
2,1,0,1,0,3169.53,0.29332,0.293026,49.5784,2,0.0199403,10,0.0145277,-1.30471,-0.250172,-0.235838,-461.744,0.293026,
2,1,0,1,0,3169.54,0.298714,0.298704,42.8824,2,0.0203197,10,0.0128091,-1.36772,0.0277022,2.1298,2846.19,0.298704,
2,1,0,1,0,3169.55,0.28473,0.284601,14.1116,2,0.0206907,10,0.00401617,-1.85042,0.0204274,2.88828,1450.27,0.284601,
2,0,0,1,0,3169.57,0.270747,0.270517,-0.80228,2,0.0207724,10,-0.000217031,-3.09567,0.741747,0.0795419,805.251,0.270517,
2,0,0,1,0,3169.58,0.256714,0.256462,-9.4856,2,0.0206941,10,-0.00243269,-2.02294,-0.0400513,-1.47311,482.371,0.256462,
2,0,0,1,0,3169.59,0.242731,0.242485,-14.885,2,0.0205204,10,-0.00360939,-1.82725,-0.105691,-0.558229,314.762,0.242485,
2,0,0,1,0,3169.61,0.228748,0.228481,-18.5287,2,0.0202848,10,-0.00423345,-1.73216,-0.186755,-0.315922,226.209,0.2284807,
2,0,0,1,0,3169.62,0.214715,0.214458,-21.2869,2,0.0200046,10,-0.00456513,-1.67189,-0.280216,-0.210552,174.246,0.214458,
2,0,0,1,0,3169.64,0.200732,0.200433,-23.5507,2,0.01969,10,-0.00472033,-1.628,-0.35085,-0.168163,154.255,0.200433,
2,0,0,1,0,3169.65,0.186735,0.18646,-25.687,2,0.0193453,10,-0.00478959,-1.59029,-0.376643,-0.156647,157.059,0.18646,
2,0,0,1,0,3169.66,0.172716,0.17243,-27.9843,2,0.0189695,10,-0.00482533,-1.55308,-0.363228,-0.162432,177.863,0.17243,
2,0,0,1,0,3169.68,0.158733,0.158428,-30.8165,2,0.0185585,10,-0.0048822,-1.51122,-0.300969,-0.196034,236.899,0.158428,
2,0,0,1,0,3169.69,0.144719,0.144466,-34.7927,2,0.0181006,10,-0.00502635,-1.45851,-0.237938,-0.247964,338.399,0.144466,
2,0,0,1,0,3169.71,0.130717,0.130441,-40.3128,2,0.0175762,10,-0.00525843,-1.39456,-0.204613,-0.28835,455.546,0.130441,
2,0,0,1,0,3169.72,0.116733,0.116525,-47.4426,2,0.0169627,10,-0.00552826,-1.32383,-0.197167,-0.299238,554.63,0.1165251,
2,0,0,1,0,3169.73,0.102703,0.102467,-55.6308,2,0.0162414,10,-0.00570034,-1.25468,-0.22003,-0.268146,579.831,0.102467,
2,0,0,1,0,3169.75,0.0887173,0.0885293,-63.4468,2,0.015406,10,-0.0056169,-1.19759,-0.272351,-0.216633,534.592,0.0885293,
2,0,0,1,0,3169.76,0.0747341,0.0745563,-70.4706,2,0.0144669,10,-0.00525403,-1.15199,-0.35607,-0.165698,453.769,0.0745563,
2,0,0,1,0,3169.78,0.0607011,0.0605463,-76.1914,2,0.0134385,10,-0.0046131,-1.11809,-0.494781,-0.119245,353.03,0.0605463,
2,0,0,1,0,3169.79,0.046718,0.046463,-80.184,2,0.0123411,10,-0.00372559,-1.09591,-0.879931,-0.0670507,208.881,0.04646299,
2,0,0,1,0,3169.8,0.0327349,0.0324423,-82.0739,2,0.0112029,10,-0.00266266,-1.0858,-2.67551,-0.0220519,70.3944,0.0324423,
2,0,0,1,0,3169.82,0.0187018,0.0184396,-82.3369,2,0.0100507,10,-0.00151826,-1.08441,7.55593,0.00780844,-25.032,0.01843963,
2,0,0,1,0,3169.83,0.00471873,0.00446665,-81.4767,2,0.00890316,10,-0.000363928,-1.08897,2.22314,0.026539,-84.302,0.00446665,
2,0,0,1,0,3169.85,-0.00926438,-0.00962403,-79.9775,2,0.0077721,10,0.000769706,-1.09703,1.33298,0.0442617,-137.923,-0.00962403,
2,0,0,1,0,3169.86,-0.0232974,-0.0236585,-77.6938,2,0.00666787,10,0.00183812,-1.10961,0.908256,0.0649596,-196.464,-0.0236585,
2,0,0,1,0,3169.87,-0.0372805,-0.037588,-74.4356,2,0.00560236,10,0.00279789,-1.12822,0.668972,0.088195,-255.865,-0.037588,
2,0,0,1,0,3169.89,-0.0512636,-0.0516013,-70.7349,2,0.00458668,10,0.00365001,-1.15037,0.635443,0.0928485,-256.441,-0.0516013,
2,0,0,1,0,3169.9,-0.0652967,-0.0656114,-67.5028,2,0.00362055,10,0.00442895,-1.17068,0.785821,0.0750807,-198.141,-0.0656114,
2,0,0,1,0,3169.92,-0.0792798,-0.0796141,-65.1627,2,0.00269322,10,0.00518787,-1.186,1.15141,0.0512414,-130.655,-0.0796141,
2,0,0,1,0,3169.93,-0.0932629,-0.0935902,-63.8594,2,0.00179131,10,0.00597662,-1.19478,2.35322,0.025072,-62.6019,-0.09359023,
2,0,0,1,0,3169.94,-0.107296,-0.107647,-63.434,2,0.000901397,10,0.00682848,-1.19768,28.13,0.00209741,-5.19786,-0.107647,
2,0,0,1,0,3169.96,-0.121279,-0.121586,-63.5671,2,1.29509e-05,10,0.00772888,-1.19677,-5.31188,-0.0111072,27.5921,-0.121586,
2,0,0,1,0,3169.97,-0.135262,-0.135612,-64.1937,2,-0.000880943,10,0.00870543,-1.19251,-2.57768,-0.0228888,57.3873,-0.135612,
2,0,0,1,0,3169.99,-0.149295,-0.149614,-65.2389,2,-0.00178649,10,0.00976063,-1.18549,-1.8057,-0.0326743,83.1824,-0.149614,
2,0,0,1,0,3170,-0.163278,-0.163587,-66.4301,2,-0.00270809,10,0.0108671,-1.17764,-1.61936,-0.0364342,94.5272,-0.163587,
2,0,0,1,0,3170.01,-0.177261,-0.177596,-67.8543,2,-0.00364812,10,0.0120506,-1.16842,-1.47431,-0.0400188,106.007,-0.177596,
2,0,0,1,0,3170.03,-0.191295,-0.191588,-69.5139,2,-0.00460933,10,0.013318,-1.15793,-1.2842,-0.0459432,124.565,-0.191588,
2,0,0,0,1,3170.04,-0.199984,-0.200494,-70.2384,2,-0.00526089,10,0.0140824,-1.15343,-0.0358718,-1.64475,3919.94,-0.200494,
2,0,0,1,1,3170.05,-0.186686,-0.187171,-41.902,2,-0.00597063,10,0.00784284,-1.37777,-0.0576634,-1.02318,1675.16,-0.187171,
2,0,0,1,1,3170.07,-0.172667,-0.173144,-22.2265,2,-0.00641024,10,0.00384838,-1.65313,-0.0407318,-1.4485,1216.99,-0.173144,
2,0,0,1,1,3170.08,-0.158684,-0.159147,-7.24981,2,-0.00661112,10,0.00115378,-2.13967,-0.0070477,-8.37153,960.181,-0.159147,
2,1,0,1,1,3170.09,-0.14467,-0.145106,4.81844,2,-0.00662438,10,-0.000699184,-2.31709,0.0205258,2.87443,787.045,-0.145106,
2,1,0,1,1,3170.11,-0.130668,-0.131167,14.8025,2,-0.00648391,10,-0.0019416,-1.82966,0.0488504,1.20777,656.005,-0.131167,
2,1,0,1,1,3170.12,-0.116685,-0.117131,23.2702,2,-0.00621501,10,-0.00272567,-1.6332,0.0948202,0.62223,552.441,-0.117131,
2,1,0,1,1,3170.14,-0.102654,-0.103054,30.4315,2,-0.0058373,10,-0.0031361,-1.51668,0.148412,0.397541,466.524,-0.103054,
2,1,0,1,1,3170.15,-0.0886685,-0.0890612,36.3921,2,-0.00536769,10,-0.00324113,-1.43899,0.212865,0.277172,391.147,-0.0890612,
2,1,0,1,1,3170.16,-0.0746854,-0.0750649,41.4583,2,-0.00482121,10,-0.00311207,-1.38239,0.285403,0.206725,332.923,-0.07506492,
2,1,0,1,1,3170.18,-0.0606523,-0.0609806,45.7948,2,-0.00420971,10,-0.0027926,-1.33918,0.37246,0.158406,281.787,-0.0609806,
2,1,0,1,1,3170.19,-0.0466692,-0.0470744,49.3027,2,-0.00354304,10,-0.0023209,-1.30713,0.495135,0.119159,228.679,-0.0470744,
2,1,0,1,1,3170.21,-0.0326861,-0.0331014,52.1955,2,-0.00283159,10,-0.00172775,-1.28237,0.649392,0.0908543,184.651,-0.0331014,
2,1,0,1,1,3170.22,-0.018653,-0.0190638,54.5433,2,-0.00208385,10,-0.0010398,-1.26326,0.862722,0.0683882,145.179,-0.0190638,
2,1,0,1,1,3170.23,-0.00466992,-0.00506216,56.2106,2,-0.00130774,10,-0.000284547,-1.25018, , , ,-0.005062161,
2,1,0,0,1,3170.24,-0.000175352,-0.000535284,56.6359,2,-0.00105379,10,-3.03163e-05,-1.24691, , , ,-0.000535284,