File: Figure_codes/Fig_3-5/rawdata_trumpetplot_data/after 10th/20221101_1-115_003_TrumpetPlot_ParaChange_from10_every3_11_CV_C01_3.csv
mode,ox/red,error,control changes,counter inc.,time/s,control/V,Ewe/V,<I>/mA,cycle number,(Q-Qo)/C,I Range,P/W,log(|I|),Tafel slope mV/dec,alpha_eff,dI/d(E-IR),E-IR/V,
2,1,0,1,0,7104.91,2.44065e-05,-0.000248974,10.3582,4,0.0000000E+000,10,-2.57894e-06,-1.98471, , , ,-0.000248974,
2,1,0,1,0,7104.94,0.0101427,0.00978459,15.0238,4,0.000329013,10,0.000147002,-1.82322,0.112922,0.522485,304.299,0.00978459,
2,1,0,1,0,7104.96,0.0205441,0.0201766,17.4278,4,0.000754026,10,0.000351634,-1.75876,0.218001,0.270641,183.859,0.0201766,
2,1,0,1,0,7104.99,0.0309482,0.0306184,19.0404,4,0.00122935,10,0.000582985,-1.72032,0.320652,0.184,136.461,0.0306184,
2,1,0,1,0,7105.02,0.0413439,0.0410114,20.3402,4,0.0017415,10,0.000834179,-1.69165,0.395277,0.149263,118.409,0.0410114,
2,1,0,1,0,7105.04,0.0517425,0.0514119,21.6004,4,0.00228688,10,0.00111052,-1.66554,0.390672,0.151022,127.487,0.0514119,
2,1,0,1,0,7105.07,0.0621438,0.0617859,22.9764,4,0.00286635,10,0.00141962,-1.63872,0.38506,0.153223,137.326,0.0617859,
2,1,0,1,0,7105.09,0.0725479,0.072215,24.4159,4,0.00348248,10,0.00176319,-1.61233,0.409252,0.144165,137.269,0.072215,
2,1,0,1,0,7105.12,0.0829437,0.0825868,25.8776,4,0.00413596,10,0.00213715,-1.58708,0.408564,0.144408,145.901,0.0825868,
2,1,0,1,0,7105.15,0.0933422,0.0930053,27.3756,4,0.00482858,10,0.00254607,-1.56264,0.439966,0.134101,143.258,0.0930053,
2,1,0,1,0,7105.17,0.103749,0.103422,28.8394,4,0.00555943,10,0.00298262,-1.54001,0.471683,0.125084,140.742,0.103422,
2,1,0,1,0,7105.2,0.114148,0.11382,30.3586,4,0.00632886,10,0.00345541,-1.51772,0.442945,0.1332,157.913,0.11382,
2,1,0,1,0,7105.22,0.124543,0.124214,32.1594,4,0.0071411,10,0.00399465,-1.49269,0.38919,0.151597,190.374,0.124214,
2,1,0,1,0,7105.25,0.134942,0.134577,34.3054,4,0.00800488,10,0.00461674,-1.46464,0.362297,0.16285,218.074,0.134577,
2,1,0,1,0,7105.28,0.145349,0.145036,36.5775,4,0.0089266,10,0.00530507,-1.43679,0.403808,0.146109,208.358,0.145036,
2,1,0,1,0,7105.3,0.155747,0.155376,38.6223,4,0.00990485,10,0.00600099,-1.41316,0.488729,0.120721,181.866,0.155376,
2,1,0,1,0,7105.33,0.166143,0.165817,40.2007,4,0.0109313,10,0.00666596,-1.39577,0.815424,0.072355,113.411,0.165817,
2,1,0,1,0,7105.35,0.176542,0.176253,40.6367,4,0.0119862,10,0.00716233,-1.39108,-1.49417,-0.0394869,-62.4128,0.176253,
2,1,0,1,0,7105.38,0.186949,0.186596,38.5294,4,0.0130217,10,0.00718943,-1.41421,-0.24953,-0.236444,-354.081,0.186596,
2,1,0,1,0,7105.41,0.197347,0.197068,33.5422,4,0.0139628,10,0.00661011,-1.47441,-0.139104,-0.424143,-553.982,0.197068,
2,1,0,1,0,7105.43,0.207743,0.207446,27.7331,4,0.0147574,10,0.00575314,-1.557,-0.125016,-0.471941,-511.147,0.207446,
2,1,0,1,0,7105.46,0.218141,0.217861,23.2365,4,0.0154157,10,0.00506232,-1.63383,-0.155896,-0.378457,-344.336,0.217861,
2,1,0,1,0,7105.48,0.228548,0.228259,20.4291,4,0.01598,10,0.00466314,-1.68975,-0.22268,-0.264954,-211.553,0.228259,
2,1,0,1,0,7105.51,0.238947,0.238653,18.7072,4,0.0164867,10,0.00446454,-1.72799,-0.331627,-0.177911,-130.022,0.2386532,
2,1,0,1,0,7105.54,0.249343,0.249053,17.5994,4,0.0169577,10,0.00438318,-1.7545,-0.453707,-0.13004,-89.4446,0.249053,
2,1,0,1,0,7105.56,0.259741,0.259456,16.8384,4,0.0174049,10,0.00436882,-1.7737,-0.628604,-0.0938588,-61.7212,0.259456,
2,1,0,1,0,7105.59,0.270148,0.269844,16.2638,4,0.0178348,10,0.00438869,-1.78878,-0.788294,-0.0748452,-47.5087,0.269844,
2,1,0,1,0,7105.61,0.280547,0.280237,15.7906,4,0.0182512,10,0.00442512,-1.8016,-0.848677,-0.06952,-42.8326,0.280237,
2,1,0,1,0,7105.64,0.290942,0.290624,15.3807,4,0.0186563,10,0.00447001,-1.81302,-0.943458,-0.0625359,-37.5452,0.290624,
2,1,0,0,0,7105.66,0.300012,0.299613,15.0617,4,0.0190018,10,0.00451268,-1.82213,0.000951537,62.005,30131.4,0.299613,
2,1,0,1,0,7105.69,0.290704,0.290472,1.26549,4,0.0191568,10,0.000367591,-2.89774,0.00921993,6.39918,803.486,0.290472,
2,0,0,1,0,7105.71,0.280305,0.279972,-3.88018,4,0.0191118,10,-0.00108634,-2.41115,-0.0275886,-2.13856,307.915,0.279972,
2,0,0,1,0,7105.74,0.269909,0.269617,-6.15845,4,0.0189777,10,-0.00166042,-2.21053,-0.0878622,-0.671506,159.661,0.269617,
2,0,0,1,0,7105.76,0.2595,0.259225,-7.44744,4,0.0187996,10,-0.00193056,-2.12799,-0.168974,-0.349167,101.118,0.259225,
2,0,0,1,0,7105.79,0.249104,0.248851,-8.33276,4,0.0185937,10,-0.00207362,-2.07921,-0.266707,-0.221217,71.9094,0.248851,
2,0,0,1,0,7105.82,0.238705,0.238438,-9.04638,4,0.0183674,10,-0.002157,-2.04352,-0.323256,-0.182518,64.4533,0.238438,
2,0,0,1,0,7105.84,0.22831,0.227989,-9.66121,4,0.0181239,10,-0.00220265,-2.01497,-0.385256,-0.153145,57.7075,0.227989,
2,0,0,1,0,7105.87,0.2179,0.217593,-10.2334,4,0.0178652,10,-0.00222672,-1.98998,-0.444319,-0.132788,52.9894,0.217593,
2,0,0,1,0,7105.89,0.207504,0.20723,-10.7737,4,0.017592,10,-0.00223263,-1.96764,-0.459711,-0.128342,54.0535,0.20723,
2,0,0,1,0,7105.92,0.197106,0.196822,-11.3454,4,0.0173042,10,-0.00223302,-1.94518,-0.469571,-0.125647,55.7061,0.196822,
2,0,0,1,0,7105.95,0.18671,0.1864,-11.9734,4,0.0170011,10,-0.00223184,-1.92178,-0.437481,-0.134863,63.0191,0.1864,
2,0,0,1,0,7105.97,0.1763,0.176004,-12.7187,4,0.0166803,10,-0.00223854,-1.89556,-0.359003,-0.164344,81.6664,0.176004,
2,0,0,1,0,7106,0.165905,0.165612,-13.688,4,0.0163376,10,-0.0022669,-1.86366,-0.291487,-0.202411,108.255,0.165612,
2,0,0,1,0,7106.02,0.155506,0.155177,-15.0741,4,0.0159648,10,-0.00233916,-1.82177,-0.217222,-0.271612,159.911,0.155177,
2,0,0,1,0,7106.05,0.145105,0.144808,-17.0836,4,0.0155483,10,-0.00247385,-1.76742,-0.167374,-0.352504,235.655,0.144808,
2,0,0,1,0,7106.08,0.134701,0.134429,-20.0621,4,0.0150675,10,-0.00269693,-1.69762,-0.137077,-0.430416,337.296,0.134429,
2,0,0,1,0,7106.1,0.124305,0.123982,-23.9408,4,0.0144966,10,-0.00296823,-1.62086,-0.138349,-0.426457,398.143,0.123982,
2,0,0,1,0,7106.13,0.113906,0.113622,-28.0521,4,0.0138195,10,-0.00318733,-1.55203,-0.166851,-0.353609,387.476,0.113622,
2,0,0,1,0,7106.15,0.103505,0.103207,-31.9467,4,0.0130376,10,-0.00329714,-1.49557,-0.217536,-0.271219,337.592,0.103207,
2,0,0,1,0,7106.18,0.0931008,0.0928484,-35.0491,4,0.0121646,10,-0.00325425,-1.45532,-0.30959,-0.190574,260.281,0.0928484,
2,0,0,1,0,7106.21,0.0827051,0.0824129,-37.2669,4,0.011222,10,-0.00307128,-1.42868,-0.550534,-0.107169,155.566,0.0824129,
2,0,0,1,0,7106.23,0.0723065,0.0720071,-38.2746,4,0.0102372,10,-0.00275604,-1.41709,-2.47923,-0.0237977,35.4982,0.0720071,
2,0,0,1,0,7106.26,0.0618996,0.0616353,-38.0616,4,0.00924249,10,-0.00234594,-1.41951,1.23534,0.0477603,-70.8617,0.0616353,
2,0,0,1,0,7106.28,0.0515011,0.0511754,-37.0031,4,0.00826596,10,-0.00189365,-1.43176,0.710223,0.0830725,-119.862,0.0511754,
2,0,0,1,0,7106.31,0.0411053,0.040845,-35.7131,4,0.00732093,10,-0.0014587,-1.44717,0.685287,0.0860953,-120.058,0.040845,
2,0,0,1,0,7106.34,0.0307068,0.0303777,-34.5126,4,0.00640797,10,-0.00104841,-1.46202,0.718545,0.0821104,-110.649,0.0303777,
2,0,0,1,0,7106.36,0.0202999,0.0199581,-33.344,4,0.0055259,10,-0.000665483,-1.47698,0.638763,0.092366,-120.069,0.0199581,
2,0,0,1,0,7106.39,0.00990136,0.00955978,-31.9778,4,0.00467649,10,-0.000305701,-1.49515,0.511981,0.115239,-143.734,0.009559785,
2,0,0,1,0,7106.41,-0.000494411,-0.000875675,-30.3486,4,0.0038659,10,2.65755e-05,-1.51786,0.411764,0.143286,-169.499,-0.000875675,
2,0,0,1,0,7106.44,-0.010893,-0.0112666,-28.4882,4,0.00310139,10,0.000320965,-1.54533,0.382087,0.154415,-171.649,-0.0112666,
2,0,0,1,0,7106.47,-0.0212998,-0.021684,-26.8759,4,0.00238289,10,0.000582778,-1.57064,0.467479,0.126209,-132.456,-0.021684,
2,0,0,1,0,7106.49,-0.0316984,-0.0320824,-25.7912,4,0.00169971,10,0.000827442,-1.58853,0.76492,0.0771322,-77.6869,-0.03208239,
2,0,0,1,0,7106.52,-0.0420942,-0.0424489,-25.2412,4,0.00103748,10,0.00107146,-1.59789,1.84524,0.0319741,-31.519,-0.04244893,
2,0,0,1,0,7106.54,-0.0524927,-0.052824,-25.1099,4,0.000383654,10,0.0013264,-1.60016,-16.959,-0.00347898,3.41226,-0.05282395,
2,0,0,1,0,7106.57,-0.0628996,-0.063288,-25.2935,4,-0.000270964,10,0.00160077,-1.59699,-2.11622,-0.0278799,27.5213,-0.06328804,
2,0,0,1,0,7106.6,-0.0732982,-0.07368,-25.6879,4,-0.000933203,10,0.00189269,-1.59027,-1.18015,-0.0499938,50.1394,-0.07368,
2,0,0,1,0,7106.62,-0.0836939,-0.0840498,-26.2799,4,-0.00160843,10,0.00220882,-1.58038,-0.934799,-0.0631152,64.7293,-0.0840498,
2,0,0,1,0,7106.65,-0.0940925,-0.0944417,-27.0249,4,-0.00230115,10,0.00255228,-1.56824,-0.786177,-0.0750467,79.1865,-0.0944417,
2,0,0,1,1,7106.67,-0.0978574,-0.0982422,-22.0198,4,-0.00284242,10,0.00216327,-1.65719,-0.0224206,-2.6315,2181.12,-0.0982422,
2,0,0,1,1,7106.69,-0.0874588,-0.087898,-6.33717,4,-0.00318742,10,0.000557024,-2.1981,-0.0121882,-4.84074,1116.61,-0.087898,
2,1,0,1,1,7106.72,-0.077052,-0.0774763,2.82695,4,-0.00322302,10,-0.000219022,-2.54868,0.00609169,9.68532,700.294,-0.0774763,
2,1,0,1,1,7106.75,-0.0666562,-0.0671034,8.81505,4,-0.00306614,10,-0.00059152,-2.05478,0.0419014,1.40807,474.83,-0.0671034,
2,1,0,1,1,7106.77,-0.0562576,-0.0566446,12.9205,4,-0.00277962,10,-0.000731874,-1.88872,0.091694,0.643444,322.288,-0.0566446,
2,1,0,1,1,7106.8,-0.0458563,-0.046224,15.6817,4,-0.00240499,10,-0.000724868,-1.80461,0.167298,0.352664,215.052,-0.046224,
2,1,0,1,1,7106.82,-0.0354522,-0.0358203,17.5111,4,-0.00197167,10,-0.000627254,-1.75669,0.284583,0.207321,141.358,-0.0358203,
2,1,0,1,1,7106.85,-0.0250564,-0.0254411,18.6755,4,-0.00149992,10,-0.000475124,-1.72873,0.501994,0.117531,85.5727,-0.0254411,
2,1,0,1,1,7106.88,-0.0146579,-0.0150501,19.3735,4,-0.00100438,10,-0.000291573,-1.71279,0.929917,0.0634465,47.9326,-0.0150501,
2,1,0,1,1,7106.9,-0.00425653,-0.00464542,19.7426,4,-0.000495225,10,-9.17129e-05,-1.70459,1.8116,0.032568,25.1074,-0.00464542,
2,1,0,0,1,7106.91,-7.54729e-05,-0.00042076,19.8447,4,-0.000287285,10,-8.34984e-06,-1.70236, , , ,-0.00042076,