File: Figure_codes/Fig_3-5/rawdata_trumpetplot_data/after 10th/20221101_1-115_003_TrumpetPlot_ParaChange_from10_every3_11_CV_C01_24.csv
mode,ox/red,error,control changes,counter inc.,time/s,control/V,Ewe/V,<I>/mA,cycle number,(Q-Qo)/C,I Range,P/W,log(|I|),Tafel slope mV/dec,alpha_eff,dI/d(E-IR),E-IR/V,
2,1,0,1,0,48477.7,2.44065e-05,-0.000248974,9.53395,25,0.0000000E+000,10,-2.37371e-06,-2.02073, , , ,-0.000248974,
2,1,0,1,0,48477.7,0.0101427,0.00978353,12.6668,25,0.000286173,10,0.000123926,-1.89733,0.137951,0.42769,210.613,0.00978353,
2,1,0,1,0,48477.7,0.0205441,0.0201607,14.4912,25,0.000640901,10,0.000292152,-1.8389,0.22334,0.264172,149.243,0.0201607,
2,1,0,1,0,48477.7,0.0309482,0.0305951,15.878,25,0.00103649,10,0.00048579,-1.7992,0.306662,0.192394,118.971,0.0305951,
2,1,0,1,0,48477.8,0.0413439,0.0409892,17.0034,25,0.0014643,10,0.000696955,-1.76946,0.385479,0.153056,101.524,0.0409892,
2,1,0,1,0,48477.8,0.0517425,0.0514087,18.0294,25,0.00192006,10,0.000926869,-1.74402,0.427018,0.138168,97.2838,0.0514087,
2,1,0,1,0,48477.8,0.0621438,0.0618071,19.0471,25,0.00240212,10,0.00117724,-1.72017,0.449265,0.131326,97.5502,0.06180707,
2,1,0,1,0,48477.8,0.0725479,0.072163,20.0557,25,0.00291041,10,0.00144728,-1.69776,0.465735,0.126682,99.1277,0.072163,
2,1,0,1,0,48477.9,0.0829437,0.0825709,21.09,25,0.00344532,10,0.00174142,-1.67592,0.479962,0.122926,101.217,0.0825709,
2,1,0,1,0,48477.9,0.0933422,0.0929968,22.1519,25,0.00400766,10,0.00206006,-1.65459,0.509649,0.115766,100.038,0.0929968,
2,1,0,1,0,48477.9,0.103749,0.103374,23.2108,25,0.00459707,10,0.00239939,-1.63431,0.521359,0.113166,102.443,0.103374,
2,1,0,1,0,48477.9,0.114148,0.113804,24.2602,25,0.00521424,10,0.00276091,-1.61511,0.537486,0.10977,103.964,0.1138041,
2,1,0,1,0,48478,0.124543,0.124188,25.4005,25,0.00585971,10,0.00315443,-1.59516,0.499035,0.118228,117.239,0.1241876,
2,1,0,1,0,48478,0.134942,0.13458,26.6821,25,0.00653674,10,0.00359087,-1.57378,0.476286,0.123875,129.032,0.1345796,
2,1,0,1,0,48478,0.145349,0.144977,28.0507,25,0.00724835,10,0.0040667,-1.55206,0.498201,0.118426,129.566,0.144977,
2,1,0,1,0,48478,0.155747,0.155405,29.3333,25,0.00799469,10,0.00455854,-1.53264,0.582636,0.101264,115.877,0.155405,
2,1,0,1,0,48478.1,0.166143,0.16582,30.4044,25,0.00877207,10,0.00504166,-1.51706,0.822887,0.0716987,85.0066,0.16582,
2,1,0,1,0,48478.1,0.176542,0.176168,31.0002,25,0.0095718,10,0.00546123,-1.50864,3.27572,0.0180113,21.7618,0.176168,
2,1,0,1,0,48478.1,0.186949,0.186602,30.7936,25,0.010377,10,0.00574615,-1.51154,-1.08336,-0.0544602,-65.366,0.186602,
2,1,0,1,0,48478.1,0.197347,0.197022,29.6508,25,0.0111647,10,0.00584185,-1.52796,-0.450728,-0.130899,-151.255,0.197022,
2,1,0,1,0,48478.2,0.207743,0.207408,27.7209,25,0.0119115,10,0.00574953,-1.55719,-0.298089,-0.197928,-213.767,0.207408,
2,1,0,1,0,48478.2,0.218141,0.217801,25.3495,25,0.0126016,10,0.00552116,-1.59603,-0.255557,-0.230868,-228.506,0.217801,
2,1,0,1,0,48478.2,0.228548,0.228223,23.0605,25,0.0132302,10,0.00526293,-1.63713,-0.256212,-0.230278,-207.31,0.228223,
2,1,0,1,0,48478.2,0.238947,0.238636,21.0772,25,0.0138029,10,0.00502978,-1.67619,-0.277928,-0.212286,-174.621,0.238636,
2,1,0,1,0,48478.3,0.249343,0.249022,19.4587,25,0.0143289,10,0.00484563,-1.71089,-0.322985,-0.182671,-138.847,0.249022,
2,1,0,1,0,48478.3,0.259741,0.259428,18.1808,25,0.0148175,10,0.0047166,-1.74039,-0.389457,-0.151493,-107.591,0.259428,
2,1,0,1,0,48478.3,0.270148,0.269823,17.1824,25,0.0152766,10,0.0046362,-1.76492,-0.467036,-0.126329,-84.7068,0.269823,
2,1,0,1,0,48478.4,0.280547,0.280187,16.3661,25,0.0157123,10,0.00458558,-1.78605,-0.538724,-0.109518,-69.9925,0.280187,
2,1,0,1,0,48478.4,0.290942,0.290625,15.707,25,0.016129,10,0.00456485,-1.80391,-0.634147,-0.0930383,-57.084,0.290625,
2,1,0,0,0,48478.4,0.300012,0.299632,15.2143,25,0.01648,10,0.0045587,-1.81775,0.00179151,32.9332,17536.9,0.299632,
2,1,0,1,0,48478.4,0.290704,0.290388,6.08284,25,0.0167087,10,0.00176638,-2.21589,0.0216946,2.71957,642.749,0.290388,
2,1,0,1,0,48478.4,0.280305,0.279998,1.0761,25,0.0167955,10,0.000301306,-2.96815,0.00336828,17.5164,371.493,0.279998,
2,0,0,1,0,48478.5,0.269909,0.269572,-2.03371,25,0.0167799,10,-0.000548232,-2.69171,-0.0177295,-3.32778,243.081,0.2695725,
2,0,0,1,0,48478.5,0.2595,0.259201,-4.13039,25,0.016698,10,-0.0010706,-2.38401,-0.0556831,-1.05957,168.401,0.259201,
2,0,0,1,0,48478.5,0.249104,0.248775,-5.63482,25,0.01657,10,-0.0014018,-2.24912,-0.103804,-0.568379,124.501,0.248775,
2,0,0,1,0,48478.6,0.238705,0.23842,-6.78635,25,0.0164077,10,-0.001618,-2.16836,-0.157122,-0.375505,99.2582,0.23842,
2,0,0,1,0,48478.6,0.22831,0.227992,-7.69976,25,0.0162188,10,-0.00175548,-2.11352,-0.222766,-0.264852,79.5598,0.227992,
2,0,0,1,0,48478.6,0.2179,0.217607,-8.47388,25,0.0160081,10,-0.00184398,-2.07192,-0.286819,-0.205704,67.947,0.217607,
2,0,0,1,0,48478.6,0.207504,0.207193,-9.1291,25,0.015779,10,-0.00189149,-2.03957,-0.353921,-0.166704,59.4379,0.207193,
2,0,0,1,0,48478.7,0.197106,0.196803,-9.72962,25,0.0155335,10,-0.00191482,-2.0119,-0.395164,-0.149305,56.7124,0.196803,
2,0,0,1,0,48478.7,0.18671,0.186393,-10.2985,25,0.015273,10,-0.00191957,-1.98723,-0.451252,-0.130747,52.5362,0.186393,
2,0,0,1,0,48478.7,0.1763,0.175966,-10.8621,25,0.0149979,10,-0.00191136,-1.96409,-0.449263,-0.131326,55.7068,0.175966,
2,0,0,1,0,48478.7,0.165905,0.165585,-11.4798,25,0.0147075,10,-0.00190088,-1.94007,-0.419699,-0.140577,62.9578,0.1655848,
2,0,0,1,0,48478.8,0.155506,0.155204,-12.1998,25,0.0144,10,-0.00189347,-1.91365,-0.364092,-0.162047,77.1768,0.155204,
2,0,0,1,0,48478.8,0.145105,0.144758,-13.1434,25,0.0140711,10,-0.00190262,-1.88129,-0.276238,-0.213584,109.804,0.144758,
2,0,0,1,0,48478.8,0.134701,0.134383,-14.5384,25,0.0137123,10,-0.00195372,-1.83748,-0.208094,-0.283526,161.017,0.134383,
2,0,0,1,0,48478.8,0.124305,0.124009,-16.5234,25,0.0133098,10,-0.00204906,-1.7819,-0.176191,-0.334863,216.019,0.124009,
2,0,0,1,0,48478.9,0.113906,0.113581,-18.9348,25,0.0128491,10,-0.00215065,-1.72274,-0.181219,-0.325573,240.662,0.113581,
2,0,0,1,0,48478.9,0.103505,0.103266,-21.4088,25,0.0123239,10,-0.0022108,-1.66941,-0.213539,-0.276296,230.764,0.103266,
2,0,0,1,0,48478.9,0.0931008,0.0928017,-23.7364,25,0.0117363,10,-0.00220278,-1.62458,-0.263219,-0.224148,207.341,0.0928017,
2,0,0,1,0,48478.9,0.0827051,0.0824044,-25.6757,25,0.0110928,10,-0.00211579,-1.59048,-0.365644,-0.161359,161.517,0.0824044,
2,0,0,1,0,48479,0.0723065,0.0720336,-27.1347,25,0.010405,10,-0.00195461,-1.56647,-0.526135,-0.112139,118.692,0.0720336,
2,0,0,1,0,48479,0.0618997,0.0616098,-28.1237,25,0.00968543,10,-0.00173269,-1.55093,-0.945598,-0.0623944,68.3936,0.0616098,
2,0,0,1,0,48479,0.0515011,0.05115,-28.6166,25,0.00894714,10,-0.00146374,-1.54338,-2.25726,-0.0261379,29.1556,0.05115,
2,0,0,1,0,48479,0.0411053,0.0408078,-28.764,25,0.00820069,10,-0.0011738,-1.54115,-27.6434,-0.00213432,2.39603,0.0408078,
2,0,0,1,0,48479.1,0.0307068,0.0304243,-28.7153,25,0.00745295,10,-0.000873645,-1.54189,6.25885,0.00942665,-10.5658,0.0304243,
2,0,0,1,0,48479.1,0.0202999,0.0199762,-28.5382,25,0.00670848,10,-0.000570083,-1.54457,2.6261,0.0224668,-24.9943,0.0199762,
2,0,0,1,0,48479.1,0.00990136,0.00959054,-28.169,25,0.00597109,10,-0.000270156,-1.55023,1.54199,0.0382622,-42.0647,0.00959054,
2,0,0,1,0,48479.2,-0.000494411,-0.000824775,-27.6723,25,0.00524489,10,2.28234e-05,-1.55795,1.12163,0.0526019,-56.7465,-0.000824775,
2,0,0,1,0,48479.2,-0.010893,-0.0113048,-26.9526,25,0.00453472,10,0.000304693,-1.5694,0.839708,0.0702625,-73.8476,-0.0113048,
2,0,0,1,0,48479.2,-0.0212998,-0.0216904,-26.128,25,0.00384482,10,0.000566727,-1.58289,0.753149,0.0783378,-79.872,-0.0216904,
2,0,0,1,0,48479.2,-0.0316984,-0.0320919,-25.3415,25,0.00317606,10,0.000813257,-1.59617,0.85243,0.0692139,-68.4803,-0.0320919,
2,0,0,1,0,48479.3,-0.0420942,-0.0424765,-24.7168,25,0.00252569,10,0.00104988,-1.60701,1.08534,0.0543608,-52.4486,-0.0424765,
2,0,0,1,0,48479.3,-0.0524927,-0.052825,-24.2871,25,0.00188908,10,0.00128297,-1.61462,1.69664,0.0347747,-32.9743,-0.052825,
2,0,0,1,0,48479.3,-0.0628996,-0.0633167,-24.069,25,0.00126099,10,0.00152397,-1.61854,4.46649,0.0132095,-12.4081,-0.06331668,
2,0,0,1,0,48479.3,-0.0732982,-0.0736535,-24.0093,25,0.000636447,10,0.00176837,-1.61962,-11.2306,-0.00525352,4.92472,-0.0736535,
2,0,0,1,0,48479.4,-0.0836939,-0.0840805,-24.1319,25,1.0988e-05,10,0.00202903,-1.61741,-2.92822,-0.0201488,18.9714,-0.0840805,
2,0,0,1,0,48479.4,-0.0940925,-0.0944545,-24.3729,25,-0.000619278,10,0.00230213,-1.61309,-1.77478,-0.0332435,31.63,-0.09445446,
2,0,0,1,1,48479.4,-0.0978574,-0.0982624,-20.7847,25,-0.00110732,10,0.00204235,-1.68226,-0.0337805,-1.74657,1398.88,-0.0982624,
2,0,0,1,1,48479.4,-0.0874588,-0.0878799,-10.7171,25,-0.00150263,10,0.000941818,-1.96992,-0.0328469,-1.79621,748.269,-0.0878799,
2,0,0,1,1,48479.5,-0.0770519,-0.0774699,-4.18523,25,-0.00169104,10,0.000324229,-2.37828,-0.017358,-3.39901,532.353,-0.0774699,
2,1,0,1,1,48479.5,-0.0666562,-0.0670567,0.712748,25,-0.00173301,10,-4.77946e-05,-3.14706,0.0135794,4.34483,410.978,-0.0670567,
2,1,0,1,1,48479.5,-0.0562576,-0.0567188,4.52622,25,-0.00166262,10,-0.000256722,-2.34426,0.0309176,1.9083,329.216,-0.0567188,
2,1,0,1,1,48479.5,-0.0458563,-0.0463279,7.6079,25,-0.00150299,10,-0.000352458,-2.11874,0.0660735,0.892946,263.168,-0.0463279,
2,1,0,1,1,48479.6,-0.0354522,-0.035867,10.0876,25,-0.00127158,10,-0.000361812,-1.99621,0.107788,0.547372,214.444,-0.035867,
2,1,0,1,1,48479.6,-0.0250564,-0.0254633,12.0567,25,-0.000982581,10,-0.000307004,-1.91877,0.164591,0.358465,168.263,-0.0254633,
2,1,0,1,1,48479.6,-0.0146579,-0.0150289,13.6145,25,-0.00064786,10,-0.000204611,-1.866,0.23524,0.250808,133.129,-0.0150289,
2,1,0,1,1,48479.6,-0.00425653,-0.00467087,14.8418,25,-0.000277075,10,-6.93242e-05,-1.82851,0.324381,0.181885,105.309,-0.00467087,
2,1,0,0,1,48479.7,-7.54729e-05,-0.000439847,15.2659,25,-0.000118887,10,-6.71465e-06,-1.81628, , , ,-0.000439847,