File: Figure_codes/Fig_3-5/rawdata_trumpetplot_data/after 10th/20221101_1-115_003_TrumpetPlot_ParaChange_from10_every3_10_CV_C01_19.csv
mode,ox/red,error,control changes,counter inc.,time/s,control/V,Ewe/V,<I>/mA,cycle number,(Q-Qo)/C,I Range,P/W,log(|I|),Tafel slope mV/dec,alpha_eff,dI/d(E-IR),E-IR/V,
2,1,0,0,0,38623,-2.44065e-05,-0.000363498,5.19366,20,0.0000000E+000,10,-1.88789e-06,-2.28453, , , ,-0.000363498,
2,1,0,1,0,38623,0.00977853,0.00943263,7.73364,20,0.000328649,10,7.29486e-05,-2.11162,0.117463,0.502284,151.031,0.00943263,
2,1,0,1,0,38623.1,0.0197755,0.0194318,8.86552,20,0.000746386,10,0.000172273,-2.0523,0.235959,0.250043,86.4964,0.0194318,
2,1,0,1,0,38623.1,0.0297726,0.029463,9.62039,20,0.0012094,10,0.000283446,-2.01681,0.347886,0.169596,63.5824,0.029463,
2,1,0,1,0,38623.2,0.0397514,0.0393994,10.2435,20,0.00170512,10,0.000403589,-1.98955,0.368967,0.159906,63.9529,0.0393994,
2,1,0,1,0,38623.2,0.0497393,0.049444,10.8737,20,0.00223185,10,0.000537638,-1.96362,0.382042,0.154433,65.4883,0.049444,
2,1,0,1,0,38623.3,0.0597364,0.0594275,11.5268,20,0.00279153,10,0.000685007,-1.93829,0.386716,0.152567,68.5481,0.0594275,
2,1,0,1,0,38623.3,0.0697152,0.0693672,12.1932,20,0.00338328,10,0.000845807,-1.91388,0.4306,0.137018,65.2507,0.0693672,
2,1,0,1,0,38623.4,0.0796941,0.079366,12.8585,20,0.00400862,10,0.00102053,-1.89081,0.444691,0.132676,66.5587,0.079366,
2,1,0,1,0,38623.4,0.0896911,0.0893694,13.5015,20,0.00466818,10,0.00120663,-1.86962,0.501163,0.117726,62.0789,0.0893694,
2,1,0,1,0,38623.5,0.099679,0.0993288,14.1171,20,0.00535727,10,0.00140224,-1.85025,0.561374,0.105099,57.8309,0.0993288,
2,1,0,1,0,38623.5,0.109658,0.109337,14.7414,20,0.00607666,10,0.00161177,-1.83146,0.464988,0.126885,73.0873,0.109337,
2,1,0,1,0,38623.6,0.119655,0.119313,15.6009,20,0.00683441,10,0.0018614,-1.80685,0.392355,0.150374,91.4702,0.119313,
2,1,0,1,0,38623.6,0.129652,0.129293,16.5918,20,0.00763904,10,0.00214521,-1.78011,0.369406,0.159716,103.498,0.129293,
2,1,0,1,0,38623.7,0.139631,0.139302,17.5716,20,0.00849232,10,0.00244776,-1.75519,0.467157,0.126296,86.5329,0.139302,
2,1,0,1,0,38623.7,0.149619,0.149279,18.3021,20,0.00938857,10,0.00273212,-1.7375,0.725133,0.0813643,58.1129,0.149279,
2,1,0,1,0,38623.8,0.159616,0.1593,18.5902,20,0.0103138,10,0.00296143,-1.73071,-2.91343,-0.0202511,-14.6718,0.1593,
2,1,0,1,0,38623.8,0.169595,0.169262,17.8824,20,0.0112288,10,0.00302681,-1.74757,-0.300841,-0.196117,-136.686,0.169262,
2,1,0,1,0,38623.9,0.179573,0.179248,15.9621,20,0.0120773,10,0.00286117,-1.79691,-0.155854,-0.37856,-235.628,0.179248,
2,1,0,1,0,38623.9,0.18957,0.189279,13.5848,20,0.0128153,10,0.00257132,-1.86695,-0.139669,-0.422428,-224.196,0.189279,
2,1,0,1,0,38624,0.199558,0.199238,11.6862,20,0.0134427,10,0.00232834,-1.93233,-0.175552,-0.336083,-153.2,0.199238,
2,1,0,1,0,38624,0.209537,0.209202,10.3862,20,0.0139907,10,0.00217282,-1.98354,-0.226705,-0.260251,-105.632,0.209202,
2,1,0,1,0,38624.1,0.219534,0.21926,9.52666,20,0.0144869,10,0.00208881,-2.02106,-0.313504,-0.188196,-69.9943,0.21926,
2,1,0,1,0,38624.1,0.229531,0.229224,8.93411,20,0.0149479,10,0.00204791,-2.04895,-0.410147,-0.143851,-50.2478,0.229224,
2,1,0,1,0,38624.2,0.23951,0.23919,8.53522,20,0.0153834,10,0.00204153,-2.06879,-0.574242,-0.102744,-34.2225,0.23919,
2,1,0,1,0,38624.2,0.249498,0.249222,8.22675,20,0.0158012,10,0.00205029,-2.08477,-0.680185,-0.0867411,-27.8593,0.249222,
2,1,0,1,0,38624.3,0.259495,0.259193,8.00041,20,0.0162065,10,0.00207365,-2.09689,-0.806977,-0.0731124,-22.8001,0.259193,
2,1,0,1,0,38624.3,0.269474,0.269131,7.80367,20,0.0166005,10,0.00210021,-2.1077,-1.03639,-0.0569284,-17.3543,0.269131,
2,1,0,1,0,38624.4,0.279453,0.279155,7.64931,20,0.0169858,10,0.00213534,-2.11638,-1.15646,-0.0510178,-15.2101,0.279155,
2,1,0,1,0,38624.4,0.28945,0.289156,7.49419,20,0.0173644,10,0.00216699,-2.12528,-1.48485,-0.0397347,-11.6365,0.289156,
2,1,0,1,0,38624.5,0.299438,0.299124,7.37974,20,0.0177355,10,0.00220746,-2.13196,-0.0671513,-0.878613,-243.431,0.299124,
2,1,0,1,0,38624.5,0.291747,0.29144,0.693651,20,0.0178876,10,0.000202158,-3.15886,0.00210865,27.98,402.858,0.29144,
2,0,0,1,0,38624.6,0.28175,0.281435,-1.79835,20,0.0178499,10,-0.000506118,-2.74513,-0.0256872,-2.29686,157.554,0.281435,
2,0,0,1,0,38624.6,0.27178,0.27144,-2.94234,20,0.0177289,10,-0.000798669,-2.53131,-0.0780479,-0.755946,86.1675,0.27144,
2,0,0,1,0,38624.7,0.261783,0.261455,-3.61599,20,0.0175637,10,-0.000945416,-2.44177,-0.154757,-0.381242,53.7097,0.261455,
2,0,0,1,0,38624.7,0.251786,0.251469,-4.08814,20,0.0173704,10,-0.00102804,-2.38847,-0.225366,-0.261796,41.7639,0.251469,
2,0,0,1,0,38624.8,0.241807,0.24146,-4.46037,20,0.0171565,10,-0.001077,-2.35063,-0.299865,-0.196755,34.3308,0.24146,
2,0,0,1,0,38624.8,0.231824,0.231507,-4.78758,20,0.0169256,10,-0.00110836,-2.31988,-0.363304,-0.162399,30.2882,0.2315066,
2,0,0,1,0,38624.9,0.221822,0.221483,-5.06254,20,0.0166794,10,-0.00112127,-2.29563,-0.433436,-0.136122,26.8583,0.221483,
2,0,0,1,0,38624.9,0.211844,0.211502,-5.32221,20,0.0164203,10,-0.00112566,-2.27391,-0.510696,-0.115529,23.997,0.211502,
2,0,0,1,0,38625,0.201865,0.201506,-5.57414,20,0.0161483,10,-0.00112322,-2.25382,-0.534976,-0.110285,23.9818,0.201506,
2,0,0,1,0,38625,0.191868,0.191522,-5.83201,20,0.0158632,10,-0.00111696,-2.23418,-0.489367,-0.120564,27.482,0.191522,
2,0,0,1,0,38625.1,0.18188,0.181538,-6.11983,20,0.0155652,10,-0.00111098,-2.21326,-0.436768,-0.135083,32.2221,0.181538,
2,0,0,1,0,38625.1,0.171901,0.17159,-6.43893,20,0.0152523,10,-0.00110485,-2.19119,-0.390738,-0.150996,37.9573,0.17159,
2,0,0,1,0,38625.2,0.161904,0.161585,-6.85998,20,0.0149203,10,-0.00110847,-2.16368,-0.329236,-0.179203,47.9356,0.161585,
2,0,0,1,0,38625.2,0.151907,0.151603,-7.44871,20,0.0145635,10,-0.00112925,-2.12792,-0.233335,-0.252856,73.6642,0.151603,
2,0,0,1,0,38625.3,0.141928,0.141603,-8.43858,20,0.0141691,10,-0.00119493,-2.07373,-0.152785,-0.386163,127.21,0.1416032,
2,0,0,1,0,38625.3,0.13194,0.131646,-9.98038,20,0.0137121,10,-0.00131388,-2.00085,-0.124956,-0.472165,184.1,0.1316461,
2,0,0,1,0,38625.4,0.121943,0.12163,-11.9613,20,0.013164,10,-0.00145485,-1.92222,-0.140132,-0.42103,196.3,0.12163,
2,0,0,1,0,38625.4,0.111964,0.111663,-13.9001,20,0.0125177,10,-0.00155213,-1.85698,-0.175324,-0.336519,182.606,0.111663,
2,0,0,1,0,38625.5,0.101985,0.101687,-15.5331,20,0.0117813,10,-0.00157951,-1.80874,-0.256173,-0.230313,139.404,0.101687,
2,0,0,1,0,38625.5,0.0919883,0.091686,-16.6767,20,0.0109738,10,-0.00152902,-1.77789,-0.409654,-0.144024,93.7896,0.091686,
2,0,0,1,0,38625.6,0.0820004,0.0817255,-17.2636,20,0.010124,10,-0.00141088,-1.76287,-1.54123,-0.0382812,25.7477,0.0817255,
2,0,0,1,0,38625.6,0.0720215,0.071672,-17.2203,20,0.00926168,10,-0.00123421,-1.76396,1.52952,0.0385741,-25.936,0.07167203,
2,0,0,1,0,38625.7,0.0620245,0.0617163,-16.8797,20,0.0084085,10,-0.00104175,-1.77264,0.927037,0.0636437,-41.9065,0.0617163,
2,0,0,1,0,38625.7,0.0520275,0.0516937,-16.4885,20,0.00757446,10,-0.000852349,-1.78282,1.00027,0.0589841,-37.9726,0.0516937,
2,0,0,1,0,38625.8,0.0420486,0.0417336,-16.1271,20,0.00676072,10,-0.000673042,-1.79244,1.07189,0.0550432,-34.6264,0.0417336,
2,0,0,1,0,38625.8,0.0320607,0.031737,-15.7187,20,0.00596606,10,-0.000498865,-1.80358,0.848817,0.0695085,-42.6558,0.031737,
2,0,0,1,0,38625.9,0.0220637,0.0217249,-15.2477,20,0.00519162,10,-0.000331254,-1.8168,0.658083,0.0896544,-53.306,0.0217249,
2,0,0,1,0,38625.9,0.0120848,0.0117617,-14.6337,20,0.00444573,10,-0.000172117,-1.83465,0.489671,0.120489,-68.8664,0.0117617,
2,0,0,1,0,38626,0.00210598,0.0017283,-14.0042,20,0.00373243,10,-2.42034e-05,-1.85374,0.540893,0.109079,-59.424,0.0017283,
2,0,0,1,0,38626,-0.00789103,-0.00825958,-13.329,20,0.00304985,10,0.000110092,-1.8752,0.572022,0.103143,-53.7422,-0.00825958,
2,0,0,1,0,38626.1,-0.017879,-0.0182396,-12.8903,20,0.00239632,10,0.000235114,-1.88974,0.865695,0.0681533,-34.2621,-0.0182396,
2,0,0,1,0,38626.1,-0.0278578,-0.0282397,-12.6184,20,0.00176078,10,0.000356339,-1.899,1.63671,0.036048,-17.781,-0.0282397,
2,0,0,1,0,38626.2,-0.0378548,-0.0382128,-12.552,20,0.0011321,10,0.000479647,-1.90129,25.4953,0.00231416,-1.13245,-0.0382128,
2,0,0,1,0,38626.2,-0.0478519,-0.0482059,-12.6061,20,0.000503502,10,0.000607688,-1.89942,-1.83885,-0.0320853,15.8098,-0.0482059,
2,0,0,1,0,38626.3,-0.0578126,-0.0581851,-12.8043,20,-0.00012891,10,0.000745018,-1.89264,-1.29625,-0.0455158,22.7279,-0.0581851,
2,0,0,1,0,38626.3,-0.0678187,-0.068166,-13.0781,20,-0.000775554,10,0.00089148,-1.88346,-0.928484,-0.0635444,32.4463,-0.068166,
2,0,0,1,0,38626.4,-0.0778157,-0.0781409,-13.4515,20,-0.0014386,10,0.00105111,-1.87123,-0.77771,-0.0758638,39.8287,-0.0781409,
2,0,0,1,0,38626.4,-0.0877945,-0.0881747,-13.9279,20,-0.0021213,10,0.00122809,-1.85611,-0.617499,-0.0955467,51.9433,-0.0881747,
2,0,0,1,0,38626.5,-0.0977734,-0.0981305,-14.4805,20,-0.00282995,10,0.00142098,-1.83922,-0.554026,-0.106493,60.2005,-0.0981305,
2,0,0,1,1,38626.5,-0.0936874,-0.0941125,-7.02744,20,-0.00331227,10,0.00066137,-2.1532,-0.0198592,-2.97091,814.01,-0.0941125,
2,0,0,1,1,38626.6,-0.0837086,-0.0841065,-1.05688,20,-0.0034992,10,8.88907e-05,-2.97597,-0.00387501,-15.2258,451.392,-0.0841065,
2,1,0,1,1,38626.6,-0.0737025,-0.0741004,2.64568,20,-0.00345251,10,-0.000196046,-2.57746,0.0194452,3.03417,305.084,-0.0741004,
2,1,0,1,1,38626.7,-0.0637236,-0.0640905,5.15459,20,-0.00325393,10,-0.00033036,-2.28781,0.0568131,1.03849,207.476,-0.0640905,
2,1,0,1,1,38626.7,-0.0537447,-0.0541377,6.88911,20,-0.0029506,10,-0.00037296,-2.16184,0.113188,0.521255,139.964,-0.0541377,
2,1,0,1,1,38626.8,-0.0437477,-0.0441559,8.09437,20,-0.00257376,10,-0.000357414,-2.09182,0.190769,0.309274,97.5178,-0.0441559,
2,1,0,1,1,38626.8,-0.0337507,-0.0340969,8.90943,20,-0.00214707,10,-0.000303784,-2.05015,0.310328,0.190122,66.1077,-0.0340969,
2,1,0,1,1,38626.9,-0.0237809,-0.0241689,9.44014,20,-0.00168919,10,-0.000228158,-2.02502,0.521109,0.11322,41.6472,-0.0241689,
2,1,0,1,1,38626.9,-0.0137839,-0.0141272,9.74256,20,-0.00120883,10,-0.000137635,-2.01133,1.12676,0.0523623,19.9305,-0.0141272,
2,1,0,1,1,38627,-0.0037869,-0.00418617,9.92304,20,-0.000716538,10,-4.15395e-05,-2.00336,1.74718,0.0337688,13.0698,-0.00418617,
2,1,0,1,1,38627,-2.55332e-05,-0.000287149,9.96072,20,-0.000530605,10,-2.86021e-06,-2.00171, , , ,-0.0002871489,