File: Figure_codes/Fig_3-5/rawdata_trumpetplot_data/after 10th/20221101_1-115_003_TrumpetPlot_ParaChange_from10_every3_02_CV_C01_8.csv
mode,ox/red,error,control changes,counter inc.,time/s,control/V,Ewe/V,<I>/mA,cycle number,(Q-Qo)/C,I Range,P/W,log(|I|),Tafel slope mV/dec,alpha_eff,dI/d(E-IR),E-IR/V,
2,0,0,1,0,16101.1,2.44065e-05,-0.000306236,-0.352535,9,0.0000000E+000,10,1.07959e-07,-3.4528, , , ,-0.000306236,
2,0,0,1,0,16108.3,0.00729061,0.006948,-0.0936036,9,-0.000886561,10,-6.50358e-07,-4.02871,-0.0319106,-1.84891,6.82465,0.006948,
2,0,0,1,0,16115.8,0.0147815,0.0144185,-0.0586724,9,-0.00133124,10,-8.45967e-07,-4.23157,-0.0384062,-1.53621,3.51629,0.0144185,
2,0,0,1,0,16123.3,0.0222725,0.0219569,-0.0385011,9,-0.00158045,10,-8.45366e-07,-4.41453,-0.0395374,-1.49226,2.23321,0.02195695,
2,0,0,1,0,16130.8,0.0297635,0.0294499,-0.0225157,9,-0.0016971,10,-6.63085e-07,-4.64751,-0.0312446,-1.88833,1.63987,0.0294499,
2,0,0,1,0,16138.3,0.0372544,0.0369469,-0.010073,9,-0.00170781,10,-3.72168e-07,-4.99684,-0.0138944,-4.24633,1.65118,0.0369469,
2,0,0,1,0,16145.8,0.0447454,0.0444684,0.00161961,9,-0.00162746,10,7.20216e-08,-5.79059,0.0124569,4.73633,1.55682,0.0444684,
2,0,0,1,0,16153.3,0.0522363,0.0519018,0.0118322,9,-0.00146224,10,6.14112e-07,-4.92693,0.0182283,3.23673,1.4553,0.0519018,
2,1,0,1,0,16160.8,0.0597273,0.0593968,0.0218229,9,-0.0012222,10,1.29621e-06,-4.66109,0.0403901,1.46076,1.20129,0.0593968,
2,1,0,1,0,16168.3,0.0672183,0.0668982,0.0296707,9,-0.000913952,10,1.98491e-06,-4.52767,0.0550905,1.07096,1.22436,0.06689816,
2,1,0,1,0,16175.8,0.0747092,0.0743814,0.037332,9,-0.000545314,10,2.77681e-06,-4.42792,0.0869824,0.678298,0.992683,0.0743814,
2,1,0,1,0,16183.2,0.0822001,0.0819102,0.0433327,9,-0.000120889,10,3.54939e-06,-4.36318,0.089231,0.661205,1.13706,0.0819102,
2,1,0,1,0,16190.7,0.0896911,0.0894105,0.0530135,9,0.000362222,10,4.73997e-06,-4.27561,0.0848545,0.695308,1.45238,0.0894105,
2,1,0,1,0,16198.2,0.0971821,0.0968928,0.0642223,9,0.000922654,10,6.22268e-06,-4.19231,0.0862375,0.684157,1.7133,0.0968928,
2,1,0,1,0,16205.7,0.104673,0.104373,0.0765173,9,0.0015681,10,7.98633e-06,-4.11624,0.0981439,0.601158,1.77181,0.104373,
2,1,0,1,0,16213.2,0.112164,0.111817,0.0872282,9,0.00230251,10,9.75359e-06,-4.05934,0.177563,0.332276,1.119,0.111817,
2,1,0,1,0,16220.7,0.119655,0.119346,0.096496,9,0.00311022,10,1.15164e-05,-4.01549,0.176654,0.333987,1.25203,0.119346,
2,1,0,1,0,16228.2,0.127146,0.126828,0.104574,9,0.0039894,10,1.32629e-05,-3.98058,0.282651,0.208738,0.854857,0.126828,
2,1,0,1,0,16235.7,0.134637,0.134309,0.106231,9,0.00491463,10,1.42678e-05,-3.97375,-0.27789,-0.212314,-0.877275,0.1343092,
2,1,0,1,0,16243.2,0.142128,0.141797,0.0906632,9,0.00578275,10,1.28557e-05,-4.04257,-0.0668451,-0.882638,-3.09595,0.141797,
2,1,0,1,0,16250.7,0.149619,0.149331,0.0685257,9,0.00649204,10,1.0233e-05,-4.16415,-0.0744864,-0.792091,-2.14867,0.1493309,
2,1,0,1,0,16258.2,0.15711,0.156765,0.0570771,9,0.00707173,10,8.94772e-06,-4.24354,-0.123769,-0.476694,-1.06027,0.156765,
2,1,0,1,0,16265.6,0.164601,0.164334,0.051919,9,0.00758754,10,8.53204e-06,-4.28467,-0.315573,-0.186961,-0.379126,0.164334,
2,1,0,1,0,16273.1,0.172091,0.171773,0.0494353,9,0.00807664,10,8.49166e-06,-4.30596,-0.305202,-0.193315,-0.374636,0.171773,
2,1,0,1,0,16280.6,0.179582,0.179295,0.0487446,9,0.00854915,10,8.73966e-06,-4.31207,0.67763,0.0870682,0.165635,0.179295,
2,1,0,1,0,16288.1,0.187073,0.186774,0.0482232,9,0.00901828,10,9.00684e-06,-4.31674,-6.64109,-0.00888408,-0.0168443,0.186774,
2,1,0,1,0,16295.6,0.194564,0.194249,0.0491068,9,0.00948611,10,9.53893e-06,-4.30886,-6.09899,-0.00967374,-0.0184201,0.194249,
2,1,0,1,0,16303.1,0.202055,0.201743,0.0492491,9,0.00995616,10,9.93564e-06,-4.3076,-5.24832,-0.0112417,-0.0213691,0.201743,
2,1,0,1,0,16310.6,0.209546,0.209224,0.0490994,9,0.010428,10,1.02728e-05,-4.30892,0.625524,0.0943209,0.182392,0.209224,
2,1,0,1,0,16318.1,0.217037,0.216737,0.0495796,9,0.0109043,10,1.07457e-05,-4.3047,-2.68033,-0.0220122,-0.0430238,0.2167367,
2,1,0,1,0,16325.6,0.224528,0.224215,0.0507362,9,0.0113824,10,1.13758e-05,-4.29468,0.443974,0.132891,0.263314,0.224215,
2,1,0,1,0,16333.1,0.232019,0.231717,0.0520493,9,0.0118707,10,1.20607e-05,-4.28358,0.947234,0.0622866,0.127014,0.231717,
2,1,0,1,0,16340.6,0.23951,0.239214,0.0529764,9,0.0123646,10,1.26727e-05,-4.27592,1.29622,0.0455169,0.0943186,0.239214,
2,1,0,1,0,16348,0.247001,0.246705,0.0540594,9,0.0128657,10,1.33367e-05,-4.26713,1.48294,0.0397857,0.0837847,0.246705,
2,1,0,1,0,16355.5,0.254492,0.254191,0.0551183,9,0.0133735,10,1.40106e-05,-4.2587,1.03449,0.0570329,0.122888,0.2541914,
2,1,0,1,0,16363,0.261983,0.261668,0.0564099,9,0.0138902,10,1.47607e-05,-4.24864,1.12493,0.0524477,0.114978,0.261668,
2,1,0,1,0,16370.5,0.269474,0.269151,0.0572767,9,0.0144125,10,1.54161e-05,-4.24202,0.961979,0.0613319,0.137314,0.2691505,
2,1,0,1,0,16378,0.276965,0.276613,0.0578148,9,0.0149426,10,1.59923e-05,-4.23796,2.85335,0.0206775,0.0469551,0.276613,
2,1,0,1,0,16385.5,0.284456,0.284136,0.0585052,9,0.0154766,10,1.66235e-05,-4.23281,0.822003,0.0717759,0.164686,0.284136,
2,1,0,1,0,16393,0.291947,0.291633,0.0592808,9,0.0160155,10,1.72883e-05,-4.22709,-3.58551,-0.0164551,-0.0382721,0.291633,
2,1,0,1,0,16400.5,0.299438,0.29916,0.0600146,9,0.0165587,10,1.7954e-05,-4.22174,-0.00501703,-11.7599,-19.1678,0.29916,
2,1,0,1,0,16407.3,0.293745,0.293443,0.0123644,9,0.0166465,10,3.62825e-06,-4.90783,0.0184896,3.19099,1.60789,0.293443,
2,1,0,1,0,16414.8,0.286254,0.285931,0.00454367,9,0.0166131,10,1.29918e-06,-5.34259,0.00962931,6.12713,0.932563,0.285931,
2,1,0,1,0,16422.3,0.278763,0.278456,-0.00119531,9,0.0165292,10,-3.3284e-07,-5.92252,-0.00247651,-23.8238,0.699507,0.278456,
2,1,0,1,0,16429.8,0.271272,0.270958,-0.00566274,9,0.0164072,10,-1.53437e-06,-5.24697,-0.0289907,-2.03513,0.453871,0.270958,
2,0,0,1,0,16437.3,0.263781,0.263479,-0.00987134,9,0.0162535,10,-2.6009e-06,-5.00562,-0.053683,-1.09904,0.407653,0.263479,
2,0,0,1,0,16444.8,0.25629,0.255962,-0.0138239,9,0.0160714,10,-3.5384e-06,-4.85937,-0.0675704,-0.873164,0.453018,0.255962,
2,0,0,1,0,16452.3,0.248799,0.2485,-0.0166982,9,0.015863,10,-4.14951e-06,-4.77733,-0.0906891,-0.650574,0.425489,0.2485,
2,0,0,1,0,16459.8,0.241308,0.240966,-0.0202397,9,0.0156302,10,-4.87709e-06,-4.6938,-0.0914936,-0.644854,0.491159,0.240966,
2,0,0,1,0,16467.3,0.233817,0.233507,-0.0227825,9,0.0153726,10,-5.31987e-06,-4.6424,-0.125308,-0.47084,0.418103,0.233507,
2,0,0,1,0,16474.7,0.226326,0.226055,-0.0256472,9,0.0150941,10,-5.7977e-06,-4.59096,-0.168059,-0.351068,0.350806,0.226055,
2,0,0,1,0,16482.2,0.218835,0.218495,-0.028121,9,0.0147937,10,-6.1443e-06,-4.55097,-0.412644,-0.14298,0.157583,0.218495,
2,0,0,1,0,16489.7,0.211344,0.211025,-0.03085,9,0.0144733,10,-6.51013e-06,-4.51074,-0.126119,-0.467811,0.560482,0.2110254,
2,0,0,1,0,16497.2,0.203853,0.203525,-0.0335628,9,0.0141289,10,-6.83087e-06,-4.47414,-0.233839,-0.25231,0.333902,0.2035251,
2,0,0,1,0,16504.7,0.196362,0.196046,-0.0367606,9,0.0137621,10,-7.20677e-06,-4.43462,-0.234485,-0.251615,0.36316,0.196046,
2,0,0,1,0,16512.2,0.188871,0.188576,-0.0405578,9,0.013368,10,-7.64825e-06,-4.39193,-0.235753,-0.250262,0.397569,0.188576,
2,0,0,1,0,16519.7,0.18138,0.181074,-0.0444129,9,0.0129477,10,-8.04203e-06,-4.35249,-0.238942,-0.246921,0.428199,0.181074,
2,0,0,1,0,16527.2,0.173889,0.173577,-0.0488198,9,0.0124951,10,-8.474e-06,-4.3114,-0.176013,-0.335202,0.638831,0.173577,
2,0,0,1,0,16534.7,0.166398,0.166079,-0.0551854,9,0.0120015,10,-9.16513e-06,-4.25818,-0.14296,-0.412704,0.885637,0.166079,
2,0,0,1,0,16542.2,0.158907,0.158615,-0.0625282,9,0.0114529,10,-9.91788e-06,-4.20392,-0.113458,-0.520014,1.28125,0.158615,
2,0,0,1,0,16549.7,0.151417,0.151082,-0.0752295,9,0.0108243,10,-1.13658e-05,-4.12361,-0.0868338,-0.679459,2.01132,0.151082,
2,0,0,1,0,16557.1,0.143926,0.143634,-0.0953834,9,0.0100729,10,-1.37003e-05,-4.02053,-0.0663886,-0.888707,3.30757,0.143634,
2,0,0,1,0,16564.6,0.136435,0.136097,-0.123323,9,0.0091389,10,-1.67839e-05,-3.90895,-0.0774345,-0.761934,3.62841,0.136097,
2,0,0,1,0,16572.1,0.128944,0.128665,-0.144165,9,0.00800963,10,-1.85489e-05,-3.84114,-0.189223,-0.311801,1.7435,0.128665,
2,0,0,1,0,16579.6,0.121453,0.12115,-0.150815,9,0.00677571,10,-1.82712e-05,-3.82155,-5.76269,-0.0102383,0.0602437,0.12115,
2,0,0,1,0,16587.1,0.113962,0.113661,-0.147962,9,0.00553014,10,-1.68175e-05,-3.82985,1.01986,0.0578509,-0.33491,0.113661,
2,0,0,1,0,16594.6,0.106471,0.106154,-0.145331,9,0.00430729,10,-1.54275e-05,-3.83764,0.885844,0.0666031,-0.379936,0.106154,
2,0,0,1,0,16602.1,0.0989798,0.0986254,-0.140119,9,0.0031173,10,-1.38193e-05,-3.8535,0.423592,0.139285,-0.759829,0.0986254,
2,0,0,1,0,16609.6,0.0914889,0.0911485,-0.133633,9,0.00197259,10,-1.21804e-05,-3.87409,0.459805,0.128315,-0.671978,0.0911485,
2,0,0,1,0,16617.1,0.083998,0.0837077,-0.128152,9,0.000873247,10,-1.07273e-05,-3.89227,0.286087,0.206231,-1.03235,0.08370775,
2,0,0,1,0,16624.6,0.076507,0.0761215,-0.123554,9,-0.000187882,10,-9.40512e-06,-3.90814,0.40825,0.144519,-0.696645,0.0761215,
2,0,0,1,0,16632.1,0.069016,0.0687113,-0.119992,9,-0.00121629,10,-8.24478e-06,-3.92085,0.486307,0.121323,-0.569306,0.0687113,
2,0,0,1,0,16639.5,0.0615251,0.0611889,-0.11682,9,-0.00221903,10,-7.14809e-06,-3.93248,0.877602,0.0672287,-0.30708,0.0611889,
2,0,0,1,0,16647,0.0540342,0.0537098,-0.114613,9,-0.0031983,10,-6.15582e-06,-3.94077,0.667403,0.0884023,-0.393637,0.0537098,
2,0,0,1,0,16654.5,0.0465432,0.0461947,-0.110881,9,-0.00415553,10,-5.12212e-06,-3.95514,0.76664,0.0769592,-0.33477,0.0461947,
2,0,0,1,0,16662,0.0390522,0.0387326,-0.108018,9,-0.00509151,10,-4.18381e-06,-3.9665,0.528226,0.111695,-0.471996,0.0387326,
2,0,0,1,0,16669.5,0.0315613,0.031209,-0.105461,9,-0.00600418,10,-3.29133e-06,-3.97691,0.644785,0.0915034,-0.377923,0.031209,
2,0,0,1,0,16677,0.0240703,0.0237756,-0.10303,9,-0.00689764,10,-2.44959e-06,-3.98704,1.09615,0.0538248,-0.217289,0.0237756,
2,0,0,1,0,16684.5,0.0165794,0.0162531,-0.103162,9,-0.0077796,10,-1.67671e-06,-3.98648,-7.43963,-0.00793051,0.0317561,0.0162531,
2,0,0,1,0,16692,0.00908843,0.00875596,-0.104119,9,-0.00866389,10,-9.11659e-07,-3.98247,-1.09383,-0.0539389,0.219828,0.00875596,
2,0,0,1,0,16699.5,0.00159744,0.00121859,-0.10778,9,-0.00956577,10,-1.3134e-07,-3.96746, , , ,0.00121859,
2,0,0,1,0,16700.9,0.000199235,-0.000224141,-0.107808,9,-0.00973662,10,2.41641e-08,-3.96735, , , ,-0.000224141,