File: Figure_codes/Fig_3-5/rawdata_trumpetplot_data/after 10th/20221101_1-115_003_TrumpetPlot_ParaChange_from10_every3_14_CV_C01_6.csv
mode,ox/red,error,control changes,counter inc.,time/s,control/V,Ewe/V,<I>/mA,cycle number,(Q-Qo)/C,I Range,P/W,log(|I|),Tafel slope mV/dec,alpha_eff,dI/d(E-IR),E-IR/V,
2,1,0,1,0,13019.9,2.44065e-05,-0.000306236,41.4284,7,0.0000000E+000,10,-1.26869e-05,-1.3827, , , ,-0.000306236,
2,1,0,1,0,13019.9,0.0133084,0.0129584,45.068,7,0.00057074,10,0.000584008,-1.34613,0.499936,0.118015,206.826,0.0129584,
2,1,0,1,0,13019.9,0.0273414,0.0269717,47.5118,7,0.00121993,10,0.00128147,-1.3232,0.726513,0.0812099,150.17,0.0269717,
2,1,0,1,0,13019.9,0.0413245,0.0409277,49.3465,7,0.0018985,10,0.00201964,-1.30674,0.953306,0.0618899,119.037,0.0409277,
2,1,0,1,0,13019.9,0.0553076,0.0549452,50.8748,7,0.00260038,10,0.00279533,-1.2935,1.0486,0.0562655,111.785,0.0549452,
2,1,0,1,0,13020,0.0693407,0.0690009,52.4534,7,0.00332388,10,0.00361933,-1.28023,1.0746,0.0549044,112.337,0.06900087,
2,1,0,1,0,13020,0.0833238,0.0828487,54.0118,7,0.0040692,10,0.00447481,-1.26751,0.981524,0.0601106,126.952,0.0828487,
2,1,0,1,0,13020,0.0973069,0.096932,56.0096,7,0.00483942,10,0.00542912,-1.25174,0.850034,0.069409,151.847,0.096932,
2,1,0,1,0,13020,0.11134,0.11098,58.2272,7,0.00563915,10,0.00646207,-1.23487,0.807179,0.0730941,166.172,0.11098,
2,1,0,1,0,13020,0.125323,0.124963,60.6666,7,0.00647133,10,0.00758106,-1.21705,0.766441,0.0769792,182.307,0.124963,
2,1,0,1,0,13020,0.139306,0.138977,63.3376,7,0.00733922,10,0.00880247,-1.19834,0.712963,0.0827533,204.772,0.138977,
2,1,0,1,0,13020,0.153339,0.152981,66.3883,7,0.00824733,10,0.0101561,-1.17791,0.670511,0.0879926,228.158,0.152981,
2,1,0,1,0,13020.1,0.167322,0.166969,69.7339,7,0.00920035,10,0.0116434,-1.15656,0.657643,0.0897143,244.132,0.166969,
2,1,0,1,0,13020.1,0.181305,0.180952,73.1168,7,0.0102009,10,0.0132306,-1.13598,0.723964,0.0814957,232.351,0.180952,
2,1,0,1,0,13020.1,0.195338,0.19502,76.1252,7,0.0112467,10,0.0148459,-1.11847,0.952452,0.0619454,183.665,0.19502,
2,1,0,1,0,13020.1,0.209322,0.209035,78.1511,7,0.0123283,10,0.0163363,-1.10707,2.09242,0.028197,85.6544,0.209035,
2,1,0,1,0,13020.1,0.223305,0.22298,78.3132,7,0.0134262,10,0.0174623,-1.10616,-2.32376,-0.0253898,-77.17,0.22298,
2,1,0,1,0,13020.1,0.237338,0.236977,75.8059,7,0.0145083,10,0.0179642,-1.1203,-0.611869,-0.0964258,-283.542,0.236977,
2,1,0,1,0,13020.1,0.251321,0.251059,70.5763,7,0.0155351,10,0.0177188,-1.15134,-0.369571,-0.159644,-437.886,0.251059,
2,1,0,1,0,13020.2,0.265304,0.264995,63.8871,7,0.0164765,10,0.0169297,-1.19459,-0.304139,-0.193991,-483.347,0.264995,
2,1,0,1,0,13020.2,0.279337,0.279023,57.2706,7,0.0173234,10,0.0159798,-1.24207,-0.294262,-0.200501,-448.87,0.279023,
2,1,0,1,0,13020.2,0.29332,0.293001,51.5647,7,0.0180833,10,0.0151085,-1.28765,-0.3208,-0.183915,-372.963,0.293001,
2,1,0,1,0,13020.2,0.298714,0.298661,45.8703,7,0.0184813,10,0.0136996,-1.33847,0.0378405,1.55918,2376.16,0.298661,
2,1,0,1,0,13020.2,0.28473,0.284533,21.6688,7,0.0189326,10,0.00616547,-1.66417,0.0387113,1.5241,1283.1,0.284533,
2,1,0,1,0,13020.2,0.270747,0.270499,7.67034,7,0.0191294,10,0.00207482,-2.11519,0.0183235,3.21991,803.236,0.270499,
2,0,0,1,0,13020.2,0.256714,0.25646,-1.49213,7,0.0191673,10,-0.00038267,-2.82619,-0.0747054,-0.789769,538.591,0.25646,
2,0,0,1,0,13020.2,0.242731,0.242451,-7.78587,7,0.0190992,10,-0.00188769,-2.10869,-0.0427328,-1.38067,381.068,0.242451,
2,0,0,1,0,13020.3,0.228748,0.228463,-12.3427,7,0.0189564,10,-0.00281984,-1.90859,-0.0973976,-0.605764,284.572,0.228463,
2,0,0,1,0,13020.3,0.214715,0.214404,-15.8337,7,0.0187575,10,-0.0033948,-1.80042,-0.163377,-0.361127,220.89,0.214404,
2,0,0,1,0,13020.3,0.200732,0.200442,-18.6327,7,0.0185153,10,-0.00373479,-1.72972,-0.231708,-0.254631,184.161,0.200442,
2,0,0,1,0,13020.3,0.186735,0.186472,-21.056,7,0.0182371,10,-0.00392634,-1.67662,-0.289064,-0.204107,167.289,0.186472,
2,0,0,1,0,13020.3,0.172716,0.172399,-23.3295,7,0.0179259,10,-0.00402198,-1.6321,-0.32925,-0.179195,163.13,0.172399,
2,0,0,1,0,13020.3,0.158733,0.158413,-25.7045,7,0.0175828,10,-0.00407193,-1.58999,-0.321168,-0.183705,184.73,0.158413,
2,0,0,1,0,13020.3,0.144719,0.144428,-28.6455,7,0.0172031,10,-0.0041372,-1.54294,-0.275687,-0.214011,240.089,0.144428,
2,0,0,1,0,13020.4,0.130717,0.130417,-32.5342,7,0.0167758,10,-0.00424303,-1.48766,-0.231688,-0.254653,324.884,0.130417,
2,0,0,1,0,13020.4,0.116733,0.116432,-37.7484,7,0.0162848,10,-0.00439511,-1.4231,-0.209086,-0.28218,416.594,0.116432,
2,0,0,1,0,13020.4,0.102703,0.102418,-44.0408,7,0.0157127,10,-0.00451059,-1.35615,-0.219012,-0.269392,461.957,0.1024185,
2,0,0,1,0,13020.4,0.0887173,0.0884604,-50.4678,7,0.0150503,10,-0.0044644,-1.29699,-0.260735,-0.226283,444.067,0.0884604,
2,0,0,1,0,13020.4,0.0747341,0.074585,-56.2363,7,0.0143014,10,-0.00419439,-1.24998,-0.331672,-0.177886,389.575,0.074585,
2,0,0,1,0,13020.4,0.0607011,0.0605176,-61.3704,7,0.0134766,10,-0.00371399,-1.21204,-0.441284,-0.133701,318.8,0.06051762,
2,0,0,1,0,13020.4,0.046718,0.0465245,-65.1825,7,0.0125891,10,-0.00303258,-1.18587,-0.647298,-0.0911482,231.119,0.0465245,
2,0,0,1,0,13020.5,0.0327349,0.0324444,-67.7763,7,0.0116566,10,-0.00219896,-1.16892,-1.12358,-0.0525107,138.464,0.0324444,
2,0,0,1,0,13020.5,0.0187018,0.0183612,-69.1989,7,0.0106967,10,-0.00127057,-1.1599,-2.33768,-0.0252387,67.9966,0.0183612,
2,0,0,1,0,13020.5,0.00471873,0.00444014,-69.7353,7,0.00972348,10,-0.000309635,-1.15655,-8.02967,-0.00734775,19.9764,0.00444014,
2,0,0,1,0,13020.5,-0.00926438,-0.00959858,-69.7616,7,0.00874629,10,0.000669612,-1.15638,8.87253,0.00664974,-18.0832,-0.009598583,
2,0,0,1,0,13020.5,-0.0232974,-0.0237105,-69.3023,7,0.00777246,10,0.00164319,-1.15925,3.00212,0.0196528,-53.0594,-0.0237105,
2,0,0,1,0,13020.5,-0.0372805,-0.0376209,-68.2068,7,0.00680932,10,0.002566,-1.16617,1.55867,0.0378528,-100.602,-0.0376209,
2,0,0,1,0,13020.5,-0.0512636,-0.0515918,-66.5397,7,0.00586583,10,0.0034329,-1.17692,1.15694,0.0509966,-132.312,-0.0515918,
2,0,0,1,0,13020.6,-0.0652967,-0.0656623,-64.6482,7,0.00494787,10,0.00424495,-1.18944,1.12167,0.0526003,-132.705,-0.0656623,
2,0,0,1,0,13020.6,-0.0792798,-0.0796427,-62.8696,7,0.00405575,10,0.0050071,-1.20156,1.29602,0.0455239,-111.85,-0.0796427,
2,0,0,1,0,13020.6,-0.0932629,-0.0936093,-61.5669,7,0.00318541,10,0.00576323,-1.21065,1.9222,0.0306939,-73.8483,-0.0936093,
2,0,0,1,0,13020.6,-0.107296,-0.107659,-60.8516,7,0.00232934,10,0.0065512,-1.21573,4.27209,0.0138106,-32.8261,-0.107659,
2,0,0,1,0,13020.6,-0.121279,-0.121622,-60.5612,7,0.00147999,10,0.00736558,-1.21781,26.8157,0.0022002,-5.207,-0.121622,
2,0,0,1,0,13020.6,-0.135262,-0.135613,-60.7069,7,0.000631535,10,0.00823266,-1.21676,-6.40961,-0.00920494,21.8256,-0.1356131,
2,0,0,1,0,13020.6,-0.149295,-0.149645,-61.2318,7,-0.000221622,10,0.00916306,-1.21302,-3.04026,-0.0194062,46.3826,-0.149645,
2,0,0,1,0,13020.7,-0.163278,-0.163658,-61.9272,7,-0.00108366,10,0.0101349,-1.20812,-2.48573,-0.0237355,57.4068,-0.1636577,
2,0,0,1,0,13020.7,-0.177261,-0.177589,-62.8278,7,-0.00195692,10,0.0111576,-1.20185,-2.14075,-0.0275604,67.5875,-0.177589,
2,0,0,1,0,13020.7,-0.191295,-0.191602,-63.8958,7,-0.0028437,10,0.0122425,-1.19453,-1.84637,-0.0319546,79.6367,-0.191602,
2,0,0,0,1,13020.7,-0.199984,-0.200647,-64.2534,7,-0.0034411,10,0.0128922,-1.1921,-0.039075,-1.50992,3337.71,-0.200647,
2,0,0,1,1,13020.7,-0.186686,-0.187116,-40.7122,7,-0.00410646,10,0.0076179,-1.39028,-0.0690357,-0.85463,1367.01,-0.187116,
2,0,0,1,1,13020.7,-0.172667,-0.173041,-24.7226,7,-0.00455693,10,0.00427803,-1.60691,-0.0571634,-1.03213,985.221,-0.173041,
2,0,0,1,1,13020.7,-0.158684,-0.159137,-12.4653,7,-0.00481292,10,0.0019837,-1.9043,-0.0342173,-1.72427,788.905,-0.159137,
2,0,0,1,1,13020.7,-0.14467,-0.145138,-2.4289,7,-0.00491423,10,0.000352524,-2.61459,-0.0327178,-1.8033,656.892,-0.145138,
2,1,0,1,1,13020.8,-0.130668,-0.131142,6.00913,7,-0.0048866,10,-0.000788051,-2.22119,0.0182145,3.23918,557.612,-0.131142,
2,1,0,1,1,13020.8,-0.116685,-0.117189,13.2775,7,-0.00474995,10,-0.00155597,-1.87689,0.0602439,0.979353,486.322,-0.117189,
2,1,0,1,1,13020.8,-0.102654,-0.103133,19.7123,7,-0.00451784,10,-0.00203298,-1.70526,0.103634,0.569309,429.987,-0.103133,
2,1,0,1,1,13020.8,-0.0886685,-0.0890803,25.2969,7,-0.00420126,10,-0.00225346,-1.59693,0.154213,0.382587,374.52,-0.0890803,
2,1,0,1,1,13020.8,-0.0746854,-0.0750999,30.2337,7,-0.00381131,10,-0.00227055,-1.51951,0.208646,0.282775,331.741,-0.0750999,
2,1,0,1,1,13020.8,-0.0606523,-0.0610474,34.6649,7,-0.00335639,10,-0.0021162,-1.46011,0.269557,0.218878,294.471,-0.0610474,
2,1,0,1,1,13020.8,-0.0466692,-0.0470352,38.4666,7,-0.00284357,10,-0.00180928,-1.41492,0.345675,0.170681,255.535,-0.0470352,
2,1,0,1,1,13020.9,-0.0326861,-0.033059,41.8015,7,-0.0022807,10,-0.00138192,-1.37881,0.436211,0.135256,220.155,-0.033059,
2,1,0,1,1,13020.9,-0.018653,-0.0190754,44.7251,7,-0.00167446,10,-0.000853151,-1.34945,0.54154,0.108949,189.574,-0.0190754,
2,1,0,1,1,13020.9,-0.00466992,-0.00505792,47.085,7,-0.00103108,10,-0.000238152,-1.32712, , , ,-0.00505792,
2,1,0,0,1,13020.9,-0.000175352,-0.000573459,47.7665,7,-0.000817636,10,-2.73921e-05,-1.32088, , , ,-0.000573459,