File: Figure_codes/Fig_3-5/rawdata_trumpetplot_data/after 10th/20221101_1-115_003_TrumpetPlot_ParaChange_from10_every3_08_CV_C01_1.csv
mode,ox/red,error,control changes,counter inc.,time/s,control/V,Ewe/V,<I>/mA,cycle number,(Q-Qo)/C,I Range,P/W,log(|I|),Tafel slope mV/dec,alpha_eff,dI/d(E-IR),E-IR/V,
2,0,0,0,0,3145.15,2.44065e-05,-0.000248974,-3.88696,2,0.0000000E+000,10,9.67754e-07,-2.41039, , , ,-0.000248974,
2,1,0,1,0,3145.24,0.0072942,0.00698853,2.09572,2,2.25655e-05,10,1.4646e-05,-2.67867,0.0185605,3.17879,241.391,0.00698853,
2,1,0,1,0,3145.33,0.0147816,0.0144326,2.97922,2,0.000270617,10,4.29979e-05,-2.5259,0.102199,0.577303,67.0245,0.0144326,
2,1,0,1,0,3145.43,0.0222707,0.0220092,3.37011,2,0.000570476,10,7.41736e-05,-2.47236,0.188433,0.313109,41.1669,0.0220092,
2,1,0,1,0,3145.52,0.0297581,0.0294741,3.68679,2,0.000901438,10,0.000108665,-2.43335,0.198372,0.297421,42.6867,0.0294741,
2,1,0,1,0,3145.61,0.0372544,0.0369137,4.00275,2,0.0012625,10,0.000147756,-2.39764,0.203845,0.289436,45.2668,0.0369137,
2,1,0,1,0,3145.71,0.0447507,0.0444228,4.35604,2,0.00165539,10,0.000193508,-2.36091,0.211366,0.279137,47.5158,0.0444228,
2,1,0,1,0,3145.8,0.0522381,0.0519283,4.73462,2,0.00208186,10,0.00024586,-2.32472,0.200063,0.294907,54.4697,0.0519283,
2,1,0,1,0,3145.9,0.0597273,0.0594163,5.10997,2,0.00254403,10,0.000303616,-2.29158,0.220706,0.267324,53.3055,0.0594163,
2,1,0,1,0,3145.99,0.0672147,0.0668982,5.48952,2,0.00304128,10,0.000367239,-2.26047,0.269266,0.219114,46.8751,0.06689816,
2,1,0,1,0,3146.08,0.0747038,0.0743991,5.83656,2,0.00357222,10,0.000434235,-2.23384,0.304406,0.19382,44.0945,0.0743991,
2,1,0,1,0,3146.18,0.0822055,0.0819458,6.14032,2,0.00413545,10,0.000503174,-2.21181,0.357235,0.165158,39.61,0.0819458,
2,1,0,1,0,3146.27,0.0896946,0.0893919,6.44587,2,0.00472617,10,0.000576209,-2.19072,0.380421,0.155091,39.0837,0.0893919,
2,1,0,1,0,3146.36,0.097182,0.0969256,6.79289,2,0.0053468,10,0.000658405,-2.16795,0.317557,0.185794,49.2153,0.0969256,
2,1,0,1,0,3146.46,0.104671,0.104337,7.2464,2,0.00600316,10,0.000756067,-2.13988,0.223122,0.264429,74.7628,0.104337,
2,1,0,1,0,3146.55,0.112159,0.111871,7.8382,2,0.00670929,10,0.00087687,-2.10578,0.211851,0.278497,85.2055,0.111871,
2,1,0,1,0,3146.64,0.119655,0.119356,8.51585,2,0.00747626,10,0.00101642,-2.06977,0.23076,0.255677,84.8702,0.1193561,
2,1,0,1,0,3146.74,0.127149,0.126826,9.09825,2,0.00830332,10,0.0011539,-2.04104,0.268083,0.220081,78.1745,0.1268262,
2,1,0,1,0,3146.83,0.134639,0.13437,9.60065,2,0.00918103,10,0.00129004,-2.0177,0.397977,0.14825,55.5759,0.13437,
2,1,0,1,0,3146.93,0.142126,0.141837,9.99838,2,0.0101006,10,0.00141814,-2.00007,0.571199,0.103292,40.2401,0.141837,
2,1,0,1,0,3147.02,0.149615,0.149311,10.0382,2,0.0110438,10,0.00149882,-1.99834,-0.625237,-0.0943643,-36.8499,0.149311,
2,1,0,1,0,3147.11,0.157103,0.156802,9.22374,2,0.011955,10,0.0014463,-2.03509,-0.112511,-0.524394,-187.707,0.156802,
2,1,0,1,0,3147.21,0.164606,0.164319,7.4311,2,0.012741,10,0.00122107,-2.12895,-0.0663531,-0.889183,-257.641,0.164319,
2,1,0,1,0,3147.3,0.172095,0.171775,5.79944,2,0.0133554,10,0.0009962,-2.23661,-0.0808968,-0.729324,-165.833,0.171775,
2,1,0,1,0,3147.39,0.179582,0.179282,4.88624,2,0.0138525,10,0.000876016,-2.31103,-0.125605,-0.469725,-89.9805,0.179282,
2,1,0,1,0,3147.49,0.18707,0.186778,4.36813,2,0.0142851,10,0.000815872,-2.3597,-0.174928,-0.337282,-57.5851,0.1867781,
2,1,0,1,0,3147.58,0.194559,0.194291,4.03538,2,0.0146781,10,0.000784038,-2.39412,-0.269838,-0.21865,-34.4093,0.194291,
2,1,0,1,0,3147.67,0.202062,0.201809,3.79421,2,0.0150456,10,0.000765706,-2.42088,-0.363831,-0.162163,-24.0477,0.201809,
2,1,0,1,0,3147.77,0.20955,0.209261,3.63705,2,0.0153944,10,0.000761093,-2.43925,-0.338105,-0.174502,-24.8115,0.209261,
2,1,0,1,0,3147.86,0.217039,0.216751,3.52122,2,0.0157301,10,0.00076323,-2.45331,-0.599474,-0.0984195,-13.5236,0.216751,
2,1,0,1,0,3147.96,0.224526,0.224267,3.42771,2,0.0160565,10,0.000768724,-2.465,-0.899583,-0.065586,-8.79508,0.2242673,
2,1,0,1,0,3148.05,0.232016,0.231705,3.36442,2,0.0163756,10,0.000779552,-2.47309,-0.863437,-0.0683316,-8.96752,0.231705,
2,1,0,1,0,3148.14,0.23951,0.239226,3.31617,2,0.0166894,10,0.000793316,-2.47936,-1.39335,-0.0423439,-5.46647,0.2392264,
2,1,0,1,0,3148.24,0.247006,0.246694,3.26363,2,0.0169983,10,0.000805117,-2.4863,-1.24323,-0.0474571,-6.03577,0.246694,
2,1,0,1,0,3148.33,0.254494,0.254198,3.21993,2,0.0173028,10,0.000818498,-2.49215,-0.909369,-0.0648802,-8.15911,0.254198,
2,1,0,1,0,3148.42,0.261983,0.261715,3.18586,2,0.0176036,10,0.000833787,-2.49677,-1.6112,-0.0366187,-4.54466,0.261715,
2,1,0,1,0,3148.52,0.26947,0.269187,3.14503,2,0.0179009,10,0.000846603,-2.50237,-4.29673,-0.0137314,-1.68833,0.269187,
2,1,0,1,0,3148.61,0.276959,0.276636,3.11455,2,0.0181951,10,0.000861597,-2.5066,-2.08613,-0.0282821,-3.43821,0.276636,
2,1,0,1,0,3148.7,0.284461,0.284151,3.08631,2,0.0184866,10,0.00087698,-2.51056,-1.5361,-0.038409,-4.61506,0.284151,
2,1,0,1,0,3148.8,0.29195,0.291714,3.04759,2,0.0187745,10,0.000889026,-2.51604,-1.86379,-0.031656,-3.75837,0.2917144,
2,1,0,1,0,3148.89,0.299438,0.29915,3.00935,2,0.0190592,10,0.000900249,-2.52153,-0.0202214,-2.91771,-303.794,0.29915,
2,0,0,1,0,3148.97,0.29424,0.293925,-0.935696,2,0.0190843,10,-0.000275025,-3.02887,-0.014897,-3.96054,127.547,0.293925,
2,0,0,1,0,3149.06,0.286753,0.286425,-1.35338,2,0.0189722,10,-0.000387642,-2.86858,-0.0872651,-0.676101,35.7237,0.286425,
2,0,0,1,0,3149.16,0.279264,0.278968,-1.57536,2,0.0188332,10,-0.000439475,-2.80262,-0.157662,-0.374219,22.9618,0.278968,
2,0,0,1,0,3149.25,0.271776,0.271454,-1.73852,2,0.0186772,10,-0.000471928,-2.75982,-0.171159,-0.344709,23.3266,0.271454,
2,0,0,1,0,3149.35,0.26428,0.263948,-1.85899,2,0.0185074,10,-0.000490677,-2.73072,-0.246019,-0.239819,17.415,0.263948,
2,0,0,1,0,3149.44,0.256786,0.256475,-1.97827,2,0.0183264,10,-0.000507377,-2.70372,-0.351664,-0.167774,12.9157,0.256475,
2,0,0,1,0,3149.53,0.249296,0.24896,-2.08209,2,0.0181359,10,-0.000518357,-2.6815,-0.35849,-0.164579,13.3347,0.24896,
2,0,0,1,0,3149.63,0.241809,0.241528,-2.15884,2,0.0179362,10,-0.000521419,-2.66578,-0.398974,-0.147879,12.5175,0.241528,
2,0,0,1,0,3149.72,0.23432,0.234039,-2.25313,2,0.0177282,10,-0.000527321,-2.64721,-0.5598,-0.105395,9.30341,0.234039,
2,0,0,1,0,3149.81,0.226833,0.226497,-2.35417,2,0.0175118,10,-0.000533212,-2.62816,-0.379698,-0.155387,14.2427,0.2264971,
2,0,0,1,0,3149.91,0.219329,0.219049,-2.43547,2,0.0172869,10,-0.000533485,-2.61342,-0.362059,-0.162957,15.4736,0.219049,
2,0,0,1,0,3150,0.21184,0.211517,-2.52084,2,0.0170538,10,-0.0005332,-2.59846,-0.607699,-0.0970876,9.55695,0.211517,
2,0,0,1,0,3150.09,0.204353,0.204009,-2.63459,2,0.0168117,10,-0.000537479,-2.57929,-0.523192,-0.112769,11.5697,0.204009,
2,0,0,1,0,3150.19,0.196863,0.196593,-2.73105,2,0.0165598,10,-0.000536905,-2.56367,-0.339517,-0.173776,18.5805,0.196593,
2,0,0,1,0,3150.28,0.189376,0.189077,-2.86909,2,0.0162963,10,-0.000542479,-2.54226,-0.371082,-0.158994,17.8707,0.189077,
2,0,0,1,0,3150.38,0.18188,0.181581,-3.04986,2,0.0160185,10,-0.000553795,-2.51572,-0.265456,-0.222259,26.3901,0.181581,
2,0,0,1,0,3150.47,0.174385,0.174054,-3.2697,2,0.0157224,10,-0.000569106,-2.48549,-0.191046,-0.308826,39.4137,0.174054,
2,0,0,1,0,3150.56,0.166896,0.16659,-3.58881,2,0.0154015,10,-0.000597858,-2.44505,-0.164409,-0.358861,50.2582,0.16659,
2,0,0,1,0,3150.66,0.159409,0.159125,-4.06624,2,0.0150439,10,-0.000647042,-2.39081,-0.12387,-0.476307,75.6691,0.159125,
2,0,0,1,0,3150.75,0.151919,0.151622,-4.78586,2,0.0146309,10,-0.000725642,-2.32004,-0.0912515,-0.646565,121.215,0.151622,
2,0,0,1,0,3150.84,0.144425,0.144097,-5.85784,2,0.0141336,10,-0.000844098,-2.23226,-0.0817938,-0.721326,165.284,0.144097,
2,0,0,1,0,3150.94,0.136929,0.136604,-7.20695,2,0.0135216,10,-0.000984496,-2.14225,-0.0920968,-0.640631,179.655,0.136604,
2,0,0,1,0,3151.03,0.129441,0.129108,-8.51407,2,0.0127843,10,-0.00109924,-2.06986,-0.121441,-0.485832,161.129,0.129108,
2,0,0,1,0,3151.12,0.121952,0.121646,-9.51616,2,0.0119363,10,-0.00115761,-2.02154,-0.210164,-0.280733,104.032,0.121646,
2,0,0,1,0,3151.22,0.114465,0.114141,-10.1003,2,0.0110143,10,-0.00115286,-1.99567,-0.557043,-0.105916,41.657,0.114141,
2,0,0,1,0,3151.31,0.106976,0.106674,-10.2187,2,0.0100597,10,-0.00109008,-1.9906,2.59038,0.0227766,-9.07219,0.106674,
2,0,0,1,0,3151.41,0.0994721,0.0991701,-9.94174,2,0.00911023,10,-0.000985923,-2.00254,0.395414,0.149211,-57.8454,0.0991701,
2,0,0,1,0,3151.5,0.0919847,0.091635,-9.36035,2,0.00820433,10,-0.000857736,-2.02871,0.234406,0.2517,-91.9124,0.091635,
2,0,0,1,0,3151.59,0.0844973,0.0842029,-8.6989,2,0.00735906,10,-0.000732473,-2.06054,0.249801,0.236188,-80.1871,0.0842029,
2,0,0,1,0,3151.69,0.0770082,0.0766436,-8.15355,2,0.00657104,10,-0.000624917,-2.08865,0.328483,0.179614,-57.2249,0.0766436,
2,0,0,1,0,3151.78,0.0695208,0.06919,-7.78519,2,0.00582491,10,-0.000538657,-2.10873,0.388426,0.151895,-46.1668,0.06919,
2,0,0,1,0,3151.87,0.0620245,0.0617061,-7.50136,2,0.00510842,10,-0.00046288,-2.12486,0.504104,0.117039,-34.2388,0.0617061,
2,0,0,1,0,3151.97,0.0545282,0.0542283,-7.21531,2,0.00441795,10,-0.000391274,-2.14175,0.517199,0.114076,-32.161,0.0542283,
2,0,0,1,0,3152.06,0.0470408,0.0467382,-6.92096,2,0.0037543,10,-0.000323473,-2.15983,0.36108,0.163399,-44.1673,0.0467382,
2,0,0,1,0,3152.15,0.0395517,0.0392614,-6.59137,2,0.00312083,10,-0.000258786,-2.18102,0.312979,0.188511,-48.402,0.0392614,
2,0,0,1,0,3152.25,0.0320643,0.0317151,-6.18537,2,0.0025223,10,-0.00019617,-2.20863,0.26471,0.222886,-53.7936,0.0317151,
2,0,0,1,0,3152.34,0.0245751,0.0242646,-5.80551,2,0.00196048,10,-0.000140868,-2.23616,0.274669,0.214804,-48.7197,0.0242646,
2,0,0,1,0,3152.44,0.0170735,0.0167646,-5.51592,2,0.00142934,10,-9.24725e-05,-2.25838,0.396742,0.148711,-32.0484,0.0167646,
2,0,0,1,0,3152.53,0.00958429,0.00925549,-5.32328,2,0.000921782,10,-4.92695e-05,-2.27382,0.831801,0.0709304,-14.7552,0.00925549,
2,0,0,1,0,3152.62,0.0020969,0.0017569,-5.29015,2,0.000427138,10,-9.29426e-06,-2.27653,-37.8783,-0.00155762,0.319018,0.0017569,
2,0,0,1,0,3152.65,0.000199195,-0.00014972,-5.24858,2,0.000301995,10,7.85819e-07,-2.27996, , , ,-0.0001497202,