File: Figure_codes/Fig_3-5/rawdata_trumpetplot_data/after 10th/20221101_1-115_003_TrumpetPlot_ParaChange_from10_every3_02_CV_C01_2.csv
mode,ox/red,error,control changes,counter inc.,time/s,control/V,Ewe/V,<I>/mA,cycle number,(Q-Qo)/C,I Range,P/W,log(|I|),Tafel slope mV/dec,alpha_eff,dI/d(E-IR),E-IR/V,
2,0,0,1,0,4280.29,2.44065e-05,-0.000382585,-0.349355,3,0.0000000E+000,10,1.33658e-07,-3.45673, , , ,-0.000382585,
2,0,0,1,0,4287.56,0.00729061,0.00693732,-0.0944519,3,-0.000883365,10,-6.55243e-07,-4.02479,-0.0313963,-1.8792,7.01799,0.00693732,
2,0,0,1,0,4295.05,0.0147815,0.0144556,-0.0600225,3,-0.00133058,10,-8.67663e-07,-4.22169,-0.0406946,-1.44983,3.43044,0.0144556,
2,0,0,1,0,4302.54,0.0222725,0.0219591,-0.0407006,3,-0.00158988,10,-8.9375e-07,-4.3904,-0.0409264,-1.44161,2.29549,0.0219591,
2,0,0,1,0,4310.03,0.0297635,0.0294679,-0.0251456,3,-0.00172056,10,-7.40987e-07,-4.59954,-0.0365933,-1.61232,1.60433,0.0294679,
2,0,0,1,0,4317.52,0.0372544,0.0369882,-0.0134665,3,-0.00174802,10,-4.98103e-07,-4.87074,-0.0200048,-2.94929,1.48028,0.0369882,
2,0,0,1,0,4325.01,0.0447454,0.044444,-0.000654921,3,-0.00168096,10,-2.91073e-08,-6.18381,-0.00986767,-5.97912,1.56256,0.044444,
2,0,0,1,0,4332.5,0.0522363,0.0519421,0.00985711,3,-0.00152461,10,5.11999e-07,-5.00625,0.0151719,3.88877,1.47156,0.0519421,
2,1,0,1,0,4339.99,0.0597273,0.0594456,0.0207428,3,-0.00128648,10,1.23307e-06,-4.68313,0.0368775,1.59989,1.25148,0.0594456,
2,1,0,1,0,4347.48,0.0672183,0.0668738,0.0298389,3,-0.000973909,10,1.99544e-06,-4.52522,0.0638098,0.924623,1.07782,0.0668738,
2,1,0,1,0,4354.98,0.0747092,0.0743867,0.0386935,3,-0.000594204,10,2.87828e-06,-4.41236,0.0689139,0.856141,1.29703,0.0743867,
2,1,0,1,0,4362.47,0.0822001,0.0819134,0.0459035,3,-0.000153123,10,3.76011e-06,-4.33815,0.11154,0.528958,0.961153,0.0819134,
2,1,0,1,0,4369.96,0.0896911,0.0893712,0.0562941,3,0.000351747,10,5.03107e-06,-4.24954,0.0889806,0.663066,1.46108,0.0893712,
2,1,0,1,0,4377.45,0.0971821,0.0968621,0.0670035,3,0.000931544,10,6.4901e-06,-4.1739,0.0786475,0.750183,1.95131,0.0968621,
2,1,0,1,0,4384.94,0.104673,0.1044,0.0811147,3,0.0016023,10,8.46841e-06,-4.0909,0.104044,0.567065,1.75474,0.1044,
2,1,0,1,0,4392.43,0.112164,0.111821,0.0925145,3,0.00237117,10,1.03451e-05,-4.03379,0.158018,0.373374,1.33615,0.111821,
2,1,0,1,0,4399.92,0.119655,0.119355,0.103312,3,0.00323211,10,1.23308e-05,-3.98585,0.16397,0.359822,1.46512,0.119355,
2,1,0,1,0,4407.41,0.127146,0.126856,0.11528,3,0.00418152,10,1.46239e-05,-3.93825,0.15452,0.381827,1.71836,0.126856,
2,1,0,1,0,4414.9,0.134637,0.134283,0.122021,3,0.00521032,10,1.63853e-05,-3.91356,4.96653,0.0118795,0.0566458,0.134283,
2,1,0,1,0,4422.39,0.142128,0.141829,0.111915,3,0.00622743,10,1.58728e-05,-3.95111,-0.104314,-0.565602,-2.44696,0.141829,
2,1,0,1,0,4429.89,0.149619,0.149279,0.0879154,3,0.00710155,10,1.31239e-05,-4.05593,-0.0651435,-0.905693,-3.10945,0.149279,
2,1,0,1,0,4437.38,0.15711,0.156812,0.0688888,3,0.00780176,10,1.08026e-05,-4.16185,-0.0783159,-0.753359,-2.02635,0.156812,
2,1,0,1,0,4444.87,0.164601,0.164291,0.0591765,3,0.0083924,10,9.72216e-06,-4.22785,-0.138714,-0.425335,-0.980968,0.164291,
2,1,0,1,0,4452.36,0.172091,0.171847,0.0530657,3,0.00892678,10,9.11921e-06,-4.27519,-0.233116,-0.253093,-0.533112,0.171847,
2,1,0,1,0,4459.85,0.179582,0.179255,0.0511024,3,0.00943049,10,9.16033e-06,-4.29156,-0.46281,-0.127482,-0.253408,0.179255,
2,1,0,1,0,4467.34,0.187073,0.18676,0.0496299,3,0.00991649,10,9.26889e-06,-4.30426,-0.396358,-0.148855,-0.285297,0.18676,
2,1,0,1,0,4474.83,0.194564,0.194231,0.0491302,3,0.0103935,10,9.54258e-06,-4.30865,1.38526,0.0425914,0.0820852,0.194231,
2,1,0,1,0,4482.32,0.202055,0.201751,0.0490576,3,0.0108691,10,9.89743e-06,-4.30929,0.773015,0.0763245,0.145245,0.201751,
2,1,0,1,0,4489.81,0.209546,0.20927,0.0497402,3,0.0113458,10,1.04091e-05,-4.30329,0.860662,0.0685519,0.133407,0.20927,
2,1,0,1,0,4497.3,0.217037,0.216743,0.0504935,3,0.0118268,10,1.09441e-05,-4.29676,0.715326,0.0824799,0.161813,0.216743,
2,1,0,1,0,4504.79,0.224528,0.224286,0.0507489,3,0.0123128,10,1.13823e-05,-4.29457,0.410264,0.14381,0.28723,0.224286,
2,1,0,1,0,4512.29,0.232019,0.231682,0.0515374,3,0.0128029,10,1.19403e-05,-4.28788,-7.94967,-0.00742169,-0.0149071,0.231682,
2,1,0,1,0,4519.78,0.23951,0.239234,0.0522142,3,0.0132973,10,1.24914e-05,-4.28221,0.952536,0.0619399,0.126727,0.239234,
2,1,0,1,0,4527.27,0.247001,0.246724,0.0533546,3,0.0137989,10,1.31639e-05,-4.27283,0.543768,0.108502,0.225651,0.246724,
2,1,0,1,0,4534.76,0.254492,0.254209,0.0541673,3,0.014306,10,1.37698e-05,-4.26626,0.44058,0.133914,0.283725,0.2542094,
2,1,0,1,0,4542.25,0.261983,0.261692,0.0549002,3,0.0148193,10,1.43669e-05,-4.26043,-2.09328,-0.0281855,-0.0603798,0.261692,
2,1,0,1,0,4549.74,0.269474,0.269206,0.0557215,3,0.0153375,10,1.50005e-05,-4.25398,0.626628,0.0941547,0.206306,0.269206,
2,1,0,1,0,4557.23,0.276965,0.276669,0.0563571,3,0.015862,10,1.55922e-05,-4.24905,0.589172,0.100141,0.220816,0.276669,
2,1,0,1,0,4564.72,0.284456,0.284164,0.0573795,3,0.0163913,10,1.63052e-05,-4.24124,0.871665,0.0676866,0.151514,0.284164,
2,1,0,1,0,4572.21,0.291947,0.291651,0.057838,3,0.0169257,10,1.68685e-05,-4.23779,0.781713,0.0754753,0.171871,0.291651,
2,1,0,1,0,4579.7,0.299438,0.299081,0.0588046,3,0.0174665,10,1.75874e-05,-4.23059,-0.00558736,-10.5595,-17.1276,0.299081,
2,1,0,1,0,4586.55,0.293745,0.293432,0.0129856,3,0.0175508,10,3.81037e-06,-4.88654,0.0216207,2.72887,1.40829,0.293432,
2,1,0,1,0,4594.04,0.286254,0.285916,0.00471481,3,0.0175153,10,1.34804e-06,-5.32654,0.0108559,5.43484,1.00353,0.285916,
2,1,0,1,0,4601.53,0.278763,0.278456,-0.000309881,3,0.0174299,10,-8.62881e-08,-6.50881,-0.0352755,-1.67255,0.658592,0.278456,
2,0,0,1,0,4609.02,0.271272,0.270955,-0.00501861,3,0.0173088,10,-1.35982e-06,-5.29942,-0.0166496,-3.54362,0.662336,0.270955,
2,0,0,1,0,4616.51,0.263781,0.263481,-0.0096456,3,0.0171538,10,-2.54144e-06,-5.01567,-0.0514881,-1.1459,0.38548,0.263481,
2,0,0,1,0,4624,0.25629,0.25599,-0.0125924,3,0.0169709,10,-3.22354e-06,-4.89989,-0.0492482,-1.19801,0.572347,0.2559897,
2,0,0,1,0,4631.49,0.248799,0.248432,-0.0150437,3,0.0167644,10,-3.73734e-06,-4.82265,-0.0896466,-0.65814,0.393913,0.248432,
2,0,0,1,0,4638.98,0.241308,0.240998,-0.0181758,3,0.0165356,10,-4.38033e-06,-4.74051,-0.100242,-0.588577,0.415592,0.240998,
2,1,0,1,0,4646.47,0.233817,0.233555,-0.0213445,3,0.0162834,10,-4.9851e-06,-4.67071,-0.163644,-0.360538,0.294531,0.233555,
2,0,0,1,0,4653.97,0.226326,0.226035,-0.0238696,3,0.0160081,10,-5.39537e-06,-4.62215,-0.117688,-0.501324,0.470744,0.226035,
2,0,0,1,0,4661.46,0.218835,0.218569,-0.026979,3,0.0157095,10,-5.89678e-06,-4.56897,-0.119195,-0.494987,0.514034,0.218569,
2,0,0,1,0,4668.95,0.211344,0.211051,-0.0304807,3,0.0153877,10,-6.43297e-06,-4.51598,-0.134116,-0.439919,0.51622,0.2110509,
2,0,0,1,0,4676.44,0.203853,0.203545,-0.0331883,3,0.0150399,10,-6.75533e-06,-4.47901,-0.214563,-0.274978,0.357942,0.203545,
2,0,0,1,0,4683.93,0.196362,0.196013,-0.0359863,3,0.0146711,10,-7.05379e-06,-4.44386,-0.175619,-0.335954,0.472057,0.196013,
2,0,0,1,0,4691.42,0.188871,0.18857,-0.0401308,3,0.0142762,10,-7.56747e-06,-4.39652,-0.169725,-0.347622,0.542899,0.18857,
2,0,0,1,0,4698.91,0.18138,0.181071,-0.0450556,3,0.0138473,10,-8.15826e-06,-4.34625,-0.188947,-0.312257,0.54623,0.181071,
2,0,0,1,0,4706.4,0.173889,0.173562,-0.0502958,3,0.0133791,10,-8.72946e-06,-4.29847,-0.172159,-0.342706,0.671976,0.1735623,
2,0,0,1,0,4713.89,0.166398,0.166104,-0.057824,3,0.0128614,10,-9.60482e-06,-4.23789,-0.110455,-0.534156,1.21303,0.166104,
2,0,0,1,0,4721.38,0.158907,0.158599,-0.0692474,3,0.0122675,10,-1.09826e-05,-4.1596,-0.0815069,-0.723865,1.96568,0.158599,
2,0,0,1,0,4728.87,0.151417,0.151103,-0.0885959,3,0.0115567,10,-1.33871e-05,-4.05259,-0.0598743,-0.985397,3.43447,0.151103,
2,0,0,1,0,4736.37,0.143926,0.143623,-0.116695,3,0.0106639,10,-1.676e-05,-3.93295,-0.0592823,-0.995237,4.53731,0.143623,
2,0,0,1,0,4743.86,0.136435,0.1361,-0.14647,3,0.00954709,10,-1.99346e-05,-3.83425,-0.104452,-0.564851,3.21274,0.1361,
2,0,0,1,0,4751.35,0.128944,0.128605,-0.160853,3,0.00825465,10,-2.06865e-05,-3.79357,-0.648638,-0.0909598,0.570027,0.128605,
2,0,0,1,0,4758.84,0.121453,0.121197,-0.161728,3,0.0069082,10,-1.96009e-05,-3.79122,0.679023,0.0868896,-0.547102,0.121197,
2,0,0,1,0,4766.33,0.113962,0.11363,-0.156548,3,0.00558098,10,-1.77886e-05,-3.80535,0.50898,0.115918,-0.711663,0.11363,
2,0,0,1,0,4773.82,0.106471,0.106119,-0.151094,3,0.00429618,10,-1.6034e-05,-3.82075,0.382569,0.15422,-0.911631,0.106119,
2,0,0,1,0,4781.31,0.0989798,0.0986583,-0.143029,3,0.00306552,10,-1.4111e-05,-3.84458,0.300946,0.196048,-1.09383,0.0986583,
2,0,0,1,0,4788.8,0.0914889,0.0912026,-0.13522,3,0.00189893,10,-1.23324e-05,-3.86896,0.42095,0.140159,-0.741275,0.0912026,
2,0,0,1,0,4796.29,0.083998,0.0837035,-0.128853,3,0.000787598,10,-1.07854e-05,-3.88991,0.328178,0.179781,-0.903783,0.0837035,
2,0,0,1,0,4803.78,0.076507,0.076182,-0.124104,3,-0.000282553,10,-9.45447e-06,-3.90622,0.58579,0.100719,-0.487522,0.076182,
2,0,0,1,0,4811.28,0.069016,0.0687092,-0.119913,3,-0.00132192,10,-8.23911e-06,-3.92113,0.639842,0.0922102,-0.434181,0.0687092,
2,0,0,1,0,4818.77,0.0615251,0.0612143,-0.11684,3,-0.002334,10,-7.1523e-06,-3.93241,0.505192,0.116787,-0.531491,0.06121432,
2,0,0,1,0,4826.26,0.0540342,0.0537035,-0.112922,3,-0.00331605,10,-6.06431e-06,-3.94722,0.353037,0.167121,-0.731305,0.0537035,
2,0,0,1,0,4833.75,0.0465432,0.0462011,-0.10898,3,-0.00426693,10,-5.03501e-06,-3.96265,0.6003,0.0982842,-0.418937,0.0462011,
2,0,0,1,0,4841.24,0.0390522,0.0387262,-0.10502,3,-0.00519051,10,-4.06704e-06,-3.97873,0.592076,0.0996493,-0.40778,0.0387262,
2,0,0,1,0,4848.73,0.0315613,0.0312599,-0.102326,3,-0.00608696,10,-3.19872e-06,-3.99001,0.741287,0.0795913,-0.318033,0.0312599,
2,0,0,1,0,4856.22,0.0240703,0.0237459,-0.100695,3,-0.00696409,10,-2.39109e-06,-3.99699,1.73166,0.0340713,-0.133366,0.0237459,
2,0,0,1,0,4863.71,0.0165794,0.016269,-0.100418,3,-0.00783364,10,-1.63371e-06,-3.99819,-2.94461,-0.0200366,0.0784896,0.016269,
2,0,0,1,0,4871.2,0.00908843,0.00874643,-0.102031,3,-0.00871076,10,-8.9241e-07,-3.99127,-0.714667,-0.0825559,0.329396,0.00874643,
2,0,0,1,0,4878.69,0.00159744,0.00119099,-0.106352,3,-0.00960794,10,-1.26664e-07,-3.97326, , , ,0.00119099,
2,0,0,1,0,4880.09,0.000199235,-0.000206971,-0.106879,3,-0.00977846,10,2.21209e-08,-3.97111, , , ,-0.000206971,