File: Figure_codes/Fig_3-5/rawdata_trumpetplot_data/after 10th/20221101_1-115_003_TrumpetPlot_ParaChange_from10_every3_09_CV_C01_0.csv
mode,ox/red,error,control changes,counter inc.,time/s,control/V,Ewe/V,<I>/mA,cycle number,(Q-Qo)/C,I Range,P/W,log(|I|),Tafel slope mV/dec,alpha_eff,dI/d(E-IR),E-IR/V,
2,0,0,1,0,1182.52,2.44065e-05,-0.000401673,-5.08588,1,0.0000000E+000,10,2.04286e-06,-2.29363, , , ,-0.000401673,
2,1,0,1,0,1182.62,0.00978761,0.00944912,3.03736,1,6.33093e-05,10,2.87003e-05,-2.5175,0.0324465,1.81838,207.924,0.00944912,
2,1,0,1,0,1182.72,0.0197755,0.0194628,4.00934,1,0.000427031,10,7.8033e-05,-2.39693,0.184078,0.320516,50.1144,0.0194628,
2,1,0,1,0,1182.82,0.0297635,0.02947,4.46689,1,0.000852265,10,0.000131639,-2.34999,0.243519,0.242281,42.2099,0.02946998,
2,1,0,1,0,1182.92,0.0397514,0.0394211,4.93617,1,0.00132258,10,0.000194589,-2.30661,0.193367,0.305119,58.906,0.0394211,
2,1,0,1,0,1183.02,0.0497484,0.0494488,5.51049,1,0.00184495,10,0.000272487,-2.25881,0.212231,0.278,59.7387,0.0494488,
2,1,0,1,0,1183.12,0.0597273,0.0594071,6.14787,1,0.00242689,10,0.000365227,-2.21128,0.211356,0.27915,66.8963,0.0594071,
2,1,0,1,0,1183.22,0.0697152,0.0694135,6.79071,1,0.00307438,10,0.000471367,-2.16808,0.252968,0.233231,61.8919,0.0694135,
2,1,0,1,0,1183.32,0.0797031,0.0793811,7.4098,1,0.00378524,10,0.000588198,-2.13019,0.293663,0.20091,58.0784,0.0793811,
2,1,0,1,0,1183.42,0.0896911,0.0894411,7.95903,1,0.00455448,10,0.000711864,-2.09914,0.33432,0.176478,54.8923,0.0894411,
2,1,0,1,0,1183.52,0.099679,0.0993387,8.54966,1,0.00537821,10,0.000849312,-2.06805,0.294845,0.200105,66.7157,0.0993387,
2,1,0,1,0,1183.62,0.109667,0.10939,9.32398,1,0.00626936,10,0.00101995,-2.0304,0.227076,0.259825,94.6876,0.10939,
2,1,0,1,0,1183.72,0.119655,0.119355,10.423,1,0.00725537,10,0.00124404,-1.98201,0.215347,0.273976,111.44,0.119355,
2,1,0,1,0,1183.82,0.129643,0.129346,11.5404,1,0.00835437,10,0.0014927,-1.93778,0.255922,0.230539,103.765,0.129346,
2,1,0,1,0,1183.92,0.139631,0.139354,12.4671,1,0.00955688,10,0.00173735,-1.90423,0.343347,0.171838,83.6208,0.139354,
2,1,0,1,0,1184.02,0.149619,0.149338,13.0132,1,0.0108349,10,0.00194336,-1.88562,2.56885,0.0229675,11.6346,0.1493379,
2,1,0,1,0,1184.12,0.159607,0.159335,12.2208,1,0.0121129,10,0.00194721,-1.9129,-0.144645,-0.407896,-193.801,0.159335,
2,1,0,1,0,1184.22,0.169595,0.169286,9.34828,1,0.0132029,10,0.00158254,-2.02927,-0.0651435,-0.905693,-330.113,0.169286,
2,1,0,1,0,1184.31,0.179582,0.179311,6.75943,1,0.0139945,10,0.00121204,-2.17009,-0.0894844,-0.659332,-174.852,0.179311,
2,1,0,1,0,1184.41,0.18957,0.189273,5.58979,1,0.0146047,10,0.00105799,-2.2526,-0.159993,-0.368766,-80.5113,0.189273,
2,1,0,1,0,1184.51,0.199558,0.199284,4.99188,1,0.0151304,10,0.0009948,-2.30174,-0.261979,-0.225209,-43.8294,0.199284,
2,1,0,1,0,1184.61,0.209546,0.209246,4.61743,1,0.0156095,10,0.000966178,-2.3356,-0.297815,-0.19811,-35.726,0.209246,
2,1,0,1,0,1184.71,0.219534,0.219249,4.37936,1,0.0160585,10,0.00096017,-2.35859,-0.577208,-0.102216,-17.4725,0.219249,
2,1,0,1,0,1184.81,0.229522,0.229225,4.20726,1,0.0164882,10,0.000964411,-2.376,-0.61247,-0.0963313,-15.8507,0.229225,
2,1,0,1,0,1184.91,0.23951,0.239212,4.10604,1,0.0169042,10,0.000982214,-2.38658,-1.43868,-0.0410098,-6.56923,0.239212,
2,1,0,1,0,1185.01,0.249498,0.249172,4.02029,1,0.0173101,10,0.00100175,-2.39574,-1.26545,-0.0466237,-7.3024,0.249172,
2,1,0,1,0,1185.11,0.259486,0.259183,3.95094,1,0.0177085,10,0.00102402,-2.4033,-0.810246,-0.0728174,-11.2137,0.259183,
2,1,0,1,0,1185.21,0.269474,0.269193,3.8791,1,0.0181001,10,0.00104423,-2.41127,-2.06676,-0.0285471,-4.32783,0.269193,
2,1,0,1,0,1185.31,0.279462,0.279151,3.82267,1,0.018486,10,0.0010671,-2.41763,-1.56015,-0.0378168,-5.64761,0.279151,
2,1,0,1,0,1185.41,0.28945,0.289141,3.76499,1,0.018866,10,0.00108861,-2.42424,-3.90316,-0.0151159,-2.22164,0.289141,
2,1,0,1,0,1185.51,0.299438,0.299148,3.71927,1,0.0192405,10,0.00111261,-2.42954,-0.022837,-2.58353,-335.173,0.299148,
2,0,0,1,0,1185.6,0.291747,0.291443,-1.4897,1,0.0192358,10,-0.000434164,-2.8269,-0.0385986,-1.52855,86.4869,0.291443,
2,0,0,1,0,1185.7,0.281759,0.28142,-1.95333,1,0.0190602,10,-0.000549706,-2.70923,-0.140066,-0.421229,31.928,0.28142,
2,0,0,1,0,1185.8,0.271771,0.27144,-2.22259,1,0.0188515,10,-0.000603301,-2.65314,-0.195963,-0.301077,26.0134,0.27144,
2,0,0,1,0,1185.9,0.261783,0.261463,-2.42116,1,0.0186194,10,-0.000633045,-2.61598,-0.360255,-0.163773,15.4651,0.261463,
2,0,0,1,0,1186,0.251795,0.2515,-2.59009,1,0.018369,10,-0.000651406,-2.58669,-0.364433,-0.161895,16.3724,0.2515,
2,0,0,1,0,1186.1,0.241807,0.241518,-2.73884,1,0.0181023,10,-0.000661478,-2.56243,-0.382189,-0.154374,16.5643,0.241518,
2,0,0,1,0,1186.2,0.231815,0.231519,-2.8947,1,0.0178209,10,-0.000670179,-2.5384,-0.412251,-0.143117,16.1528,0.231519,
2,0,0,1,0,1186.3,0.221831,0.221538,-3.03945,1,0.0175252,10,-0.000673355,-2.5172,-0.510998,-0.11546,13.6852,0.221538,
2,0,0,1,0,1186.4,0.211843,0.211518,-3.1973,1,0.0172139,10,-0.000676287,-2.49522,-0.588291,-0.10029,12.4984,0.211518,
2,0,0,1,0,1186.5,0.201856,0.201562,-3.36874,1,0.016886,10,-0.000679009,-2.47253,-0.415489,-0.142001,18.7081,0.201562,
2,0,0,1,0,1186.6,0.191868,0.191507,-3.60168,1,0.0165385,10,-0.000689747,-2.4435,-0.310665,-0.189915,26.7068,0.191507,
2,0,0,1,0,1186.7,0.18188,0.181596,-3.91179,1,0.0161656,10,-0.000710365,-2.40762,-0.226588,-0.260384,39.6486,0.181596,
2,0,0,1,0,1186.8,0.171892,0.171601,-4.36211,1,0.0157549,10,-0.000748544,-2.3603,-0.186344,-0.316618,53.8316,0.1716015,
2,0,0,1,0,1186.9,0.161904,0.161618,-5.09851,1,0.015286,10,-0.000824011,-2.29256,-0.122396,-0.48204,95.9639,0.1616181,
2,0,0,1,0,1187,0.151916,0.151609,-6.35162,1,0.0147192,10,-0.000962961,-2.19712,-0.0925989,-0.637156,158.299,0.151609,
2,0,0,1,0,1187.1,0.141928,0.141644,-8.26934,1,0.0139932,10,-0.0011713,-2.08253,-0.0879324,-0.67097,216.777,0.141644,
2,0,0,1,0,1187.2,0.13194,0.131664,-10.4788,1,0.0130562,10,-0.00137968,-1.97969,-0.116063,-0.508344,207.691,0.131664,
2,0,0,1,0,1187.3,0.121952,0.12166,-12.2222,1,0.0119164,10,-0.00148696,-1.91285,-0.2145,-0.275059,130.956,0.12166,
2,0,0,1,0,1187.4,0.111964,0.111684,-13.0592,1,0.0106458,10,-0.00145851,-1.88408,-0.846473,-0.069701,35.4678,0.111684,
2,0,0,1,0,1187.5,0.101976,0.101647,-12.9392,1,0.00934018,10,-0.00131523,-1.88809,0.489691,0.120484,-60.715,0.101647,
2,0,0,1,0,1187.6,0.0919883,0.0916701,-11.9891,1,0.00809061,10,-0.00109904,-1.92121,0.244828,0.240985,-112.725,0.0916701,
2,0,0,1,0,1187.7,0.0820004,0.081729,-10.8041,1,0.00695487,10,-0.00088301,-1.96641,0.233709,0.252451,-106.499,0.081729,
2,0,0,1,0,1187.8,0.0720124,0.0716972,-9.96548,1,0.00592143,10,-0.000714497,-2.0015,0.339295,0.17389,-67.6819,0.0716972,
2,0,0,1,0,1187.9,0.0620245,0.0617168,-9.39677,1,0.00495609,10,-0.000579938,-2.02702,0.39977,0.147585,-54.1349,0.06171675,
2,0,0,1,0,1188,0.0520366,0.0517431,-8.88307,1,0.0040432,10,-0.000459638,-2.05144,0.344473,0.171276,-59.3241,0.0517431,
2,0,0,1,0,1188.1,0.0420486,0.0417315,-8.25934,1,0.00318625,10,-0.000344675,-2.08305,0.290322,0.203223,-65.5653,0.0417315,
2,0,0,1,0,1188.2,0.0320607,0.0317285,-7.54771,1,0.00239748,10,-0.000239478,-2.12218,0.24712,0.23875,-70.3191,0.0317285,
2,0,0,1,0,1188.3,0.0220728,0.0217765,-6.93205,1,0.0016769,10,-0.000150956,-2.15914,0.323162,0.182571,-49.4084,0.0217765,
2,0,0,1,0,1188.4,0.0120848,0.0117785,-6.56956,1,0.00100547,10,-7.73797e-05,-2.18246,0.552527,0.106782,-27.3877,0.0117785,
2,0,0,1,0,1188.5,0.0020969,0.00175172,-6.49122,1,0.000358604,10,-1.13708e-05,-2.18767,-3.49545,-0.0168791,4.24478,0.00175172,
2,0,0,1,0,1188.6,-0.00789103,-0.00824407,-6.45146,1,-0.000285059,10,5.31864e-05,-2.19034,-1.60666,-0.0367222,9.26386,-0.00824407,
2,0,0,1,0,1188.7,-0.017879,-0.0182388,-6.60068,1,-0.00093514,10,0.000120388,-2.18041,-0.754891,-0.078157,20.1109,-0.0182388,
2,0,0,1,0,1188.8,-0.0278669,-0.0282431,-6.80059,1,-0.00160311,10,0.00019207,-2.16745,-0.736715,-0.0800852,21.2788,-0.0282431,
2,0,0,1,0,1188.9,-0.0378548,-0.0382274,-7.06537,1,-0.00229483,10,0.00027009,-2.15087,-0.577781,-0.102115,28.1532,-0.0382274,
2,0,0,1,0,1189,-0.0478428,-0.0481725,-7.37017,1,-0.00301512,10,0.000355039,-2.13252,-0.423932,-0.139173,40.0923,-0.0481725,
2,0,0,1,0,1189.1,-0.0578216,-0.0581955,-7.74581,1,-0.00376879,10,0.000450771,-2.11093,-0.427892,-0.137885,41.7024,-0.0581955,
2,0,0,1,0,1189.2,-0.0678187,-0.068165,-8.20137,1,-0.00456409,10,0.000559046,-2.08611,-0.356698,-0.165406,52.9182,-0.068165,
2,0,0,1,0,1189.3,-0.0778066,-0.078189,-8.74156,1,-0.0054092,10,0.000683494,-2.05841,-0.349838,-0.16865,57.5631,-0.07818903,
2,0,0,1,0,1189.4,-0.0877945,-0.0881399,-9.3854,1,-0.00631384,10,0.000827228,-2.02755,-0.323273,-0.182508,66.8602,-0.0881399,
2,0,0,1,0,1189.5,-0.0977825,-0.0981262,-10.0249,1,-0.0072836,10,0.000983703,-1.99892,-0.379807,-0.155342,60.8012,-0.09812618,
2,0,0,1,1,1189.59,-0.0927386,-0.0930745,-0.357356,1,-0.00779889,10,3.32607e-05,-3.4469,-0.0103375,-5.70735,663.229,-0.0930745,
2,1,0,1,1,1189.69,-0.0827529,-0.0831066,3.25308,1,-0.00761817,10,-0.000270352,-2.48771,0.0368661,1.60039,199.643,-0.0831066,
2,1,0,1,1,1189.79,-0.0727627,-0.0730406,4.54546,1,-0.00721909,10,-0.000332003,-2.34242,0.12605,0.468067,82.5604,-0.07304056,
2,1,0,1,1,1189.89,-0.0627748,-0.0631157,5.12228,1,-0.00673227,10,-0.000323296,-2.29054,0.280568,0.210288,42.0512,-0.0631157,
2,1,0,1,1,1189.99,-0.0527868,-0.0531213,5.4328,1,-0.00620235,10,-0.000288597,-2.26498,0.671806,0.0878229,18.5932,-0.05312128,
2,1,0,1,1,1190.09,-0.0427989,-0.0431824,5.56787,1,-0.00565129,10,-0.000240434,-2.25431,0.956415,0.0616887,13.4167,-0.0431824,
2,1,0,1,1,1190.19,-0.0328109,-0.0331221,5.62025,1,-0.00509184,10,-0.000186155,-2.25024,15.9746,0.00369336,0.808775,-0.0331221,
2,1,0,1,1,1190.29,-0.022823,-0.0231658,5.60329,1,-0.00453071,10,-0.000129805,-2.25156,-2.83308,-0.0208254,-4.55394,-0.0231658,
2,1,0,1,1,1190.39,-0.0128351,-0.0131698,5.55028,1,-0.00397295,10,-7.30961e-05,-2.25568,-2.02745,-0.0291006,-6.30578,-0.0131698,
2,1,0,1,1,1190.49,-0.00284713,-0.00312494,5.50153,1,-0.0034202,10,-1.71919e-05,-2.25952,-1.89759,-0.031092,-6.67311,-0.00312494,
2,1,0,0,1,1190.52,-2.55332e-05,-0.00042076,5.48179,1,-0.00326576,10,-2.30652e-06,-2.26108, , , ,-0.00042076,