File: Figure_codes/Fig_3-5/rawdata_trumpetplot_data/after 10th/20221101_1-115_003_TrumpetPlot_ParaChange_from10_every3_07_CV_C01_31.csv
mode,ox/red,error,control changes,counter inc.,time/s,control/V,Ewe/V,<I>/mA,cycle number,(Q-Qo)/C,I Range,P/W,log(|I|),Tafel slope mV/dec,alpha_eff,dI/d(E-IR),E-IR/V,
2,0,0,0,0,62239.1,2.44065e-05,-0.00042076,-2.70204,32,0.0000000E+000,10,1.13691e-06,-2.56831, , , ,-0.00042076,
2,1,0,1,0,62239.2,0.007288,0.00695825,0.660781,32,-6.20901e-05,10,4.59788e-06,-3.17994,0.00553489,10.6596,208.596,0.00695825,
2,1,0,1,0,62239.3,0.0147816,0.0144467,1.63152,32,9.2204e-05,10,2.35701e-05,-2.78741,0.0445631,1.32397,83.1496,0.0144467,
2,1,0,1,0,62239.4,0.0222712,0.02194,2.09816,32,0.000329246,10,4.60336e-05,-2.67816,0.0981818,0.600926,48.9563,0.02194003,
2,1,0,1,0,62239.6,0.0297648,0.0293733,2.40702,32,0.000613193,10,7.07022e-05,-2.61852,0.151777,0.388727,36.5005,0.0293733,
2,1,0,1,0,62239.7,0.0372518,0.0369075,2.65641,32,0.00093178,10,9.80416e-05,-2.5757,0.18396,0.320721,33.3978,0.0369075,
2,1,0,1,0,62239.8,0.0447467,0.0444375,2.90425,32,0.00128159,10,0.000129058,-2.53697,0.234419,0.251686,28.5329,0.0444375,
2,1,0,1,0,62239.9,0.052235,0.0518622,3.13308,32,0.00166001,10,0.000162489,-2.50403,0.231632,0.254715,31.1104,0.05186224,
2,1,0,1,0,62240.1,0.0597299,0.0593999,3.34922,32,0.00206641,10,0.000198943,-2.47506,0.260449,0.226532,29.5598,0.0593999,
2,1,0,1,0,62240.2,0.0672156,0.0668439,3.54157,32,0.00249824,10,0.000236733,-2.4508,0.313292,0.188323,26.045,0.0668439,
2,1,0,1,0,62240.3,0.0747105,0.0743922,3.72543,32,0.00295419,10,0.000277143,-2.42882,0.415626,0.141954,20.6264,0.0743922,
2,1,0,1,0,62240.4,0.0821988,0.0818402,3.88069,32,0.00343068,10,0.000317596,-2.41109,0.498672,0.118314,17.9051,0.0818402,
2,1,0,1,0,62240.6,0.0896937,0.0893316,4.02219,32,0.00392572,10,0.000359309,-2.39554,0.456461,0.129255,20.286,0.0893316,
2,1,0,1,0,62240.7,0.0971794,0.0968459,4.17366,32,0.00443867,10,0.000404202,-2.37948,0.366716,0.160887,26.2514,0.0968459,
2,1,0,1,0,62240.8,0.104674,0.10434,4.41523,32,0.00497591,10,0.000460684,-2.35505,0.269558,0.218876,37.6885,0.1043397,
2,1,0,1,0,62240.9,0.112163,0.111816,4.72826,32,0.0055473,10,0.000528694,-2.3253,0.246891,0.238972,44.0471,0.111816,
2,1,0,1,0,62241.1,0.119657,0.119312,5.06414,32,0.00616031,10,0.000604212,-2.29549,0.289963,0.203474,40.1303,0.119312,
2,1,0,1,0,62241.2,0.127143,0.126797,5.30976,32,0.00681049,10,0.000673263,-2.27492,0.453756,0.130026,26.966,0.126797,
2,1,0,1,0,62241.3,0.134638,0.134272,5.47584,32,0.00748736,10,0.00073525,-2.26155,0.864323,0.0682615,14.6001,0.134272,
2,1,0,1,0,62241.4,0.142126,0.14176,5.54993,32,0.00817844,10,0.000786761,-2.25571,-26.7567,-0.00220506,-0.476113,0.14176,
2,1,0,1,0,62241.6,0.149621,0.149311,5.38542,32,0.00886596,10,0.000804103,-2.26878,-0.272477,-0.216532,-45.3164,0.149311,
2,1,0,1,0,62241.7,0.157107,0.156734,4.83672,32,0.00950858,10,0.000758079,-2.31545,-0.121939,-0.483848,-91.1801,0.156734,
2,1,0,1,0,62241.8,0.164602,0.164264,4.11877,32,0.0100693,10,0.000676564,-2.38523,-0.103551,-0.56977,-91.6823,0.164264,
2,1,0,1,0,62241.9,0.17209,0.171785,3.53459,32,0.0105467,10,0.00060719,-2.45166,-0.124772,-0.472864,-65.3971,0.171785,
2,1,0,1,0,62242.1,0.179585,0.179246,3.14559,32,0.0109639,10,0.000563836,-2.5023,-0.17822,-0.331052,-40.6846,0.179246,
2,1,0,1,0,62242.2,0.187072,0.186761,2.89122,32,0.0113412,10,0.000539967,-2.53892,-0.275725,-0.213982,-24.1836,0.186761,
2,1,0,1,0,62242.3,0.194566,0.194211,2.72368,32,0.0116932,10,0.000528969,-2.56484,-0.334591,-0.176335,-18.8072,0.194211,
2,1,0,1,0,62242.4,0.202055,0.201719,2.62409,32,0.012028,10,0.00052933,-2.58102,-0.440036,-0.13408,-13.6837,0.201719,
2,1,0,1,0,62242.6,0.209549,0.209203,2.54646,32,0.0123516,10,0.000532726,-2.59406,-0.582076,-0.101361,-10.0531,0.209203,
2,1,0,1,0,62242.7,0.217036,0.216714,2.48509,32,0.0126666,10,0.000538552,-2.60466,-1.1356,-0.0519549,-5.03993,0.216714,
2,1,0,1,0,62242.8,0.224529,0.224188,2.43704,32,0.0129759,10,0.000546355,-2.61314,-0.971586,-0.0607255,-5.79384,0.224188,
2,1,0,1,0,62242.9,0.232019,0.231679,2.41198,32,0.0132801,10,0.000558805,-2.61763,-1.3775,-0.0428313,-4.02875,0.231679,
2,1,0,1,0,62243.1,0.239513,0.239166,2.38606,32,0.013581,10,0.000570665,-2.62232,-1.95853,-0.0301246,-2.79896,0.239166,
2,1,0,1,0,62243.2,0.247001,0.246686,2.36441,32,0.0138786,10,0.000583265,-2.62628,-2.76844,-0.0213116,-1.96015,0.246686,
2,1,0,1,0,62243.3,0.254493,0.254144,2.33451,32,0.0141737,10,0.000593303,-2.6318,-2.34321,-0.0251791,-2.30373,0.254144,
2,1,0,1,0,62243.4,0.261983,0.261675,2.32293,32,0.0144664,10,0.000607852,-2.63396,-1.53356,-0.0384727,-3.48839,0.261675,
2,1,0,1,0,62243.6,0.269477,0.269152,2.30776,32,0.0147569,10,0.000621138,-2.63681,-13.4254,-0.00439465,-0.395328,0.269152,
2,1,0,1,0,62243.7,0.276965,0.276626,2.28614,32,0.0150453,10,0.000632404,-2.6409,-5.74547,-0.010269,-0.917012,0.2766256,
2,1,0,1,0,62243.8,0.284457,0.284084,2.26968,32,0.0153316,10,0.00064478,-2.64404,-3.39518,-0.0173776,-1.54023,0.284084,
2,1,0,1,0,62243.9,0.291947,0.291659,2.25477,32,0.0156155,10,0.000657624,-2.6469,-1.1445,-0.0515508,-4.53171,0.291659,
2,1,0,1,0,62244.1,0.29944,0.299118,2.23611,32,0.0158975,10,0.000668862,-2.65051,-0.0102168,-5.77479,-415.912,0.299118,
2,0,0,1,0,62244.2,0.293742,0.293342,-0.172939,32,0.0159797,10,-5.07304e-05,-3.76211,-0.0105066,-5.61554,139.401,0.293342,
2,0,0,1,0,62244.3,0.286254,0.285936,-0.735518,32,0.0159145,10,-0.000210311,-3.13341,-0.0361576,-1.63175,46.1947,0.285936,
2,0,0,1,0,62244.4,0.278761,0.278436,-0.978987,32,0.0158038,10,-0.000272586,-3.00922,-0.0950408,-0.620786,23.6967,0.278436,
2,0,0,1,0,62244.5,0.271272,0.270922,-1.13826,32,0.0156694,10,-0.00030838,-2.94376,-0.153357,-0.384722,16.9856,0.270922,
2,0,0,1,0,62244.7,0.263778,0.263391,-1.25513,32,0.0155181,10,-0.00033059,-2.90131,-0.210861,-0.279805,13.6407,0.263391,
2,0,0,1,0,62244.8,0.25629,0.255931,-1.34574,32,0.0153539,10,-0.000344417,-2.87104,-0.250763,-0.235282,12.3293,0.255931,
2,0,0,1,0,62244.9,0.248797,0.248416,-1.42363,32,0.0151787,10,-0.000353651,-2.8466,-0.346457,-0.170295,9.4957,0.248416,
2,0,0,1,0,62245,0.241308,0.240967,-1.50217,32,0.0149941,10,-0.000361972,-2.82328,-0.416779,-0.141562,8.2942,0.240967,
2,0,0,1,0,62245.2,0.233814,0.233411,-1.5677,32,0.0148007,10,-0.00036592,-2.80474,-0.367334,-0.160617,9.79544,0.233411,
2,0,0,1,0,62245.3,0.226326,0.225968,-1.62721,32,0.0145994,10,-0.000367698,-2.78856,-0.469994,-0.125533,7.9779,0.225968,
2,0,0,1,0,62245.4,0.218834,0.218473,-1.68892,32,0.0143903,10,-0.000368983,-2.77239,-0.503918,-0.117083,7.71719,0.218473,
2,0,0,1,0,62245.5,0.211344,0.211048,-1.7478,32,0.0141739,10,-0.00036887,-2.75751,-0.596853,-0.0988519,6.73142,0.211048,
2,0,0,1,0,62245.7,0.203856,0.203483,-1.80977,32,0.0139501,10,-0.000368257,-2.74238,-0.634904,-0.0929275,6.55454,0.203483,
2,0,0,1,0,62245.8,0.196362,0.196011,-1.86591,32,0.0137188,10,-0.000365739,-2.72911,-0.522486,-0.112922,8.22815,0.196011,
2,0,0,1,0,62245.9,0.18887,0.188541,-1.9193,32,0.0134798,10,-0.000361866,-2.71686,-0.483787,-0.121954,9.19963,0.188541,
2,0,0,1,0,62246,0.18138,0.181015,-2.00103,32,0.0132328,10,-0.000362216,-2.69875,-0.546868,-0.107887,8.41533,0.181015,
2,0,0,1,0,62246.2,0.173892,0.173506,-2.07886,32,0.0129766,10,-0.000360695,-2.68218,-0.392803,-0.150203,12.1773,0.173506,
2,0,0,1,0,62246.3,0.166398,0.16605,-2.17618,32,0.0127093,10,-0.000361354,-2.6623,-0.312027,-0.189086,16.0461,0.16605,
2,0,0,1,0,62246.4,0.158905,0.158586,-2.29264,32,0.0124284,10,-0.000363582,-2.63966,-0.273761,-0.215516,19.3409,0.158586,
2,0,0,1,0,62246.5,0.151417,0.151043,-2.47083,32,0.0121296,10,-0.000373202,-2.60716,-0.201829,-0.292327,28.2735,0.1510433,
2,0,0,1,0,62246.7,0.143927,0.143582,-2.75078,32,0.0118032,10,-0.000394963,-2.56054,-0.133657,-0.441427,47.3485,0.143582,
2,0,0,1,0,62246.8,0.136435,0.136076,-3.1904,32,0.0114324,10,-0.000434139,-2.49615,-0.101784,-0.579659,72.1569,0.136076,
2,0,0,1,0,62246.9,0.128941,0.128534,-3.76779,32,0.0109968,10,-0.000484291,-2.42391,-0.106657,-0.553173,81.2728,0.128534,
2,0,0,1,0,62247,0.121453,0.121098,-4.36269,32,0.0104867,10,-0.000528313,-2.36025,-0.137306,-0.429698,73.1525,0.121098,
2,0,0,1,0,62247.2,0.113963,0.113583,-4.88604,32,0.00990619,10,-0.000554969,-2.31104,-0.181871,-0.324405,61.8238,0.113583,
2,0,0,1,0,62247.3,0.106471,0.106113,-5.28911,32,0.00926732,10,-0.000561245,-2.27662,-0.272475,-0.216534,44.6159,0.106113,
2,0,0,1,0,62247.4,0.0989825,0.0986336,-5.51568,32,0.00858917,10,-0.000544032,-2.2584,-0.650931,-0.0906395,19.4877,0.0986336,
2,0,0,1,0,62247.5,0.0914889,0.0911308,-5.55075,32,0.00789449,10,-0.000505845,-2.25565,2.45641,0.0240188,-5.19947,0.0911308,
2,0,0,1,0,62247.7,0.0839993,0.0836207,-5.45,32,0.00720539,10,-0.000455732,-2.2636,0.632654,0.093258,-19.8148,0.0836207,
2,0,0,1,0,62247.8,0.076507,0.0761485,-5.31646,32,0.00653155,10,-0.00040484,-2.27438,0.814836,0.0724072,-15.0205,0.07614851,
2,0,0,1,0,62247.9,0.0690187,0.068661,-5.20149,32,0.0058735,10,-0.00035714,-2.28387,0.9033,0.065316,-13.279,0.068661,
2,0,0,1,0,62248,0.0615251,0.0611735,-5.10381,32,0.00522735,10,-0.000312218,-2.29211,0.848021,0.0695737,-13.8853,0.0611735,
2,0,0,1,0,62248.2,0.0540355,0.0536822,-5.00731,32,0.00459383,10,-0.000268804,-2.3004,0.815938,0.0723094,-14.1336,0.0536822,
2,0,0,1,0,62248.3,0.0465432,0.046203,-4.89372,32,0.00397327,10,-0.000226105,-2.31036,0.724699,0.0814131,-15.5431,0.046203,
2,0,0,1,0,62248.4,0.0390549,0.0386841,-4.76595,32,0.00336853,10,-0.000184367,-2.32185,0.622568,0.0947688,-17.6085,0.0386841,
2,0,0,1,0,62248.5,0.0315613,0.0312041,-4.61308,32,0.0027807,10,-0.000143947,-2.33601,0.480731,0.12273,-22.0994,0.0312041,
2,0,0,1,0,62248.7,0.0240717,0.0237649,-4.44421,32,0.00221318,10,-0.000105616,-2.35221,0.424559,0.138968,-24.135,0.0237649,
2,0,0,1,0,62248.8,0.0165781,0.0162043,-4.29465,32,0.00166571,10,-6.95917e-05,-2.36707,0.532228,0.110855,-18.5519,0.0162043,
2,0,0,1,0,62248.9,0.00909108,0.00870348,-4.14946,32,0.00113745,10,-3.61147e-05,-2.38201,0.641675,0.0919469,-14.8882,0.00870348,
2,0,0,1,0,62249,0.00159616,0.00118928,-4.06393,32,0.000623872,10,-4.83315e-06,-2.39105, , , ,0.00118928,
2,0,0,1,0,62249.1,0.000199195,-0.000264244,-4.03783,32,0.00052906,10,1.06697e-06,-2.39385, , , ,-0.000264244,