File: Figure_codes/Fig_3-5/rawdata_trumpetplot_data/after 10th/20221101_1-115_003_TrumpetPlot_ParaChange_from10_every3_11_CV_C01_33.csv
mode,ox/red,error,control changes,counter inc.,time/s,control/V,Ewe/V,<I>/mA,cycle number,(Q-Qo)/C,I Range,P/W,log(|I|),Tafel slope mV/dec,alpha_eff,dI/d(E-IR),E-IR/V,
2,1,0,1,0,66208.8,2.44065e-05,-0.000363498,9.30116,34,0.0000000E+000,10,-3.38095e-06,-2.03146, , , ,-0.000363498,
2,1,0,1,0,66208.8,0.0101427,0.00979095,12.2588,34,0.000277777,10,0.000120025,-1.91155,0.143239,0.411899,196.11,0.00979095,
2,1,0,1,0,66208.9,0.0205441,0.0202349,13.9884,34,0.000620287,10,0.000283054,-1.85423,0.227676,0.25914,141.256,0.0202349,
2,1,0,1,0,66208.9,0.0309482,0.0306067,15.3138,34,0.00100196,10,0.000468707,-1.81492,0.309343,0.190727,113.893,0.0306067,
2,1,0,1,0,66208.9,0.0413439,0.0410125,16.4179,34,0.00141484,10,0.000673337,-1.78468,0.380213,0.155176,99.3325,0.0410125,
2,1,0,1,0,66209,0.0517425,0.0513949,17.3995,34,0.00185473,10,0.000894246,-1.75946,0.434545,0.135774,92.2014,0.0513949,
2,1,0,1,0,66209,0.0621438,0.061806,18.3398,34,0.00231955,10,0.00113351,-1.73661,0.471911,0.125024,89.497,0.061806,
2,1,0,1,0,66209,0.0725479,0.0722065,19.2771,34,0.00280866,10,0.00139193,-1.71496,0.483626,0.121995,91.7656,0.0722065,
2,1,0,1,0,66209,0.0829437,0.082572,20.2149,34,0.00332208,10,0.00166918,-1.69433,0.5097,0.115754,91.3035,0.082572,
2,1,0,1,0,66209.1,0.0933422,0.0929926,21.1719,34,0.00386028,10,0.00196883,-1.67424,0.541466,0.108963,90.0348,0.0929926,
2,1,0,1,0,66209.1,0.103749,0.103384,22.0966,34,0.00442304,10,0.00228443,-1.65567,0.558493,0.105641,91.1825,0.1033835,
2,1,0,1,0,66209.1,0.114148,0.113805,23.0912,34,0.00501046,10,0.0026279,-1.63655,0.552535,0.106781,96.1838,0.113805,
2,1,0,1,0,66209.1,0.124543,0.124205,24.1333,34,0.00562415,10,0.00299747,-1.61738,0.530414,0.111234,104.755,0.124205,
2,1,0,1,0,66209.2,0.134942,0.134541,25.2953,34,0.00626665,10,0.00340327,-1.59696,0.504212,0.117014,115.585,0.134541,
2,1,0,1,0,66209.2,0.145349,0.144997,26.5335,34,0.00694048,10,0.00384727,-1.57621,0.517426,0.114026,117.996,0.144997,
2,1,0,1,0,66209.2,0.155747,0.155422,27.6875,34,0.00764551,10,0.00430325,-1.55772,0.60908,0.0968674,104.581,0.155422,
2,1,0,1,0,66209.2,0.166143,0.165828,28.6403,34,0.00837844,10,0.00474936,-1.54302,0.86196,0.0684487,76.4823,0.165828,
2,1,0,1,0,66209.3,0.176542,0.176168,29.2056,34,0.00913182,10,0.00514508,-1.53453,2.58988,0.022781,25.9418,0.176168,
2,1,0,1,0,66209.3,0.186949,0.186591,29.1339,34,0.0098917,10,0.00543614,-1.5356,-1.5776,-0.0373986,-42.4582,0.186591,
2,1,0,1,0,66209.3,0.197347,0.19701,28.318,34,0.0106399,10,0.00557893,-1.54794,-0.58228,-0.101326,-111.826,0.19701,
2,1,0,1,0,66209.3,0.207743,0.207442,26.8705,34,0.0113583,10,0.00557409,-1.57072,-0.382947,-0.154068,-161.415,0.207442,
2,1,0,1,0,66209.4,0.218141,0.217814,25.046,34,0.0120335,10,0.00545538,-1.60126,-0.316733,-0.186277,-182.083,0.217814,
2,1,0,1,0,66209.4,0.228548,0.228264,23.1889,34,0.0126602,10,0.00529321,-1.63472,-0.307872,-0.191638,-173.365,0.228264,
2,1,0,1,0,66209.4,0.238947,0.238655,21.4828,34,0.0132401,10,0.00512697,-1.66791,-0.327845,-0.179963,-150.922,0.238655,
2,1,0,1,0,66209.4,0.249343,0.249055,20.0295,34,0.0137791,10,0.00498843,-1.69833,-0.362289,-0.162854,-127.399,0.249055,
2,1,0,1,0,66209.5,0.259741,0.259452,18.8326,34,0.0142836,10,0.00488614,-1.72509,-0.410787,-0.143627,-105.577,0.259452,
2,1,0,1,0,66209.5,0.270148,0.269876,17.836,34,0.0147597,10,0.0048135,-1.7487,-0.47832,-0.123348,-85.9001,0.269876,
2,1,0,1,0,66209.5,0.280547,0.280231,17.0074,34,0.0152123,10,0.00476598,-1.76936,-0.543264,-0.108603,-72.1175,0.280231,
2,1,0,1,0,66209.6,0.290942,0.29061,16.3146,34,0.0156453,10,0.0047412,-1.78742,-0.615364,-0.0958783,-61.0437,0.29061,
2,1,0,0,0,66209.6,0.300012,0.29967,15.7931,34,0.0160095,10,0.00473273,-1.80153,0.00211474,27.8994,15623.8,0.29967,
2,1,0,1,0,66209.6,0.290704,0.290436,7.35239,34,0.0162616,10,0.0021354,-2.13357,0.0280609,2.10257,603.611,0.290436,
2,1,0,1,0,66209.6,0.280305,0.28005,2.47639,34,0.0163838,10,0.000693515,-2.60618,0.0144966,4.06993,373.379,0.28005,
2,0,0,1,0,66209.6,0.269909,0.269589,-0.707405,34,0.0164038,10,-0.000190709,-3.15033,-0.00643973,-9.16187,255.069,0.269589,
2,0,0,1,0,66209.7,0.2595,0.259259,-2.95535,34,0.0163544,10,-0.000766202,-2.52939,-0.0360275,-1.63764,184.608,0.259259,
2,0,0,1,0,66209.7,0.249104,0.248783,-4.6242,34,0.0162548,10,-0.00115042,-2.33496,-0.0764221,-0.772028,138.134,0.248783,
2,0,0,1,0,66209.7,0.238705,0.238389,-5.90972,34,0.0161171,10,-0.00140881,-2.22843,-0.121739,-0.484642,111.518,0.238389,
2,0,0,1,0,66209.8,0.22831,0.22804,-6.93956,34,0.0159494,10,-0.0015825,-2.15867,-0.176525,-0.334229,90.5645,0.22804,
2,0,0,1,0,66209.8,0.2179,0.217606,-7.82842,34,0.0157569,10,-0.00170351,-2.10633,-0.233304,-0.252889,77.0615,0.217606,
2,0,0,1,0,66209.8,0.207504,0.207203,-8.56703,34,0.0155436,10,-0.00177511,-2.06717,-0.298428,-0.197703,66.0867,0.207203,
2,0,0,1,0,66209.8,0.197106,0.196813,-9.22935,34,0.0153119,10,-0.00181645,-2.03483,-0.345997,-0.170522,61.4993,0.196813,
2,0,0,1,0,66209.9,0.18671,0.186357,-9.85079,34,0.0150637,10,-0.00183576,-2.00653,-0.390487,-0.151093,58.0587,0.186357,
2,0,0,1,0,66209.9,0.1763,0.17598,-10.4475,34,0.0147997,10,-0.00183856,-1.98099,-0.416116,-0.141787,57.8109,0.17598,
2,0,0,1,0,66209.9,0.165905,0.165582,-11.058,34,0.0145201,10,-0.001831,-1.95632,-0.418746,-0.140897,60.8394,0.165582,
2,0,0,1,0,66209.9,0.155506,0.155177,-11.7385,34,0.0142239,10,-0.00182154,-1.93039,-0.36505,-0.161622,74.1172,0.155177,
2,0,0,1,0,66210,0.145105,0.144775,-12.6023,34,0.0139078,10,-0.0018245,-1.89955,-0.300281,-0.196483,96.7306,0.144775,
2,0,0,1,0,66210,0.134701,0.13436,-13.8005,34,0.0135655,10,-0.00185424,-1.8601,-0.228811,-0.257855,139.005,0.13436,
2,0,0,1,0,66210,0.124305,0.123971,-15.5201,34,0.0131854,10,-0.00192404,-1.80911,-0.188567,-0.312886,189.773,0.1239713,
2,0,0,1,0,66210,0.113906,0.113593,-17.6786,34,0.0127541,10,-0.00200817,-1.75255,-0.186911,-0.315658,217.76,0.113593,
2,0,0,1,0,66210.1,0.103505,0.10318,-19.9528,34,0.0122647,10,-0.00205873,-1.7,-0.220233,-0.267899,208.124,0.10318,
2,0,0,1,0,66210.1,0.0931008,0.0928293,-22.0671,34,0.0117182,10,-0.00204847,-1.65626,-0.262,-0.225191,193.779,0.0928293,
2,0,0,1,0,66210.1,0.0827051,0.0824521,-23.9123,34,0.0111195,10,-0.00197162,-1.62138,-0.349029,-0.169041,157.56,0.0824521,
2,0,0,1,0,66210.1,0.0723065,0.0720283,-25.3323,34,0.0104783,10,-0.00182465,-1.59632,-0.501018,-0.11776,116.306,0.0720283,
2,0,0,1,0,66210.2,0.0618996,0.0616204,-26.339,34,0.00980558,10,-0.00162302,-1.5794,-0.807257,-0.0730871,75.0648,0.0616204,
2,0,0,1,0,66210.2,0.0515011,0.0512062,-26.9339,34,0.00911231,10,-0.00137918,-1.5697,-1.46295,-0.0403296,42.3603,0.05120619,
2,0,0,1,0,66210.2,0.0411053,0.0408025,-27.2221,34,0.00840776,10,-0.00111073,-1.56508,-3.63274,-0.0162412,17.2503,0.0408025,
2,0,0,1,0,66210.2,0.0307068,0.0304074,-27.308,34,0.00769831,10,-0.000830365,-1.56371,-41.0594,-0.00143694,1.53222,0.03040738,
2,0,0,1,0,66210.3,0.0202999,0.0199581,-27.2744,34,0.00698842,10,-0.000544346,-1.56425,5.69539,0.0103593,-11.0197,0.0199581,
2,0,0,1,0,66210.3,0.00990136,0.00961917,-27.0804,34,0.00628164,10,-0.000260491,-1.56735,2.36621,0.0249344,-26.3368,0.00961917,
2,0,0,1,0,66210.3,-0.000494411,-0.000855527,-26.7521,34,0.00558169,10,2.28871e-05,-1.57264,1.52256,0.0387506,-40.4107,-0.000855527,
2,0,0,1,0,66210.4,-0.010893,-0.0112274,-26.2285,34,0.00489281,10,0.000294477,-1.58123,1.11015,0.0531458,-54.3954,-0.0112274,
2,0,0,1,0,66210.4,-0.0212998,-0.0216703,-25.6284,34,0.00421862,10,0.000555373,-1.59128,1.02747,0.0574226,-57.4347,-0.0216703,
2,0,0,1,0,66210.4,-0.0316984,-0.0320718,-25.0421,34,0.00356018,10,0.000803144,-1.60133,1.06081,0.0556178,-54.3326,-0.0320718,
2,0,0,1,0,66210.4,-0.0420942,-0.0424245,-24.526,34,0.00291609,10,0.00104051,-1.61037,1.31312,0.0449313,-43.0425,-0.0424245,
2,0,0,1,0,66210.5,-0.0524927,-0.0528494,-24.1766,34,0.00228317,10,0.00127772,-1.6166,2.11861,0.0278485,-26.2921,-0.0528494,
2,0,0,1,0,66210.5,-0.0628996,-0.0632562,-23.9837,34,0.00165751,10,0.00151712,-1.62008,4.94693,0.0119266,-11.1584,-0.0632562,
2,0,0,1,0,66210.5,-0.0732982,-0.0736504,-23.9065,34,0.0010353,10,0.00176072,-1.62148,-93.2113,-0.000632971,0.590906,-0.0736504,
2,0,0,1,0,66210.5,-0.0836939,-0.0840699,-23.9783,34,0.000412986,10,0.00201586,-1.62018,-4.05044,-0.0145663,13.6367,-0.0840699,
2,0,0,1,0,66210.6,-0.0940925,-0.0944619,-24.176,34,-0.00021278,10,0.00228371,-1.61662,-2.23185,-0.0264355,24.9414,-0.0944619,
2,0,0,1,1,66210.6,-0.0978574,-0.0982974,-20.7301,34,-0.000696664,10,0.00203772,-1.6834,-0.035838,-1.6463,1319.66,-0.0982974,
2,0,0,1,1,66210.6,-0.0874588,-0.0878513,-11.3977,34,-0.00110137,10,0.0010013,-1.94318,-0.0377137,-1.56442,694.461,-0.0878513,
2,0,0,1,1,66210.6,-0.077052,-0.0774848,-5.27171,34,-0.00131332,10,0.000408477,-2.27805,-0.023551,-2.5052,505.616,-0.0774848,
2,0,0,1,1,66210.7,-0.0666562,-0.0670769,-0.608785,34,-0.00138681,10,4.08354e-05,-3.21554,-0.0129503,-4.55589,397.25,-0.0670769,
2,1,0,1,1,66210.7,-0.0562576,-0.0566817,3.09031,34,-0.00135228,10,-0.000175164,-2.51,0.0213533,2.76304,319.48,-0.0566817,
2,1,0,1,1,66210.7,-0.0458563,-0.0462569,6.13644,34,-0.00123069,10,-0.000283852,-2.21208,0.0528322,1.11674,264.276,-0.0462569,
2,1,0,1,1,66210.7,-0.0354522,-0.0358394,8.61876,34,-0.00103765,10,-0.000308891,-2.06455,0.0920692,0.640823,214.333,-0.0358394,
2,1,0,1,1,66210.8,-0.0250564,-0.0254591,10.6428,34,-0.000786081,10,-0.000270957,-1.97294,0.139874,0.42181,174.925,-0.0254591,
2,1,0,1,1,66210.8,-0.0146579,-0.0150268,12.2984,34,-0.000486884,10,-0.000184805,-1.91015,0.197635,0.29853,143.026,-0.0150268,
2,1,0,1,1,66210.8,-0.00425653,-0.00462633,13.6374,34,-0.000149081,10,-6.30911e-05,-1.86527,0.279167,0.211343,112.285,-0.00462633,
2,1,0,0,1,66210.8,-7.54729e-05,-0.000382585,14.0689,34,-3.48359e-06,10,-5.38254e-06,-1.85174, , , ,-0.000382585,