File: Figure_codes/Fig_3-5/rawdata_trumpetplot_data/after 10th/20221101_1-115_003_TrumpetPlot_ParaChange_from10_every3_13_CV_C01_1.csv
mode,ox/red,error,control changes,counter inc.,time/s,control/V,Ewe/V,<I>/mA,cycle number,(Q-Qo)/C,I Range,P/W,log(|I|),Tafel slope mV/dec,alpha_eff,dI/d(E-IR),E-IR/V,
2,1,0,1,0,3167.99,2.44065e-05,-0.000229887,27.3937,2,0.0000000E+000,10,-6.29746e-06,-1.56235, , , ,-0.000229887,
2,1,0,1,0,3168,0.0122624,0.0119054,31.6735,2,0.000451379,10,0.000377086,-1.4993,0.287631,0.205124,251.738,0.0119054,
2,1,0,1,0,3168.02,0.0250636,0.0247172,34.2393,2,0.00098041,10,0.000846301,-1.46547,0.471252,0.125198,166.821,0.0247172,
2,1,0,1,0,3168.03,0.0378703,0.0375577,36.085,2,0.00154382,10,0.00135527,-1.44267,0.628173,0.0939231,132.177,0.0375577,
2,1,0,1,0,3168.05,0.0506632,0.0503356,37.7296,2,0.00213461,10,0.00189914,-1.42332,0.655721,0.0899774,132.572,0.0503356,
2,1,0,1,0,3168.07,0.0634672,0.0631389,39.5696,2,0.00275279,10,0.00249838,-1.40264,0.587127,0.100489,155.268,0.0631389,
2,1,0,1,0,3168.08,0.0762628,0.0758988,41.7372,2,0.00340292,10,0.0031678,-1.37948,0.519045,0.11367,185.286,0.0758988,
2,1,0,1,0,3168.1,0.0890668,0.0886672,44.3259,2,0.00409104,10,0.00393025,-1.35334,0.467256,0.126269,218.56,0.0886672,
2,1,0,1,0,3168.11,0.10186,0.101503,47.1984,2,0.00482351,10,0.0047908,-1.32607,0.470427,0.125418,231.142,0.101503,
2,1,0,1,0,3168.13,0.114666,0.114269,50.3605,2,0.0056037,10,0.00575462,-1.29791,0.449862,0.131151,257.69,0.114269,
2,1,0,1,0,3168.15,0.127462,0.127093,53.6888,2,0.00643636,10,0.00682348,-1.27012,0.461558,0.127828,267.956,0.127093,
2,1,0,1,0,3168.16,0.140263,0.139954,57.331,2,0.00732432,10,0.00802369,-1.24161,0.438594,0.134521,301.094,0.139954,
2,1,0,1,0,3168.18,0.153064,0.152707,61.3978,2,0.00827394,10,0.00937589,-1.21185,0.426241,0.138419,331.709,0.152707,
2,1,0,1,0,3168.19,0.165866,0.165476,65.6911,2,0.00929127,10,0.0108703,-1.18249,0.454639,0.129773,332.549,0.165476,
2,1,0,1,0,3168.21,0.178667,0.178357,69.7563,2,0.0103762,10,0.0124415,-1.15642,0.555983,0.106118,288.416,0.178357,
2,1,0,1,0,3168.23,0.191463,0.191114,72.9527,2,0.0115198,10,0.0139423,-1.13696,0.905903,0.0651284,184.723,0.191114,
2,1,0,1,0,3168.24,0.204269,0.20394,74.0992,2,0.0126999,10,0.0151118,-1.13019,-3.99694,-0.0147613,-42.3942,0.20394,
2,1,0,1,0,3168.26,0.217062,0.216718,71.3753,2,0.0138696,10,0.0154683,-1.14645,-0.41258,-0.143003,-394.87,0.216718,
2,1,0,1,0,3168.27,0.229866,0.22962,64.0675,2,0.014958,10,0.0147112,-1.19336,-0.208891,-0.282444,-701.664,0.22962,
2,1,0,1,0,3168.29,0.242662,0.242392,54.2976,2,0.015905,10,0.0131613,-1.26522,-0.164903,-0.357786,-757.909,0.242392,
2,1,0,1,0,3168.31,0.255466,0.255176,45.4006,2,0.0166989,10,0.0115852,-1.34294,-0.174083,-0.338918,-603.179,0.255176,
2,1,0,1,0,3168.32,0.268259,0.267965,38.9395,2,0.0173696,10,0.0104344,-1.40961,-0.220373,-0.267727,-409.26,0.267965,
2,1,0,1,0,3168.34,0.281065,0.280752,34.7267,2,0.0179563,10,0.00974959,-1.45934,-0.304404,-0.193821,-263.951,0.280752,
2,1,0,1,0,3168.35,0.293861,0.293596,32.0061,2,0.0184884,10,0.00939688,-1.49477,-0.426669,-0.13828,-173.609,0.293596,
2,1,0,1,0,3168.36,0.298983,0.298922,28.119,2,0.0187684,10,0.0084054,-1.551,0.0204493,2.88519,2429.92,0.298922,
2,1,0,1,0,3168.38,0.286187,0.285972,5.35811,2,0.019007,10,0.00153227,-2.27099,0.0100127,5.89254,1168.2,0.2859717,
2,0,0,1,0,3168.39,0.273386,0.27312,-5.09634,2,0.0189987,10,-0.00139191,-2.29274,-0.0122975,-4.79771,586.4,0.27312,
2,0,0,1,0,3168.41,0.260585,0.260314,-10.6898,2,0.0188678,10,-0.0027827,-1.97103,-0.070873,-0.832475,333.488,0.260314,
2,0,0,1,0,3168.43,0.247783,0.247502,-14.0261,2,0.0186677,10,-0.00347148,-1.85306,-0.150295,-0.392561,212.342,0.247502,
2,0,0,1,0,3168.44,0.234982,0.234719,-16.2864,2,0.0184238,10,-0.00382272,-1.78818,-0.249357,-0.236608,149.643,0.234719,
2,0,0,1,0,3168.46,0.222187,0.221886,-17.9869,2,0.0181489,10,-0.00399104,-1.74504,-0.338759,-0.174165,122.006,0.221886,
2,0,0,1,0,3168.47,0.20938,0.209103,-19.45,2,0.017849,10,-0.00406705,-1.71108,-0.41245,-0.143048,108.456,0.209103,
2,0,0,1,0,3168.49,0.196587,0.196301,-20.8314,2,0.0175266,10,-0.00408921,-1.68128,-0.438739,-0.134476,109.293,0.196301,
2,0,0,1,0,3168.51,0.183783,0.1835,-22.2836,2,0.0171817,10,-0.00408905,-1.65201,-0.412756,-0.142942,124.517,0.1835,
2,0,0,1,0,3168.52,0.170987,0.170714,-24.0257,2,0.0168114,10,-0.00410153,-1.61932,-0.354262,-0.166543,156.726,0.170714,
2,0,0,1,0,3168.54,0.158183,0.15789,-26.4057,2,0.0164086,10,-0.00416921,-1.5783,-0.278469,-0.211873,219.189,0.1578905,
2,0,0,1,0,3168.55,0.145385,0.145092,-29.7819,2,0.0159604,10,-0.00432113,-1.52605,-0.218984,-0.269426,314.439,0.145092,
2,0,0,1,0,3168.57,0.132584,0.132284,-34.5459,2,0.0154473,10,-0.00456986,-1.4616,-0.183859,-0.320899,434.012,0.132284,
2,0,0,1,0,3168.59,0.119782,0.11952,-40.7859,2,0.0148458,10,-0.00487472,-1.38949,-0.178655,-0.330246,525.503,0.11952,
2,0,0,1,0,3168.6,0.106987,0.106757,-47.7484,2,0.0141371,10,-0.00509746,-1.32104,-0.202587,-0.291233,540.9,0.106757,
2,0,0,1,0,3168.62,0.0941801,0.0939681,-54.4624,2,0.0133185,10,-0.00511773,-1.2639,-0.248133,-0.237775,503.706,0.0939681,
2,0,0,1,0,3168.63,0.0813844,0.0812284,-60.3872,2,0.0123974,10,-0.00490516,-1.21906,-0.332571,-0.177406,416.839,0.0812284,
2,0,0,1,0,3168.65,0.0685832,0.0683116,-65.1453,2,0.0113911,10,-0.00445018,-1.18612,-0.483322,-0.122072,309.068,0.0683116,
2,0,0,1,0,3168.67,0.0557876,0.0555125,-68.181,2,0.0103217,10,-0.0037849,-1.16634,-0.946543,-0.0623321,165.258,0.0555125,
2,0,0,1,0,3168.68,0.0429808,0.0427102,-69.3327,2,0.00921883,10,-0.00296121,-1.15906,-6.87052,-0.00858742,23.1741,0.0427102,
2,0,0,1,0,3168.7,0.030188,0.0298751,-68.8806,2,0.00811114,10,-0.00205781,-1.1619,2.02808,0.0290916,-78.1089,0.0298751,
2,0,0,1,0,3168.71,0.017384,0.0170335,-67.5706,2,0.00701879,10,-0.00115097,-1.17024,1.24728,0.0473028,-124.601,0.0170335,
2,0,0,1,0,3168.73,0.00458834,0.0042726,-65.7482,2,0.00595196,10,-0.000280916,-1.18212,0.970926,0.0607667,-155.79,0.0042726,
2,0,0,1,0,3168.75,-0.00821564,-0.00856787,-63.4236,2,0.00491748,10,0.000543405,-1.19775,0.686602,0.0859304,-212.389,-0.00856787,
2,0,0,1,0,3168.76,-0.0210196,-0.0213744,-60.3036,2,0.00392672,10,0.00128895,-1.21966,0.512231,0.115182,-270.776,-0.0213744,
2,0,0,1,0,3168.78,-0.0338153,-0.034147,-56.7031,2,0.00299081,10,0.00193624,-1.24639,0.475067,0.124193,-275.004,-0.034147,
2,0,0,1,0,3168.79,-0.0466193,-0.0469599,-53.5192,2,0.00211057,10,0.00251326,-1.27149,0.571684,0.103204,-215.891,-0.0469599,
2,0,0,1,0,3168.81,-0.0594121,-0.0597876,-51.2609,2,0.00127412,10,0.00306477,-1.29021,0.895057,0.0659176,-132.186,-0.0597876,
2,0,0,1,0,3168.83,-0.0722189,-0.0725634,-50.0597,2,0.000464807,10,0.0036325,-1.30051,2.01561,0.0292715,-57.317,-0.0725634,
2,0,0,1,0,3168.84,-0.0850146,-0.0853986,-49.6805,2,-0.000332323,10,0.00424265,-1.30381,29.105,0.00202714,-3.93833,-0.0853986,
2,0,0,1,0,3168.86,-0.0978158,-0.098185,-49.9638,2,-0.00112897,10,0.00490569,-1.30134,-2.73638,-0.0215613,42.0944,-0.098185,
2,0,0,1,0,3168.87,-0.110611,-0.110967,-50.7511,2,-0.0019342,10,0.00563171,-1.29455,-1.50414,-0.0392252,77.7511,-0.110967,
2,0,0,1,0,3168.89,-0.123418,-0.123761,-51.9382,2,-0.00275533,10,0.00642792,-1.28451,-1.12018,-0.0526702,106.825,-0.123761,
2,0,0,1,0,3168.91,-0.136214,-0.136561,-53.4365,2,-0.00359818,10,0.00729735,-1.27216,-0.958963,-0.0615248,128.394,-0.136561,
2,0,0,1,0,3168.92,-0.149015,-0.149374,-55.1746,2,-0.00446728,10,0.00824165,-1.25826,-0.901214,-0.0654673,141.024,-0.149374,
2,0,0,1,0,3168.94,-0.161816,-0.162162,-57.0272,2,-0.00536511,10,0.00924767,-1.24392,-0.903195,-0.0653237,145.389,-0.1621625,
2,0,0,1,0,3168.95,-0.174615,-0.174904,-58.9256,2,-0.00629295,10,0.0103063,-1.2297,-0.909979,-0.0648367,149.071,-0.174904,
2,0,0,1,0,3168.97,-0.187419,-0.18775,-60.8489,2,-0.0072512,10,0.0114244,-1.21575,-0.930151,-0.0634306,150.591,-0.18775,
2,0,0,1,0,3168.99,-0.199647,-0.199969,-62.6817,2,-0.00819652,10,0.0125344,-1.20286,0.325147,0.181457,-429.58,-0.199969,
2,0,0,1,1,3169,-0.192535,-0.19298,-45.321,2,-0.00873949,10,0.00874605,-1.3437,-0.0544922,-1.08272,1939.19,-0.19298,
2,0,0,1,1,3169.01,-0.179739,-0.18018,-25.5695,2,-0.00929482,10,0.0046071,-1.59228,-0.0446272,-1.32206,1304.26,-0.18018,
2,0,0,1,1,3169.03,-0.166932,-0.16734,-11.1085,2,-0.00958174,10,0.0018589,-1.95434,-0.0236552,-2.49417,991.684,-0.16734,
2,0,0,1,1,3169.04,-0.154139,-0.154566,0.261059,2,-0.0096641,10,-4.03508e-05,-3.58326,36.4938,0.00161671,803.258,-0.154566,
2,1,0,1,1,3169.06,-0.141335,-0.141808,9.52571,2,-0.00958254,10,-0.00135082,-2.0211,0.0302331,1.9515,660.203,-0.141808,
2,1,0,1,1,3169.08,-0.12854,-0.129029,17.293,2,-0.00936552,10,-0.0022313,-1.76213,0.069958,0.843363,556.018,-0.129029,
2,1,0,1,1,3169.09,-0.115736,-0.116151,23.8168,2,-0.00903435,10,-0.00276635,-1.62312,0.117307,0.502953,462.317,-0.116151,
2,1,0,1,1,3169.11,-0.102932,-0.103315,29.2212,2,-0.00860822,10,-0.00301899,-1.5343,0.17336,0.340332,385.755,-0.103315,
2,1,0,1,1,3169.12,-0.0901362,-0.0905182,33.7433,2,-0.00810294,10,-0.00305438,-1.47181,0.240684,0.245135,321.439,-0.0905182,
2,1,0,1,1,3169.14,-0.0773322,-0.0776756,37.5052,2,-0.00753175,10,-0.00291324,-1.42591,0.323005,0.18266,266.472,-0.0776756,
2,1,0,1,1,3169.16,-0.0645393,-0.0649741,40.5756,2,-0.00690598,10,-0.00263636,-1.39174,0.425861,0.138543,218.925,-0.0649741,
2,1,0,1,1,3169.17,-0.0517325,-0.0521485,43.0833,2,-0.00623562,10,-0.00224673,-1.36569,0.565972,0.104245,175.011,-0.0521485,
2,1,0,1,1,3169.19,-0.0389369,-0.0393144,45.0457,2,-0.00552955,10,-0.00177094,-1.34635,0.777977,0.0758377,133.173,-0.0393144,
2,1,0,1,1,3169.2,-0.0261357,-0.0264909,46.5321,2,-0.00479603,10,-0.00123268,-1.33225,1.11906,0.0527229,95.6037,-0.0264909,
2,1,0,1,1,3169.22,-0.01334,-0.0137299,47.5224,2,-0.00404296,10,-0.00065248,-1.3231,1.84458,0.0319857,59.2423,-0.0137299,
2,1,0,1,1,3169.24,-0.000774628,-0.00116358,48.0555,2,-0.00329206,10,-5.59162e-05,-1.31826, , , ,-0.00116358,
2,1,0,0,1,3169.24,-0.000125413,-0.000439847,48.0915,2,-0.00325361,10,-2.11529e-05,-1.31793, , , ,-0.000439847,