File: Figure_codes/Fig_3-5/rawdata_trumpetplot_data/after 10th/20221101_1-115_003_TrumpetPlot_ParaChange_from10_every3_04_CV_C01_14.csv
mode,ox/red,error,control changes,counter inc.,time/s,control/V,Ewe/V,<I>/mA,cycle number,(Q-Qo)/C,I Range,P/W,log(|I|),Tafel slope mV/dec,alpha_eff,dI/d(E-IR),E-IR/V,
2,0,0,1,0,28641.8,2.44065e-05,-0.00042076,-0.3837,15,0.0000000E+000,10,1.61446e-07,-3.41601, , , ,-0.00042076,
2,1,0,1,0,28642.6,0.00729063,0.00698406,0.352203,15,0.000177162,10,2.45981e-06,-3.45321,0.0563691,1.04667,14.1309,0.00698406,
2,1,0,1,0,28643.3,0.0147814,0.0144564,0.428224,15,0.00048248,10,6.19059e-06,-3.36833,0.112679,0.523613,8.73104,0.0144564,
2,1,0,1,0,28644.1,0.0222725,0.0219782,0.484713,15,0.000836327,10,1.06531e-05,-3.31452,0.14967,0.394201,7.44962,0.0219782,
2,1,0,1,0,28644.8,0.0297635,0.0294137,0.539852,15,0.00123152,10,1.5879e-05,-3.26773,0.188866,0.312391,6.58478,0.0294137,
2,1,0,1,0,28645.6,0.0372544,0.0369702,0.59164,15,0.00166632,10,2.18731e-05,-3.22794,0.196106,0.300858,6.95559,0.0369702,
2,1,0,1,0,28646.3,0.0447458,0.0444032,0.642054,15,0.00214033,10,2.85093e-05,-3.19243,0.221197,0.266731,6.68556,0.0444032,
2,1,0,1,0,28647.1,0.0522363,0.0519251,0.691444,15,0.00265142,10,3.59033e-05,-3.16024,0.239738,0.246102,6.62802,0.0519251,
2,1,0,1,0,28647.8,0.0597282,0.0594009,0.732678,15,0.00319621,10,4.35218e-05,-3.13509,0.301323,0.195803,5.59126,0.0594009,
2,1,0,1,0,28648.6,0.0672182,0.0669575,0.773804,15,0.00377145,10,5.1812e-05,-3.11137,0.365447,0.161446,4.858,0.0669575,
2,1,0,1,0,28649.3,0.0747092,0.074392,0.804734,15,0.00437343,10,5.98657e-05,-3.09435,0.510422,0.115591,3.629,0.074392,
2,1,0,1,0,28650.1,0.0822001,0.0818731,0.829283,15,0.00499766,10,6.7896e-05,-3.0813,0.591533,0.0997408,3.24037,0.0818731,
2,1,0,1,0,28650.8,0.0896911,0.0893787,0.867857,15,0.0056445,10,7.7568e-05,-3.06155,0.336845,0.175155,5.94712,0.0893787,
2,1,0,1,0,28651.6,0.097182,0.0968705,0.924603,15,0.00632672,10,8.95667e-05,-3.03404,0.204458,0.288567,10.4095,0.0968705,
2,1,0,1,0,28652.3,0.104673,0.104354,1.01055,15,0.00706119,10,0.000105455,-2.99544,0.194652,0.303105,11.9039,0.104354,
2,1,0,1,0,28653.1,0.112164,0.111835,1.08531,15,0.00785801,10,0.000121376,-2.96445,0.312342,0.188895,7.98241,0.111835,
2,1,0,1,0,28653.8,0.119655,0.119348,1.13811,15,0.00870403,10,0.000135832,-2.94381,0.539345,0.109392,4.86515,0.119348,
2,1,0,1,0,28654.6,0.127146,0.12684,1.17251,15,0.00958358,10,0.000148721,-2.93088,0.63784,0.0924997,4.24843,0.12684,
2,1,0,1,0,28655.3,0.134637,0.134284,1.19019,15,0.0104859,10,0.000159823,-2.92438,-0.860437,-0.0685698,-3.18377,0.134284,
2,1,0,1,0,28656.1,0.142127,0.141843,1.10407,15,0.011366,10,0.000156604,-2.957,-0.127654,-0.462187,-19.8155,0.1418429,
2,1,0,1,0,28656.8,0.149619,0.149307,0.903416,15,0.012132,10,0.000134886,-3.04411,-0.0738835,-0.798554,-28.1391,0.149307,
2,1,0,1,0,28657.5,0.157109,0.156803,0.728393,15,0.0127481,10,0.000114214,-3.13763,-0.0956999,-0.616511,-17.552,0.156803,
2,1,0,1,0,28658.3,0.164601,0.164309,0.641586,15,0.0132679,10,0.000105418,-3.19275,-0.176783,-0.333743,-8.35127,0.164309,
2,1,0,1,0,28659,0.172091,0.17175,0.593913,15,0.01374,10,0.000102004,-3.22628,-0.337627,-0.174749,-4.06847,0.17175,
2,1,0,1,0,28659.8,0.179582,0.179286,0.570165,15,0.0141869,10,0.000102223,-3.244,-0.414432,-0.142363,-3.18122,0.179286,
2,1,0,1,0,28660.5,0.187074,0.186761,0.554967,15,0.0146191,10,0.000103646,-3.25573,-0.877513,-0.0672355,-1.45435,0.186761,
2,1,0,1,0,28661.3,0.194564,0.194207,0.545224,15,0.015042,10,0.000105887,-3.26342,-0.939134,-0.0628238,-1.33943,0.194207,
2,1,0,1,0,28662,0.202056,0.201761,0.537367,15,0.0154576,10,0.00010842,-3.26973,-1.04986,-0.0561978,-1.17608,0.201761,
2,1,0,1,0,28662.8,0.209546,0.209229,0.529052,15,0.0158679,10,0.000110693,-3.2765,-0.66411,-0.0888407,-1.8396,0.209229,
2,1,0,1,0,28663.5,0.217038,0.216672,0.521249,15,0.0162729,10,0.00011294,-3.28295,-1.93463,-0.0304968,-0.623899,0.216672,
2,1,0,1,0,28664.3,0.224528,0.224197,0.518643,15,0.0166741,10,0.000116278,-3.28513,-1.33165,-0.0443059,-0.894933,0.224197,
2,1,0,1,0,28665,0.232019,0.231711,0.514668,15,0.0170715,10,0.000119254,-3.28847,-4.54827,-0.012972,-0.260185,0.231711,
2,1,0,1,0,28665.8,0.23951,0.239172,0.508493,15,0.0174656,10,0.000121617,-3.29371,-2.91941,-0.0202096,-0.402431,0.239172,
2,1,0,1,0,28666.5,0.247001,0.246666,0.506002,15,0.0178564,10,0.000124813,-3.29585,-1.35502,-0.0435418,-0.859105,0.246666,
2,1,0,1,0,28667.3,0.254492,0.254195,0.502092,15,0.0182442,10,0.000127629,-3.29922,-3.10596,-0.0189957,-0.371754,0.254195,
2,1,0,1,0,28668,0.261983,0.261669,0.496553,15,0.018629,10,0.000129933,-3.30403,-1.35798,-0.043447,-0.844691,0.261669,
2,1,0,1,0,28668.8,0.269474,0.269179,0.493564,15,0.0190107,10,0.000132857,-3.30666,-44.3417,-0.00133058,-0.0255824,0.269179,
2,1,0,1,0,28669.5,0.276965,0.276671,0.488379,15,0.0193891,10,0.00013512,-3.31124,-1.99157,-0.0296249,-0.564485,0.2766709,
2,1,0,1,0,28670.3,0.284456,0.284176,0.485063,15,0.0197642,10,0.000137844,-3.3142,-5.25133,-0.0112352,-0.212049,0.284176,
2,1,0,1,0,28671,0.291947,0.291667,0.479201,15,0.0201357,10,0.000139767,-3.31948,-1.10323,-0.0534794,-1.00121,0.291667,
2,1,0,1,0,28671.8,0.299437,0.299152,0.475221,15,0.020504,10,0.000142163,-3.3231,-0.00269492,-21.8931,-204.672,0.299152,
2,0,0,1,0,28672.5,0.293745,0.293421,-0.0679959,15,0.0205276,10,-1.99514e-05,-4.16752,-0.0136618,-4.31861,10.5997,0.293421,
2,0,0,1,0,28673.2,0.286253,0.285944,-0.12664,15,0.0204413,10,-3.6212e-05,-3.89743,-0.0490785,-1.20216,5.94096,0.285944,
2,0,0,1,0,28674,0.278763,0.278464,-0.162049,15,0.0203212,10,-4.51248e-05,-3.79035,-0.095696,-0.616535,3.91636,0.278464,
2,0,0,1,0,28674.7,0.271272,0.270964,-0.192561,15,0.0201771,10,-5.2177e-05,-3.71543,-0.113625,-0.519253,3.87788,0.270964,
2,0,0,1,0,28675.5,0.263781,0.26349,-0.215703,15,0.0200131,10,-5.68355e-05,-3.66614,-0.160333,-0.367984,3.09752,0.26349,
2,0,0,1,0,28676.2,0.25629,0.255987,-0.23673,15,0.0198323,10,-6.05997e-05,-3.62575,-0.231164,-0.25523,2.34751,0.2559866,
2,0,0,1,0,28677,0.248799,0.24851,-0.254874,15,0.0196373,10,-6.33388e-05,-3.59367,-0.248693,-0.23724,2.35906,0.24851,
2,0,0,1,0,28677.7,0.241308,0.240999,-0.270811,15,0.0194294,10,-6.5265e-05,-3.56733,-0.333925,-0.176686,1.87709,0.240999,
2,0,0,1,0,28678.5,0.233817,0.233517,-0.286847,15,0.0192094,10,-6.69835e-05,-3.54235,-0.265681,-0.222071,2.4925,0.2335166,
2,0,0,1,0,28679.2,0.226326,0.226042,-0.300928,15,0.0189779,10,-6.80223e-05,-3.52154,-0.501946,-0.117543,1.38357,0.226042,
2,0,0,1,0,28680,0.218835,0.218513,-0.316505,15,0.0187349,10,-6.91604e-05,-3.49962,-0.342407,-0.172309,2.12911,0.218513,
2,0,0,1,0,28680.7,0.211344,0.211001,-0.332085,15,0.0184808,10,-7.00702e-05,-3.47875,-0.433567,-0.136081,1.76096,0.211001,
2,0,0,1,0,28681.5,0.203854,0.203504,-0.34776,15,0.0182151,10,-7.07706e-05,-3.45872,-0.357409,-0.165077,2.24071,0.203504,
2,0,0,1,0,28682.2,0.196362,0.196038,-0.363774,15,0.017938,10,-7.13134e-05,-3.43917,-0.460386,-0.128153,1.81595,0.196038,
2,0,0,1,0,28683,0.188872,0.188508,-0.380584,15,0.0176483,10,-7.17431e-05,-3.41955,-0.286978,-0.205591,3.05731,0.188508,
2,0,0,1,0,28683.7,0.18138,0.181071,-0.4013,15,0.0173448,10,-7.26638e-05,-3.39653,-0.312972,-0.188515,2.9504,0.181071,
2,0,0,1,0,28684.5,0.17389,0.173571,-0.424108,15,0.0170253,10,-7.36129e-05,-3.37252,-0.265751,-0.222012,3.66538,0.173571,
2,0,0,1,0,28685.2,0.166398,0.166065,-0.454895,15,0.0166854,10,-7.55422e-05,-3.34209,-0.259838,-0.227064,4.04048,0.1660652,
2,0,0,1,0,28686,0.158907,0.158558,-0.498057,15,0.0163179,10,-7.89709e-05,-3.30272,-0.166442,-0.354478,6.90479,0.158558,
2,0,0,1,0,28686.7,0.151417,0.151076,-0.566842,15,0.0159089,10,-8.56364e-05,-3.24654,-0.109044,-0.541064,12.0205,0.151076,
2,0,0,1,0,28687.4,0.143925,0.143633,-0.684528,15,0.0154315,10,-9.83205e-05,-3.16461,-0.074147,-0.795717,21.3184,0.143633,
2,0,0,1,0,28688.2,0.136435,0.136104,-0.860827,15,0.0148435,10,-0.000117162,-3.06508,-0.0780679,-0.755753,25.2801,0.136104,
2,0,0,1,0,28688.9,0.128943,0.128612,-1.03932,15,0.014119,10,-0.000133669,-2.98325,-0.112612,-0.523923,21.1897,0.128612,
2,0,0,1,0,28689.7,0.121453,0.121134,-1.16562,15,0.0132772,10,-0.000141196,-2.93344,-0.253105,-0.233105,10.5511,0.121134,
2,0,0,1,0,28690.4,0.113962,0.11363,-1.20756,15,0.0123709,10,-0.000137216,-2.91809,-1.87549,-0.0314584,1.48593,0.11363,
2,0,0,1,0,28691.2,0.106471,0.106148,-1.19623,15,0.0114536,10,-0.000126977,-2.92219,0.740826,0.0796408,-3.72624,0.106148,
2,0,0,1,0,28691.9,0.0989799,0.0987018,-1.16549,15,0.0105558,10,-0.000115036,-2.93349,0.592582,0.0995643,-4.52028,0.0987018,
2,0,0,1,0,28692.7,0.0914889,0.0911284,-1.12801,15,0.00968629,10,-0.000102794,-2.94769,0.580029,0.101719,-4.47133,0.0911284,
2,0,0,1,0,28693.4,0.083998,0.0836822,-1.08931,15,0.00884468,10,-9.11559e-05,-2.96285,0.419665,0.140588,-5.97279,0.0836822,
2,0,0,1,0,28694.2,0.076507,0.0762042,-1.05409,15,0.00802962,10,-8.03263e-05,-2.97712,0.547059,0.107849,-4.44291,0.0762042,
2,0,0,1,0,28694.9,0.0690161,0.0687347,-1.02151,15,0.00723989,10,-7.0213e-05,-2.99076,0.580264,0.101678,-4.06204,0.0687347,
2,0,0,1,0,28695.7,0.0615251,0.0612196,-0.991962,15,0.00647311,10,-6.07275e-05,-3.00351,0.600075,0.0983211,-3.81167,0.06121961,
2,0,0,1,0,28696.4,0.0540342,0.0536716,-0.960755,15,0.00572988,10,-5.15653e-05,-3.01739,0.622637,0.0947582,-3.55103,0.0536716,
2,0,0,1,0,28697.2,0.0465441,0.0462793,-0.92809,15,0.00501051,10,-4.29514e-05,-3.03241,0.560241,0.105312,-3.82081,0.0462793,
2,0,0,1,0,28697.9,0.0390523,0.038757,-0.894887,15,0.00431675,10,-3.46832e-05,-3.04823,0.383093,0.15401,-5.36423,0.038757,
2,0,0,1,0,28698.7,0.0315618,0.0312199,-0.860097,15,0.00364875,10,-2.68522e-05,-3.06545,0.468376,0.125967,-4.22672,0.0312199,
2,0,0,1,0,28699.4,0.0240704,0.0237661,-0.823949,15,0.00300594,10,-1.9582e-05,-3.0841,0.473884,0.124503,-4.02256,0.02376605,
2,0,0,1,0,28700.2,0.0165796,0.0162906,-0.800253,15,0.00238549,10,-1.30366e-05,-3.09677,0.740888,0.0796342,-2.48961,0.0162906,
2,0,0,1,0,28700.9,0.00908846,0.00873903,-0.783028,15,0.00178135,10,-6.84291e-06,-3.10622,1.69031,0.0349048,-1.06721,0.00873903,
2,0,0,1,0,28701.7,0.00159728,0.00123217,-0.788296,15,0.00118444,10,-9.71314e-07,-3.10331, , , ,0.00123217,
2,0,0,1,0,28701.8,0.000199195,-0.000189804,-0.77954,15,0.00107278,10,1.47959e-07,-3.10816, , , ,-0.000189804,