File: Figure_codes/Fig_3-5/rawdata_trumpetplot_data/after 10th/20221101_1-115_003_TrumpetPlot_ParaChange_from10_every3_07_CV_C01_10.csv
mode,ox/red,error,control changes,counter inc.,time/s,control/V,Ewe/V,<I>/mA,cycle number,(Q-Qo)/C,I Range,P/W,log(|I|),Tafel slope mV/dec,alpha_eff,dI/d(E-IR),E-IR/V,
2,0,0,0,0,20866.3,2.44065e-05,-0.0002108,-2.75864,11,0.0000000E+000,10,5.81521e-07,-2.5593, , , ,-0.0002108,
2,1,0,1,0,20866.4,0.007288,0.00693338,1.28904,11,2.94698e-06,10,8.9374e-06,-2.88973,0.0149117,3.95663,183.477,0.00693338,
2,1,0,1,0,20866.6,0.0147816,0.014463,2.07174,11,0.000223488,10,2.99635e-05,-2.68366,0.0725762,0.812939,65.232,0.014463,
2,1,0,1,0,20866.7,0.0222712,0.0219769,2.45032,11,0.000509131,10,5.38504e-05,-2.61078,0.128185,0.460271,43.8716,0.0219769,
2,1,0,1,0,20866.8,0.0297648,0.0294542,2.74198,11,0.00083542,10,8.07626e-05,-2.56194,0.16582,0.355807,38.0072,0.0294542,
2,1,0,1,0,20866.9,0.0372518,0.0368977,3.0091,11,0.00119659,10,0.000111029,-2.52156,0.198425,0.297342,34.9903,0.0368977,
2,1,0,1,0,20867.1,0.0447467,0.0444473,3.28326,11,0.00159177,10,0.000145932,-2.4837,0.233631,0.252535,32.3017,0.0444473,
2,1,0,1,0,20867.2,0.052235,0.0518999,3.53518,11,0.00201904,10,0.000183475,-2.45159,0.224335,0.262999,36.2337,0.0518999,
2,1,0,1,0,20867.3,0.0597299,0.0594212,3.77,11,0.00247756,10,0.000224018,-2.42366,0.257904,0.228768,33.6653,0.0594212,
2,1,0,1,0,20867.4,0.0672156,0.0668899,3.99314,11,0.00296432,10,0.000267101,-2.39868,0.333754,0.176777,27.5456,0.0668899,
2,1,0,1,0,20867.6,0.0747105,0.0743982,4.19018,11,0.00347761,10,0.000311742,-2.37777,0.404929,0.145705,23.8,0.07439816,
2,1,0,1,0,20867.7,0.0821988,0.0818626,4.35927,11,0.00401322,10,0.000356862,-2.36059,0.469291,0.125721,21.3637,0.0818626,
2,1,0,1,0,20867.8,0.0896937,0.0893816,4.51649,11,0.00456957,10,0.000403691,-2.3452,0.421845,0.139862,24.6954,0.0893816,
2,1,0,1,0,20867.9,0.0971794,0.0968442,4.72488,11,0.00514838,10,0.000457577,-2.32561,0.322024,0.183216,33.8912,0.0968442,
2,1,0,1,0,20868.1,0.104674,0.10434,5.05973,11,0.00576026,10,0.000527933,-2.29587,0.230742,0.255697,50.4334,0.10434,
2,1,0,1,0,20868.2,0.112163,0.111808,5.46548,11,0.00641805,10,0.000611082,-2.26237,0.227411,0.259442,55.2414,0.1118075,
2,1,0,1,0,20868.3,0.119657,0.119389,5.85696,11,0.00712753,10,0.000699256,-2.23233,0.309798,0.190446,43.4703,0.119389,
2,1,0,1,0,20868.4,0.127143,0.126835,6.12405,11,0.00787834,10,0.000776741,-2.21296,0.464351,0.127059,30.41,0.126835,
2,1,0,1,0,20868.6,0.134638,0.134313,6.33949,11,0.00865981,10,0.000851474,-2.19795,0.730928,0.0807193,19.9792,0.134313,
2,1,0,1,0,20868.7,0.142126,0.141846,6.44382,11,0.00946144,10,0.000914032,-2.19086,-35.2704,-0.00167279,-0.419549,0.141846,
2,1,0,1,0,20868.8,0.149621,0.149314,6.15674,11,0.0102563,10,0.00091929,-2.21065,-0.177615,-0.33218,-79.4161,0.149314,
2,1,0,1,0,20868.9,0.157107,0.15681,5.25938,11,0.0109756,10,0.000824722,-2.27907,-0.0830135,-0.710728,-145.645,0.15681,
2,1,0,1,0,20869.1,0.164602,0.164312,4.23124,11,0.011568,10,0.000695241,-2.37353,-0.0813193,-0.725535,-120.12,0.164312,
2,1,0,1,0,20869.2,0.17209,0.171796,3.54739,11,0.0120515,10,0.000609426,-2.45009,-0.118957,-0.495979,-68.8626,0.171796,
2,1,0,1,0,20869.3,0.179585,0.179267,3.15038,11,0.0124698,10,0.00056476,-2.50164,-0.194549,-0.303265,-37.4557,0.179267,
2,1,0,1,0,20869.4,0.187072,0.186747,2.9227,11,0.0128499,10,0.000545804,-2.53422,-0.273255,-0.215915,-24.6763,0.1867467,
2,1,0,1,0,20869.6,0.194566,0.194244,2.78686,11,0.0132078,10,0.000541331,-2.55489,-0.42306,-0.13946,-15.1646,0.194244,
2,1,0,1,0,20869.7,0.202055,0.201788,2.69509,11,0.013551,10,0.000543838,-2.56943,-0.622256,-0.0948163,-9.9415,0.201788,
2,1,0,1,0,20869.8,0.209549,0.209215,2.62947,11,0.0138848,10,0.000550125,-2.58013,-0.696779,-0.0846754,-8.68808,0.209215,
2,1,0,1,0,20869.9,0.217036,0.216769,2.56837,11,0.0142113,10,0.000556745,-2.59034,-0.931218,-0.0633579,-6.3796,0.216769,
2,1,0,1,0,20870.1,0.224529,0.224183,2.53938,11,0.0145328,10,0.000569286,-2.59527,-0.965036,-0.0611376,-6.06473,0.224183,
2,1,0,1,0,20870.2,0.232019,0.23169,2.51508,11,0.0148497,10,0.00058272,-2.59945,-2.05987,-0.0286426,-2.80526,0.2316903,
2,1,0,1,0,20870.3,0.239513,0.239196,2.48518,11,0.0151634,10,0.000594445,-2.60464,-4.91602,-0.0120016,-1.16298,0.239196,
2,1,0,1,0,20870.4,0.247001,0.246699,2.45799,11,0.0154737,10,0.000606383,-2.60942,-1.44666,-0.0407835,-3.91178,0.246699,
2,1,0,1,0,20870.6,0.254493,0.254194,2.43578,11,0.0157814,10,0.00061916,-2.61336,-1.42338,-0.0414506,-3.94318,0.254194,
2,1,0,1,0,20870.7,0.261983,0.261687,2.41544,11,0.0160862,10,0.00063209,-2.617,-1.70119,-0.0346816,-3.26699,0.261687,
2,1,0,1,0,20870.8,0.269477,0.269235,2.39659,11,0.0163885,10,0.000645246,-2.62041,25.7553,0.00229079,0.21409,0.269235,
2,1,0,1,0,20870.9,0.276965,0.276686,2.37065,11,0.0166879,10,0.000655926,-2.62513,-2.55863,-0.0230592,-2.13987,0.276686,
2,1,0,1,0,20871.1,0.284457,0.284183,2.35356,11,0.0169849,10,0.000668841,-2.62828,-1.20364,-0.0490178,-4.49999,0.284183,
2,1,0,1,0,20871.2,0.291947,0.291622,2.33354,11,0.0172788,10,0.000680512,-2.63198,-1.30522,-0.045203,-4.10476,0.291622,
2,1,0,1,0,20871.3,0.29944,0.299185,2.30798,11,0.0175702,10,0.000690511,-2.63677,-0.00659419,-8.94728,-598.518,0.299185,
2,0,0,1,0,20871.4,0.293742,0.293395,-0.492809,11,0.0176149,10,-0.000144588,-3.30732,-0.00954777,-6.17945,98.6718,0.2933951,
2,0,0,1,0,20871.6,0.286254,0.285932,-0.866829,11,0.0175235,10,-0.000247855,-3.06207,-0.0649681,-0.908138,30.6584,0.285932,
2,0,0,1,0,20871.7,0.278761,0.278433,-1.05899,11,0.0174002,10,-0.000294859,-2.97511,-0.130596,-0.451776,18.6278,0.278433,
2,0,0,1,0,20871.8,0.271272,0.270947,-1.19405,11,0.0172575,10,-0.000323524,-2.92298,-0.143382,-0.411489,19.0861,0.270947,
2,0,0,1,0,20871.9,0.263778,0.263461,-1.29965,11,0.0170995,10,-0.000342407,-2.88617,-0.217789,-0.270904,13.7484,0.263461,
2,0,0,1,0,20872.1,0.25629,0.255919,-1.39121,11,0.0169292,10,-0.000356037,-2.85661,-0.338365,-0.174368,9.46133,0.255919,
2,0,0,1,0,20872.2,0.248797,0.24846,-1.47734,11,0.0167482,10,-0.000367058,-2.83052,-0.37035,-0.159309,9.14452,0.24846,
2,0,0,1,0,20872.3,0.241308,0.241006,-1.54649,11,0.0165575,10,-0.000372713,-2.81065,-0.366615,-0.160932,9.70181,0.241006,
2,0,0,1,0,20872.4,0.233814,0.233467,-1.61629,11,0.0163578,10,-0.000377349,-2.79148,-0.347958,-0.169561,10.6998,0.233467,
2,0,0,1,0,20872.5,0.226326,0.226029,-1.68001,11,0.01615,10,-0.000379732,-2.77469,-0.415168,-0.142111,9.32544,0.226029,
2,0,0,1,0,20872.7,0.218834,0.218512,-1.75436,11,0.0159337,10,-0.00038335,-2.75588,-0.410287,-0.143802,9.80492,0.218512,
2,0,0,1,0,20872.8,0.211344,0.211013,-1.81374,11,0.0157096,10,-0.000382724,-2.74142,-0.488817,-0.1207,8.51224,0.2110133,
2,0,0,1,0,20872.9,0.203856,0.203503,-1.87216,11,0.0154773,10,-0.000380989,-2.72766,-0.518751,-0.113735,8.34387,0.203503,
2,0,0,1,0,20873,0.196362,0.196067,-1.94343,11,0.0152367,10,-0.000381043,-2.71143,-0.520385,-0.113378,8.612,0.196067,
2,0,0,1,0,20873.2,0.18887,0.188563,-2.01968,11,0.0149871,10,-0.000380837,-2.69472,-0.428893,-0.137563,10.8398,0.188563,
2,0,0,1,0,20873.3,0.18138,0.181059,-2.10709,11,0.0147274,10,-0.000381508,-2.67632,-0.361269,-0.163313,13.4288,0.181059,
2,0,0,1,0,20873.4,0.173892,0.173564,-2.21129,11,0.014456,10,-0.0003838,-2.65535,-0.266528,-0.221365,19.1232,0.173564,
2,0,0,1,0,20873.5,0.166398,0.166055,-2.3496,11,0.0141691,10,-0.000390163,-2.62901,-0.277077,-0.212937,19.6024,0.166055,
2,0,0,1,0,20873.7,0.158905,0.158567,-2.54515,11,0.0138619,10,-0.000403576,-2.59429,-0.203133,-0.290451,28.9139,0.158567,
2,0,0,1,0,20873.8,0.151417,0.15109,-2.84734,11,0.0135246,10,-0.000430203,-2.54556,-0.133068,-0.443381,49.3098,0.15109,
2,0,0,1,0,20873.9,0.143927,0.143566,-3.33315,11,0.0131394,10,-0.000478528,-2.47715,-0.090798,-0.649794,84.6486,0.143566,
2,0,0,1,0,20874,0.136435,0.136105,-4.05807,11,0.0126778,10,-0.000552323,-2.39168,-0.0860193,-0.685893,108.672,0.136105,
2,0,0,1,0,20874.2,0.128941,0.128652,-4.90613,11,0.0121157,10,-0.000631183,-2.30926,-0.104177,-0.566341,108.301,0.128652,
2,0,0,1,0,20874.3,0.121453,0.121152,-5.66682,11,0.0114521,10,-0.000686546,-2.24666,-0.150797,-0.391254,86.2576,0.121152,
2,0,0,1,0,20874.4,0.113963,0.113643,-6.18321,11,0.0107078,10,-0.000702682,-2.20879,-0.259061,-0.227746,54.933,0.1136435,
2,0,0,1,0,20874.5,0.106471,0.106162,-6.46575,11,0.0099125,10,-0.000686417,-2.18938,-0.715472,-0.0824631,20.8023,0.106162,
2,0,0,1,0,20874.7,0.0989825,0.0986778,-6.4984,11,0.00909835,10,-0.000641248,-2.18719,1.08298,0.0544795,-13.797,0.0986778,
2,0,0,1,0,20874.8,0.0914889,0.0911953,-6.30312,11,0.00829512,10,-0.000574815,-2.20044,0.416151,0.141775,-34.8258,0.0911953,
2,0,0,1,0,20874.9,0.0839993,0.0837159,-6.00529,11,0.00752534,10,-0.000502738,-2.22147,0.358786,0.164443,-38.4999,0.0837159,
2,0,0,1,0,20875,0.076507,0.0761832,-5.75063,11,0.00679046,10,-0.000438101,-2.24028,0.467398,0.126231,-28.3476,0.07618317,
2,0,0,1,0,20875.2,0.0690187,0.0687153,-5.56922,11,0.00608243,10,-0.00038269,-2.25421,0.552525,0.106782,-23.2393,0.0687153,
2,0,0,1,0,20875.3,0.0615251,0.0611882,-5.43612,11,0.00539282,10,-0.000332627,-2.26471,0.68489,0.0861453,-18.2804,0.0611882,
2,0,0,1,0,20875.4,0.0540355,0.0536895,-5.30009,11,0.00472105,10,-0.000284559,-2.27572,0.766106,0.0770128,-15.9156,0.0536895,
2,0,0,1,0,20875.5,0.0465432,0.046203,-5.15152,11,0.0040662,10,-0.000238016,-2.28806,0.617245,0.0955861,-19.2198,0.046203,
2,0,0,1,0,20875.7,0.0390549,0.0387183,-4.9954,11,0.00343099,10,-0.000193413,-2.30143,0.450212,0.131049,-25.514,0.0387183,
2,0,0,1,0,20875.8,0.0315613,0.0311819,-4.81604,11,0.00281652,10,-0.000150173,-2.31731,0.422755,0.139561,-26.1734,0.0311819,
2,0,0,1,0,20875.9,0.0240717,0.0237337,-4.60527,11,0.0022266,10,-0.0001093,-2.33675,0.404603,0.145822,-26.2347,0.0237337,
2,0,0,1,0,20876,0.0165781,0.0162231,-4.40784,11,0.00166131,10,-7.1509e-05,-2.35577,0.462389,0.127598,-21.9884,0.0162231,
2,0,0,1,0,20876.2,0.00909108,0.00877832,-4.25119,11,0.00111876,10,-3.73183e-05,-2.37149,0.492112,0.119891,-19.9055,0.00877832,
2,0,0,1,0,20876.3,0.00159616,0.00121714,-4.17494,11,0.000592575,10,-5.08148e-06,-2.37935, , , ,0.001217138,
2,0,0,1,0,20876.3,0.000199195,-0.000138268,-4.14408,11,0.000495338,10,5.72993e-07,-2.38257, , , ,-0.000138268,