File: Figure_codes/Fig_3-5/rawdata_trumpetplot_data/after 10th/20221101_1-115_003_TrumpetPlot_ParaChange_from10_every3_07_CV_C01_21.csv
mode,ox/red,error,control changes,counter inc.,time/s,control/V,Ewe/V,<I>/mA,cycle number,(Q-Qo)/C,I Range,P/W,log(|I|),Tafel slope mV/dec,alpha_eff,dI/d(E-IR),E-IR/V,
2,0,0,0,0,42537.8,2.44065e-05,-0.000439847,-2.70776,22,0.0000000E+000,10,1.191e-06,-2.56739, , , ,-0.000439847,
2,1,0,1,0,42537.9,0.007288,0.00697683,1.02433,22,-2.65037e-05,10,7.14656e-06,-2.98956,0.0100963,5.84373,204.174,0.00697683,
2,1,0,1,0,42538,0.0147816,0.014479,1.91305,22,0.000167717,10,2.7699e-05,-2.71827,0.0567509,1.03963,76.788,0.014479,
2,1,0,1,0,42538.1,0.0222712,0.0219596,2.32237,22,0.000436209,10,5.09985e-05,-2.63407,0.123286,0.478562,43.3397,0.0219596,
2,1,0,1,0,42538.3,0.0297648,0.0294499,2.61714,22,0.000747267,10,7.70746e-05,-2.58217,0.173293,0.340464,34.7212,0.0294499,
2,1,0,1,0,42538.4,0.0372518,0.036907,2.88137,22,0.00109215,10,0.000106343,-2.5404,0.200618,0.294091,32.9638,0.036907,
2,1,0,1,0,42538.5,0.0447467,0.0444086,3.12494,22,0.00146893,10,0.000138774,-2.50516,0.21378,0.275984,33.6362,0.0444086,
2,1,0,1,0,42538.6,0.052235,0.0519014,3.35891,22,0.00187605,10,0.000174332,-2.4738,0.242917,0.242882,31.9172,0.0519014,
2,1,0,1,0,42538.8,0.0597299,0.0594386,3.59691,22,0.00231296,10,0.000213795,-2.44407,0.286055,0.206254,28.9127,0.0594386,
2,1,0,1,0,42538.9,0.0672156,0.06692,3.81473,22,0.002777,10,0.000255282,-2.41854,0.333226,0.177057,26.2714,0.06692,
2,1,0,1,0,42539,0.0747105,0.0743912,3.9992,22,0.00326675,10,0.000297505,-2.39803,0.356266,0.165607,25.8285,0.0743912,
2,1,0,1,0,42539.1,0.0821988,0.0818569,4.15703,22,0.00377815,10,0.000340281,-2.38122,0.532502,0.110798,17.9877,0.0818569,
2,1,0,1,0,42539.3,0.0896937,0.0893298,4.31027,22,0.00430902,10,0.000385036,-2.3655,0.54082,0.109094,18.3472,0.0893298,
2,1,0,1,0,42539.4,0.0971794,0.0968733,4.48936,22,0.00485913,10,0.000434899,-2.34782,0.353471,0.166916,29.2351,0.0968733,
2,1,0,1,0,42539.5,0.104674,0.104386,4.75634,22,0.00543694,10,0.000496494,-2.32273,0.239249,0.246605,45.7777,0.104386,
2,1,0,1,0,42539.6,0.112163,0.111829,5.11077,22,0.00605393,10,0.000571535,-2.29151,0.231308,0.255071,50.9005,0.111829,
2,1,0,1,0,42539.8,0.119657,0.119352,5.48786,22,0.00671845,10,0.000654989,-2.2606,0.304527,0.193743,41.4722,0.119352,
2,1,0,1,0,42539.9,0.127143,0.126856,5.76581,22,0.00742358,10,0.000731428,-2.23914,0.449612,0.131224,29.5003,0.126856,
2,1,0,1,0,42540,0.134638,0.134324,5.9407,22,0.00815765,10,0.000797978,-2.22616,0.807271,0.0730857,16.9463,0.134324,
2,1,0,1,0,42540.1,0.142126,0.141801,6.01597,22,0.00890755,10,0.000853069,-2.22069,-6.39547,-0.00922528,-2.16308,0.141801,
2,1,0,1,0,42540.2,0.149621,0.149301,5.79331,22,0.00965174,10,0.000864945,-2.23707,-0.209354,-0.28182,-63.4649,0.149301,
2,1,0,1,0,42540.4,0.157107,0.156797,5.09095,22,0.0103368,10,0.000798246,-2.2932,-0.099212,-0.594686,-117.698,0.156797,
2,1,0,1,0,42540.5,0.164602,0.164282,4.2112,22,0.0109181,10,0.000691822,-2.37559,-0.0919812,-0.641435,-105.538,0.164282,
2,1,0,1,0,42540.6,0.17209,0.17178,3.55611,22,0.0114021,10,0.000610869,-2.44902,-0.122118,-0.48314,-67.4408,0.17178,
2,1,0,1,0,42540.7,0.179585,0.179281,3.15871,22,0.0118219,10,0.000566297,-2.50049,-0.166996,-0.353301,-43.6937,0.1792808,
2,1,0,1,0,42540.9,0.187072,0.186741,2.91622,22,0.0122016,10,0.000544579,-2.53518,-0.25794,-0.228735,-26.0111,0.186741,
2,1,0,1,0,42541,0.194566,0.194269,2.75797,22,0.0125568,10,0.000535787,-2.55941,-0.462425,-0.127588,-13.7339,0.194269,
2,1,0,1,0,42541.1,0.202055,0.201765,2.65318,22,0.0128956,10,0.00053532,-2.57623,-0.516758,-0.114173,-11.8253,0.201765,
2,1,0,1,0,42541.2,0.209549,0.209251,2.58023,22,0.013224,10,0.000539916,-2.58834,-0.516919,-0.114138,-11.507,0.209251,
2,1,0,1,0,42541.4,0.217036,0.216724,2.52967,22,0.0135444,10,0.00054824,-2.59694,-1.16457,-0.0506623,-5.00022,0.216724,
2,1,0,1,0,42541.5,0.224529,0.224205,2.48403,22,0.0138595,10,0.000556931,-2.60484,-1.63501,-0.0360853,-3.504,0.224205,
2,1,0,1,0,42541.6,0.232019,0.231731,2.45513,22,0.0141699,10,0.00056893,-2.60992,-1.65649,-0.0356174,-3.41615,0.2317308,
2,1,0,1,0,42541.7,0.239513,0.239235,2.43147,22,0.014477,10,0.000581694,-2.61413,-1.55209,-0.0380132,-3.60821,0.239235,
2,1,0,1,0,42541.9,0.247001,0.246673,2.41649,22,0.0147809,10,0.000596083,-2.61682,-1.88911,-0.0312316,-2.93244,0.246673,
2,1,0,1,0,42542,0.254493,0.254181,2.39324,22,0.0150825,10,0.000608315,-2.62101,-2.03452,-0.0289995,-2.70099,0.254181,
2,1,0,1,0,42542.1,0.261983,0.261669,2.36395,22,0.0153814,10,0.000618574,-2.62636,-1.81146,-0.0325704,-3.01425,0.261669,
2,1,0,1,0,42542.2,0.269477,0.269175,2.34861,22,0.0156783,10,0.000632187,-2.62919,-2.56172,-0.0230314,-2.11436,0.269175,
2,1,0,1,0,42542.4,0.276965,0.276649,2.34079,22,0.0159728,10,0.000647577,-2.63064,-1.81206,-0.0325596,-2.96741,0.276649,
2,1,0,1,0,42542.5,0.284457,0.284132,2.31492,22,0.0162651,10,0.000657744,-2.63546,-17.9804,-0.00328135,-0.296424,0.284132,
2,1,0,1,0,42542.6,0.291947,0.291611,2.29338,22,0.0165548,10,0.000668775,-2.63952,-1.85894,-0.0317386,-2.84531,0.291611,
2,1,0,1,0,42542.7,0.29944,0.299125,2.27435,22,0.0168423,10,0.000680314,-2.64314,-0.00813663,-7.25116,-506.508,0.299125,
2,0,0,1,0,42542.9,0.293742,0.293406,-0.378876,22,0.0169043,10,-0.000111165,-3.4215,-0.00426523,-13.8328,124.315,0.293406,
2,0,0,1,0,42543,0.286254,0.28593,-0.857891,22,0.0168198,10,-0.000245297,-3.06657,-0.0530017,-1.11317,36.6418,0.28593,
2,0,0,1,0,42543.1,0.278761,0.278483,-1.06068,22,0.0166967,10,-0.000295381,-2.97442,-0.101853,-0.579266,24.0323,0.278483,
2,0,0,1,0,42543.2,0.271272,0.270954,-1.20256,22,0.0165526,10,-0.000325838,-2.91989,-0.171299,-0.344428,16.1926,0.270954,
2,0,0,1,0,42543.4,0.263778,0.263455,-1.3154,22,0.0163929,10,-0.000346548,-2.88094,-0.244211,-0.241594,12.3677,0.263455,
2,0,0,1,0,42543.5,0.25629,0.255965,-1.41077,22,0.016221,10,-0.000361108,-2.85054,-0.278156,-0.212111,11.5878,0.255965,
2,0,0,1,0,42543.6,0.248797,0.24847,-1.48364,22,0.0160385,10,-0.000368639,-2.82867,-0.297455,-0.19835,11.4947,0.24847,
2,0,0,1,0,42543.7,0.241308,0.240982,-1.55429,22,0.0158467,10,-0.000374557,-2.80847,-0.42293,-0.139503,8.48835,0.240982,
2,0,0,1,0,42543.9,0.233814,0.233533,-1.62024,22,0.0156463,10,-0.00037838,-2.79042,-0.470469,-0.125407,7.93867,0.233533,
2,0,0,1,0,42544,0.226326,0.226039,-1.68391,22,0.0154379,10,-0.000380629,-2.77368,-0.377584,-0.156257,10.2649,0.226039,
2,0,0,1,0,42544.1,0.218834,0.218525,-1.74816,22,0.0152214,10,-0.000382015,-2.75742,-0.377535,-0.156277,10.667,0.218525,
2,0,0,1,0,42544.2,0.211344,0.21101,-1.80796,22,0.0149975,10,-0.000381498,-2.74281,-0.636801,-0.0926507,6.5433,0.21101,
2,0,0,1,0,42544.4,0.203856,0.20352,-1.87113,22,0.0147658,10,-0.000380811,-2.7279,-0.747438,-0.0789363,5.76571,0.20352,
2,0,0,1,0,42544.5,0.196362,0.196013,-1.93651,22,0.0145264,10,-0.000379583,-2.71298,-0.520754,-0.113297,8.53687,0.196013,
2,0,0,1,0,42544.6,0.18887,0.188552,-1.99924,22,0.0142786,10,-0.00037696,-2.69914,-0.38256,-0.154224,12.0614,0.188552,
2,0,0,1,0,42544.7,0.18138,0.181058,-2.07359,22,0.0140221,10,-0.00037544,-2.68328,-0.388309,-0.151941,12.3396,0.181058,
2,0,0,1,0,42544.9,0.173892,0.173569,-2.16875,22,0.0137551,10,-0.000376428,-2.66379,-0.389072,-0.151643,12.8254,0.173569,
2,0,0,1,0,42545,0.166398,0.166025,-2.28647,22,0.0134751,10,-0.000379612,-2.64083,-0.304821,-0.193556,17.251,0.166025,
2,0,0,1,0,42545.1,0.158905,0.15857,-2.43414,22,0.0131785,10,-0.000385982,-2.61365,-0.209444,-0.281698,26.8443,0.15857,
2,0,0,1,0,42545.2,0.151417,0.151079,-2.66567,22,0.0128587,10,-0.000402726,-2.57419,-0.163652,-0.360521,37.6925,0.151079,
2,0,0,1,0,42545.4,0.143927,0.143599,-3.04149,22,0.012502,10,-0.000436754,-2.51691,-0.111344,-0.529889,62.9777,0.143599,
2,0,0,1,0,42545.5,0.136435,0.136124,-3.62412,22,0.0120858,10,-0.000493329,-2.4408,-0.092586,-0.637245,90.0653,0.136124,
2,0,0,1,0,42545.6,0.128941,0.128621,-4.33672,22,0.0115875,10,-0.000557791,-2.36284,-0.101634,-0.580516,97.9234,0.128621,
2,0,0,1,0,42545.7,0.121453,0.12115,-4.99923,22,0.0110017,10,-0.000605659,-2.3011,-0.142116,-0.415153,80.9445,0.12115,
2,0,0,1,0,42545.9,0.113963,0.113657,-5.54116,22,0.0103396,10,-0.000629794,-2.2564,-0.225063,-0.262149,56.6603,0.113657,
2,0,0,1,0,42546,0.106471,0.106138,-5.90673,22,0.00962033,10,-0.000626927,-2.22865,-0.440009,-0.134088,30.8407,0.106138,
2,0,0,1,0,42546.1,0.0989825,0.0986673,-6.03563,22,0.00887086,10,-0.00059552,-2.21928,-2.8849,-0.0204513,4.80917,0.0986673,
2,0,0,1,0,42546.2,0.0914889,0.0911486,-5.9503,22,0.00811834,10,-0.000542361,-2.22546,0.679794,0.086791,-20.164,0.0911486,
2,0,0,1,0,42546.4,0.0839993,0.0836736,-5.76343,22,0.00738472,10,-0.000482247,-2.23932,0.47768,0.123514,-27.7614,0.0836736,
2,0,0,1,0,42546.5,0.076507,0.0761641,-5.58455,22,0.00667459,10,-0.000425342,-2.25301,0.568086,0.103857,-22.6128,0.0761641,
2,0,0,1,0,42546.6,0.0690187,0.0686592,-5.44143,22,0.00598488,10,-0.000373605,-2.26429,0.767554,0.0768676,-16.3328,0.0686592,
2,0,0,1,0,42546.7,0.0615251,0.0611869,-5.3149,22,0.00531042,10,-0.000325202,-2.27451,0.726575,0.0812029,-16.8725,0.0611869,
2,0,0,1,0,42546.9,0.0540355,0.0537052,-5.18848,22,0.00465222,10,-0.000278649,-2.28496,0.692083,0.0852499,-17.2603,0.0537052,
2,0,0,1,0,42547,0.0465432,0.0462307,-5.05344,22,0.0040103,10,-0.000233624,-2.29641,0.583602,0.101096,-19.9171,0.0462307,
2,0,0,1,0,42547.1,0.0390549,0.0386969,-4.90006,22,0.00338753,10,-0.000189617,-2.3098,0.510314,0.115615,-22.0654,0.0386969,
2,0,0,1,0,42547.2,0.0315613,0.0312265,-4.71196,22,0.00278498,10,-0.000147138,-2.3268,0.470019,0.125527,-23.1145,0.0312265,
2,0,0,1,0,42547.4,0.0240717,0.0237273,-4.52346,22,0.00220602,10,-0.000107329,-2.34453,0.395571,0.149152,-26.3641,0.0237273,
2,0,0,1,0,42547.5,0.0165781,0.0162189,-4.35036,22,0.00165002,10,-7.05579e-05,-2.36147,0.465959,0.12662,-21.4928,0.01621886,
2,0,0,1,0,42547.6,0.00909108,0.00872458,-4.20008,22,0.00111485,10,-3.6644e-05,-2.37674,0.668421,0.0882678,-14.4601,0.00872458,
2,0,0,1,0,42547.7,0.00159616,0.00120295,-4.11832,22,0.000594866,10,-4.95414e-06,-2.38528, , , ,0.00120295,
2,0,0,1,0,42547.8,0.000199195,-0.000212708,-4.08747,22,0.000498761,10,8.6944e-07,-2.38855, , , ,-0.000212708,