File: Figure_codes/Fig_3-5/rawdata_trumpetplot_data/after 10th/20221101_1-115_003_TrumpetPlot_ParaChange_from10_every3_04_CV_C01_6.csv
mode,ox/red,error,control changes,counter inc.,time/s,control/V,Ewe/V,<I>/mA,cycle number,(Q-Qo)/C,I Range,P/W,log(|I|),Tafel slope mV/dec,alpha_eff,dI/d(E-IR),E-IR/V,
2,0,0,1,0,12880.8,2.44065e-05,-0.000229887,-0.398329,7,0.0000000E+000,10,9.15706e-08,-3.39976, , , ,-0.000229887,
2,1,0,1,0,12881.5,0.00729063,0.00694376,0.376729,7,0.000205412,10,2.61592e-06,-3.42397,0.0621059,0.949991,13.8363,0.00694376,
2,1,0,1,0,12882.3,0.0147814,0.0144343,0.451641,7,0.0005308,10,6.51913e-06,-3.34521,0.120657,0.488991,8.62494,0.0144343,
2,1,0,1,0,12883,0.0222725,0.021975,0.509833,7,0.000904103,10,1.12036e-05,-3.29257,0.160161,0.36838,7.31434,0.021975,
2,1,0,1,0,12883.8,0.0297635,0.0294562,0.56557,7,0.00131857,10,1.66596e-05,-3.24751,0.190749,0.309307,6.80205,0.0294562,
2,1,0,1,0,12884.5,0.0372544,0.0369384,0.614499,7,0.00177322,10,2.26986e-05,-3.21148,0.211072,0.279525,6.7276,0.0369384,
2,1,0,1,0,12885.3,0.0447458,0.0444065,0.670798,7,0.00226819,10,2.97878e-05,-3.17341,0.222708,0.264921,6.92158,0.0444065,
2,1,0,1,0,12886,0.0522363,0.0518785,0.717863,7,0.00280082,10,3.72416e-05,-3.14396,0.251735,0.234374,6.56307,0.0518785,
2,1,0,1,0,12886.8,0.0597282,0.0594289,0.764817,7,0.00336857,10,4.54522e-05,-3.11644,0.288957,0.204182,6.08334,0.0594289,
2,1,0,1,0,12887.5,0.0672182,0.0669076,0.807811,7,0.00396913,10,5.40487e-05,-3.09269,0.339098,0.173991,5.45304,0.0669076,
2,1,0,1,0,12888.3,0.0747092,0.0743655,0.841313,7,0.0045981,10,6.25646e-05,-3.07504,0.466561,0.126457,4.14944,0.0743655,
2,1,0,1,0,12889,0.0822001,0.0818975,0.872751,7,0.00525283,10,7.14762e-05,-3.05911,0.453485,0.130104,4.43672,0.0818975,
2,1,0,1,0,12889.8,0.0896911,0.0893596,0.914405,7,0.00593413,10,8.17109e-05,-3.03886,0.313268,0.188337,6.73649,0.0893596,
2,1,0,1,0,12890.5,0.097182,0.0968111,0.978547,7,0.00665492,10,9.47342e-05,-3.00942,0.192088,0.307151,11.7363,0.0968111,
2,1,0,1,0,12891.3,0.104673,0.104348,1.07278,7,0.0074337,10,0.000111943,-2.96949,0.201089,0.293402,12.2322,0.104348,
2,1,0,1,0,12892,0.112164,0.111848,1.15311,7,0.00827996,10,0.000128972,-2.93813,0.306639,0.192409,8.64122,0.111848,
2,1,0,1,0,12892.8,0.119655,0.119385,1.21374,7,0.00918,10,0.000144902,-2.91588,0.474847,0.124251,5.89039,0.119385,
2,1,0,1,0,12893.5,0.127146,0.126811,1.26443,7,0.0101223,10,0.000160344,-2.89811,0.422725,0.139571,6.90534,0.126811,
2,1,0,1,0,12894.3,0.134637,0.134281,1.29903,7,0.0111007,10,0.000174435,-2.88638,-1.319,-0.0447308,-2.26558,0.134281,
2,1,0,1,0,12895,0.142127,0.141853,1.21351,7,0.0120646,10,0.000172141,-2.91596,-0.133846,-0.440804,-20.76,0.141853,
2,1,0,1,0,12895.8,0.149619,0.149307,0.998671,7,0.0129094,10,0.000149108,-3.00058,-0.0740796,-0.796441,-30.9961,0.149307,
2,1,0,1,0,12896.5,0.157109,0.156816,0.797699,7,0.0135891,10,0.000125092,-3.09816,-0.085543,-0.689712,-21.5216,0.156816,
2,1,0,1,0,12897.3,0.164601,0.164269,0.687583,7,0.014153,10,0.000112949,-3.16267,-0.146712,-0.402147,-10.7856,0.164269,
2,1,0,1,0,12898,0.172091,0.171805,0.624653,7,0.0146546,10,0.000107319,-3.20436,-0.246188,-0.239654,-5.85842,0.171805,
2,1,0,1,0,12898.8,0.179582,0.179302,0.590753,7,0.0151214,10,0.000105923,-3.22859,-0.389031,-0.151659,-3.50748,0.179302,
2,1,0,1,0,12899.5,0.187074,0.186744,0.571156,7,0.0155678,10,0.00010666,-3.24324,-0.94256,-0.0625955,-1.38843,0.186744,
2,1,0,1,0,12900.3,0.194564,0.194253,0.556755,7,0.0160008,10,0.000108151,-3.25434,-0.740138,-0.0797148,-1.72671,0.194253,
2,1,0,1,0,12901,0.202056,0.201713,0.544092,7,0.0164245,10,0.00010975,-3.26433,-0.552028,-0.106879,-2.26854,0.201713,
2,1,0,1,0,12901.8,0.209546,0.209236,0.536458,7,0.0168411,10,0.000112247,-3.27046,-0.782484,-0.0754009,-1.57538,0.209236,
2,1,0,1,0,12902.5,0.217038,0.216769,0.528003,7,0.0172513,10,0.000114455,-3.27736,-0.994403,-0.0593321,-1.22758,0.216769,
2,1,0,1,0,12903.2,0.224528,0.224181,0.520663,7,0.0176566,10,0.000116723,-3.28344,-1.68381,-0.0350395,-0.713909,0.224181,
2,1,0,1,0,12904,0.232019,0.231695,0.516611,7,0.018057,10,0.000119696,-3.28684,-1.91419,-0.0308224,-0.622,0.2316948,
2,1,0,1,0,12904.7,0.23951,0.239229,0.510384,7,0.0184533,10,0.000122099,-3.2921,-1.67032,-0.0353226,-0.703205,0.239229,
2,1,0,1,0,12905.5,0.247001,0.246686,0.505007,7,0.0188457,10,0.000124578,-3.2967,-0.848319,-0.0695493,-1.37112,0.246686,
2,1,0,1,0,12906.2,0.254492,0.254227,0.500363,7,0.0192345,10,0.000127206,-3.30071,18.5428,0.00318183,0.0622452,0.254227,
2,1,0,1,0,12907,0.261983,0.261669,0.495988,7,0.0196198,10,0.000129785,-3.30453,-2.30145,-0.025636,-0.496467,0.261669,
2,1,0,1,0,12907.7,0.269474,0.26916,0.491218,7,0.0200019,10,0.000132216,-3.30873,-210.866,-0.000279799,-0.00536572,0.26916,
2,1,0,1,0,12908.5,0.276965,0.276618,0.48721,7,0.0203805,10,0.000134771,-3.31228,-1.02036,-0.0578229,-1.09895,0.276618,
2,1,0,1,0,12909.2,0.284456,0.284143,0.481992,7,0.0207557,10,0.000136954,-3.31696,-1.48462,-0.0397407,-0.748324,0.284143,
2,1,0,1,0,12910,0.291947,0.291642,0.476515,7,0.0211273,10,0.000138972,-3.32192,-1.04225,-0.0566082,-1.05629,0.291642,
2,1,0,1,0,12910.7,0.299437,0.29914,0.471503,7,0.0214957,10,0.000141046,-3.32652,-0.00200537,-29.421,-227.689,0.29914,
2,0,0,1,0,12911.4,0.293745,0.293417,-0.0811464,7,0.0215054,10,-2.38097e-05,-4.09073,-0.0168877,-3.49367,10.3211,0.293417,
2,0,0,1,0,12912.2,0.286253,0.285924,-0.135989,7,0.0214097,10,-3.88826e-05,-3.8665,-0.0598795,-0.985313,5.25045,0.2859244,
2,0,0,1,0,12912.9,0.278763,0.2785,-0.17131,7,0.021282,10,-4.77098e-05,-3.76622,-0.101391,-0.581906,3.8537,0.2785,
2,0,0,1,0,12913.7,0.271272,0.270981,-0.198812,7,0.0211314,10,-5.38743e-05,-3.70156,-0.136525,-0.432156,3.31775,0.270981,
2,0,0,1,0,12914.4,0.263781,0.263521,-0.220346,7,0.0209618,10,-5.80658e-05,-3.65689,-0.183167,-0.32211,2.79165,0.263521,
2,0,0,1,0,12915.2,0.25629,0.255966,-0.240949,7,0.0207762,10,-6.1675e-05,-3.61807,-0.304479,-0.193773,1.81586,0.255966,
2,0,0,1,0,12915.9,0.248799,0.24851,-0.259344,7,0.0205767,10,-6.44496e-05,-3.58612,-0.230794,-0.25564,2.58291,0.24851,
2,0,0,1,0,12916.7,0.241308,0.241021,-0.274962,7,0.0203647,10,-6.62718e-05,-3.56073,-0.323106,-0.182603,1.96312,0.2410211,
2,0,0,1,0,12917.4,0.233817,0.233499,-0.290327,7,0.0201407,10,-6.7791e-05,-3.53711,-0.299128,-0.19724,2.23819,0.233499,
2,0,0,1,0,12918.2,0.226326,0.226036,-0.30548,7,0.019905,10,-6.90497e-05,-3.51502,-0.313975,-0.187913,2.24102,0.226036,
2,0,0,1,0,12918.9,0.218835,0.218531,-0.322173,7,0.0196576,10,-7.04048e-05,-3.49191,-0.38335,-0.153906,1.92707,0.218531,
2,0,0,1,0,12919.7,0.211344,0.211038,-0.337688,7,0.0193988,10,-7.12651e-05,-3.47148,-0.373915,-0.15779,2.07798,0.211038,
2,0,0,1,0,12920.4,0.203854,0.203521,-0.353318,7,0.0191277,10,-7.19075e-05,-3.45183,-0.365426,-0.161455,2.23526,0.2035208,
2,0,0,1,0,12921.2,0.196362,0.196007,-0.371583,7,0.0188442,10,-7.28329e-05,-3.42994,-0.333786,-0.17676,2.55917,0.196007,
2,0,0,1,0,12921.9,0.188872,0.188548,-0.391409,7,0.0185468,10,-7.37993e-05,-3.40737,-0.246014,-0.239824,3.64268,0.188548,
2,0,0,1,0,12922.7,0.18138,0.181057,-0.414183,7,0.0182339,10,-7.49908e-05,-3.38281,-0.290354,-0.203201,3.2816,0.181057,
2,0,0,1,0,12923.4,0.17389,0.173587,-0.442266,7,0.0179015,10,-7.67716e-05,-3.35432,-0.223087,-0.264471,4.55836,0.173587,
2,0,0,1,0,12924.2,0.166398,0.166075,-0.482338,7,0.0175434,10,-8.01042e-05,-3.31665,-0.185143,-0.318672,6.0174,0.166075,
2,0,0,1,0,12924.9,0.158907,0.158591,-0.540837,7,0.0171489,10,-8.5772e-05,-3.26693,-0.127148,-0.464025,9.82884,0.158591,
2,0,0,1,0,12925.7,0.151417,0.151144,-0.637189,7,0.0166976,10,-9.63074e-05,-3.19573,-0.0931974,-0.633065,15.7993,0.151144,
2,0,0,1,0,12926.4,0.143925,0.143653,-0.795796,7,0.0161526,10,-0.000114318,-3.0992,-0.0660464,-0.893312,27.7838,0.143653,
2,0,0,1,0,12927.2,0.136435,0.136141,-1.01318,7,0.0154642,10,-0.000137935,-2.99431,-0.0795309,-0.74185,29.2278,0.136141,
2,0,0,1,0,12927.9,0.128943,0.128619,-1.20867,7,0.0146154,10,-0.000155459,-2.91769,-0.13461,-0.438302,20.5688,0.128619,
2,0,0,1,0,12928.7,0.121453,0.12115,-1.31273,7,0.0136525,10,-0.000159037,-2.88182,-0.444085,-0.132857,6.77675,0.12115,
2,0,0,1,0,12929.4,0.113962,0.113626,-1.31981,7,0.0126484,10,-0.000149965,-2.87949,1.06774,0.0552569,-2.84775,0.113626,
2,0,0,1,0,12930.2,0.106471,0.106176,-1.28159,7,0.011657,10,-0.000136074,-2.89225,0.479245,0.12311,-6.17254,0.106176,
2,0,0,1,0,12930.9,0.0989799,0.0986763,-1.22815,7,0.0107026,10,-0.00012119,-2.91075,0.379708,0.155383,-7.43619,0.0986763,
2,0,0,1,0,12931.7,0.0914889,0.0911867,-1.17217,7,0.00979258,10,-0.000106887,-2.93101,0.379322,0.155541,-7.10039,0.0911867,
2,0,0,1,0,12932.4,0.083998,0.0836917,-1.11861,7,0.00892397,10,-9.36183e-05,-2.95132,0.327904,0.179931,-7.84427,0.0836917,
2,0,0,1,0,12933.1,0.076507,0.0762021,-1.07733,7,0.00808962,10,-8.20949e-05,-2.96765,0.429435,0.13739,-5.77335,0.0762021,
2,0,0,1,0,12933.9,0.0690161,0.0687093,-1.03711,7,0.00728479,10,-7.12592e-05,-2.98417,0.527888,0.111766,-4.54124,0.0687093,
2,0,0,1,0,12934.6,0.0615251,0.0612376,-1.00696,7,0.00650517,10,-6.16638e-05,-2.99699,0.509545,0.11579,-4.55697,0.0612376,
2,0,0,1,0,12935.4,0.0540342,0.0537247,-0.974285,7,0.0057511,10,-5.23432e-05,-3.01131,0.570078,0.103495,-3.92699,0.0537247,
2,0,0,1,0,12936.1,0.0465441,0.0462327,-0.935344,7,0.00502324,10,-4.32435e-05,-3.02903,0.45185,0.130574,-4.77519,0.0462327,
2,0,0,1,0,12936.9,0.0390523,0.0387019,-0.900397,7,0.00432316,10,-3.4847e-05,-3.04557,0.368374,0.160163,-5.61602,0.0387019,
2,0,0,1,0,12937.6,0.0315618,0.0312,-0.865744,7,0.00365112,10,-2.70112e-05,-3.06261,0.416674,0.141597,-4.76038,0.0312,
2,0,0,1,0,12938.4,0.0240704,0.0237873,-0.824959,7,0.00300589,10,-1.96235e-05,-3.08357,0.450717,0.130903,-4.23137,0.0237873,
2,0,0,1,0,12939.1,0.0165796,0.0162841,-0.799715,7,0.0023842,10,-1.30227e-05,-3.09706,0.845467,0.0697839,-2.18385,0.0162841,
2,0,0,1,0,12939.9,0.00908846,0.00874858,-0.784018,7,0.00177888,10,-6.85904e-06,-3.10567,1.83741,0.0321104,-0.982387,0.008748576,
2,0,0,1,0,12940.6,0.00159728,0.00124082,-0.791471,7,0.00118013,10,-9.8207e-07,-3.10157, , , ,0.00124082,
2,0,0,1,0,12940.8,0.000199195,-0.000174534,-0.781464,7,0.00106809,10,1.36392e-07,-3.10709, , , ,-0.000174534,