File: Figure_codes/Fig_3-5/rawdata_trumpetplot_data/after 10th/20221101_1-115_003_TrumpetPlot_ParaChange_from10_every3_14_CV_C01_13.csv
mode,ox/red,error,control changes,counter inc.,time/s,control/V,Ewe/V,<I>/mA,cycle number,(Q-Qo)/C,I Range,P/W,log(|I|),Tafel slope mV/dec,alpha_eff,dI/d(E-IR),E-IR/V,
2,1,0,1,0,26810.8,2.44065e-05,-0.000248974,38.9841,14,0.0000000E+000,10,-9.70604e-06,-1.40911, , , ,-0.000248974,
2,1,0,1,0,26810.8,0.0133084,0.0129372,42.933,14,0.000541347,10,0.000555432,-1.36721,0.439262,0.134316,224.17,0.0129372,
2,1,0,1,0,26810.8,0.0273414,0.0269865,45.6358,14,0.00116248,10,0.00123155,-1.34069,0.61281,0.0962778,171.036,0.0269865,
2,1,0,1,0,26810.8,0.0413245,0.040969,47.7682,14,0.00181697,10,0.00195702,-1.32086,0.781071,0.0755373,140.654,0.040969,
2,1,0,1,0,26810.9,0.0553076,0.0549738,49.5977,14,0.00249898,10,0.00272657,-1.30454,0.892193,0.0661292,127.999,0.0549738,
2,1,0,1,0,26810.9,0.0693407,0.0689669,51.3342,14,0.00320581,10,0.00354036,-1.28959,0.957095,0.0616449,123.457,0.06896694,
2,1,0,1,0,26810.9,0.0833238,0.0829166,53.0524,14,0.00393674,10,0.00439892,-1.27529,0.991345,0.0595151,123.222,0.08291658,
2,1,0,1,0,26810.9,0.0973069,0.0968461,54.8569,14,0.00469186,10,0.00531268,-1.26077,0.88145,0.0669351,143.522,0.0968461,
2,1,0,1,0,26810.9,0.11134,0.111007,56.9777,14,0.00547497,10,0.00632491,-1.24429,0.8668,0.0680664,151.343,0.111007,
2,1,0,1,0,26810.9,0.125323,0.12494,59.1539,14,0.00628779,10,0.00739072,-1.22802,0.832555,0.0708662,163.659,0.1249405,
2,1,0,1,0,26810.9,0.139306,0.138956,61.5383,14,0.00713263,10,0.00855112,-1.21085,0.77534,0.0760956,182.971,0.138956,
2,1,0,1,0,26811,0.153339,0.152957,64.2647,14,0.00801337,10,0.00982977,-1.19203,0.743814,0.0793209,199.014,0.1529575,
2,1,0,1,0,26811,0.167322,0.166961,67.1331,14,0.00893344,10,0.0112086,-1.17306,0.754054,0.0782437,204.93,0.166961,
2,1,0,1,0,26811,0.181305,0.180917,69.8953,14,0.00989342,10,0.0126453,-1.15555,0.866491,0.0680907,185.605,0.180917,
2,1,0,1,0,26811,0.195338,0.195005,72.2389,14,0.0108895,10,0.0140869,-1.14123,1.25492,0.047015,132.249,0.195005,
2,1,0,1,0,26811,0.209322,0.208999,73.5575,14,0.0119115,10,0.0153734,-1.13337,3.88781,0.0151757,43.407,0.208999,
2,1,0,1,0,26811,0.223305,0.222973,73.3451,14,0.0129417,10,0.016354,-1.13463,-2.30226,-0.025627,-73.0987,0.222973,
2,1,0,1,0,26811,0.237338,0.237027,71.4519,14,0.0139573,10,0.016936,-1.14599,-0.82335,-0.0716584,-199.079,0.237027,
2,1,0,1,0,26811.1,0.251321,0.251009,67.9271,14,0.0149341,10,0.0170503,-1.16796,-0.524645,-0.112457,-297.108,0.251009,
2,1,0,1,0,26811.1,0.265304,0.265012,63.2371,14,0.0158528,10,0.0167586,-1.19903,-0.412761,-0.14294,-352.326,0.2650117,
2,1,0,1,0,26811.1,0.279337,0.279046,58.1476,14,0.0167023,10,0.0162259,-1.23547,-0.36421,-0.161994,-367.584,0.279046,
2,1,0,1,0,26811.1,0.29332,0.293009,53.2201,14,0.0174808,10,0.0155939,-1.27392,-0.367689,-0.160462,-335.129,0.293009,
2,1,0,1,0,26811.1,0.298714,0.298605,47.7127,14,0.0178929,10,0.0142473,-1.32137,0.0431919,1.366,2219.77,0.298605,
2,1,0,1,0,26811.1,0.28473,0.284479,25.4204,14,0.0183849,10,0.00723157,-1.59482,0.0488459,1.20788,1200.05,0.284479,
2,1,0,1,0,26811.1,0.270747,0.270474,11.911,14,0.0186388,10,0.00322162,-1.92405,0.0326671,1.8061,801.256,0.270474,
2,1,0,1,0,26811.1,0.256714,0.256448,2.46887,14,0.0187347,10,0.000633136,-2.6075,0.0245968,2.39868,572.162,0.256448,
2,0,0,1,0,26811.2,0.242731,0.242461,-4.36106,14,0.0187185,10,-0.00105739,-2.36041,-0.0155649,-3.79059,424.434,0.2424611,
2,0,0,1,0,26811.2,0.228748,0.228427,-9.52419,14,0.0186192,10,-0.00217558,-2.02117,-0.0643324,-0.917112,326.174,0.228427,
2,0,0,1,0,26811.2,0.214715,0.214444,-13.5892,14,0.0184556,10,-0.00291412,-1.86681,-0.118874,-0.496323,258.784,0.214444,
2,0,0,1,0,26811.2,0.200732,0.200408,-16.8495,14,0.0182415,10,-0.00337676,-1.77341,-0.179148,-0.329337,214.773,0.200408,
2,0,0,1,0,26811.2,0.186735,0.186458,-19.6302,14,0.0179856,10,-0.00366021,-1.70707,-0.238942,-0.246922,188.406,0.186458,
2,0,0,1,0,26811.2,0.172716,0.172378,-22.1557,14,0.0176925,10,-0.00381916,-1.65451,-0.290614,-0.203018,175.239,0.172378,
2,0,0,1,0,26811.2,0.158733,0.158397,-24.6444,14,0.0173649,10,-0.00390361,-1.60828,-0.304054,-0.194044,186.772,0.158397,
2,0,0,1,0,26811.3,0.144719,0.144447,-27.5013,14,0.0170005,10,-0.00397248,-1.56065,-0.277043,-0.212963,229.32,0.144447,
2,0,0,1,0,26811.3,0.130717,0.130421,-31.1495,14,0.0165906,10,-0.00406254,-1.50655,-0.239724,-0.246117,300.519,0.130421,
2,0,0,1,0,26811.3,0.116733,0.116461,-35.9635,14,0.0161218,10,-0.00418836,-1.44414,-0.216001,-0.273146,384.04,0.116461,
2,0,0,1,0,26811.3,0.102703,0.102479,-41.696,14,0.0155784,10,-0.00427296,-1.37991,-0.229032,-0.257605,418.326,0.102479,
2,0,0,1,0,26811.3,0.0887173,0.0884636,-47.4995,14,0.0149531,10,-0.00420198,-1.32331,-0.274035,-0.215301,397.689,0.0884636,
2,0,0,1,0,26811.3,0.0747341,0.0745277,-52.6636,14,0.0142502,10,-0.0039249,-1.27849,-0.349567,-0.16878,346.065,0.0745277,
2,0,0,1,0,26811.3,0.0607011,0.0604508,-57.1849,14,0.0134801,10,-0.00345687,-1.24272,-0.467011,-0.126335,280.728,0.0604508,
2,0,0,1,0,26811.4,0.046718,0.0465075,-60.5127,14,0.0126546,10,-0.0028143,-1.21815,-0.686036,-0.0860013,202.584,0.04650753,
2,0,0,1,0,26811.4,0.0327349,0.0324497,-62.9477,14,0.0117893,10,-0.00204264,-1.20102,-1.02413,-0.0576101,141.141,0.0324497,
2,0,0,1,0,26811.4,0.0187018,0.0184311,-64.542,14,0.0108962,10,-0.00118958,-1.19016,-1.68881,-0.0349358,87.8064,0.0184311,
2,0,0,1,0,26811.4,0.00471873,0.00438818,-65.3972,14,0.0099858,10,-0.000286975,-1.18444,-3.46917,-0.017007,43.362,0.00438818,
2,0,0,1,0,26811.4,-0.00926438,-0.00960601,-65.7438,14,0.00906693,10,0.000631535,-1.18215,-134.131,-0.000439869,1.12705,-0.00960601,
2,0,0,1,0,26811.4,-0.0232974,-0.0236628,-65.5486,14,0.00814754,10,0.00155106,-1.18344,4.33182,0.0136201,-34.7742,-0.0236628,
2,0,0,1,0,26811.4,-0.0372805,-0.0376463,-64.749,14,0.00723509,10,0.00243756,-1.18877,2.01427,0.0292909,-73.9254,-0.0376463,
2,0,0,1,0,26811.5,-0.0512637,-0.0516533,-63.5395,14,0.00633694,10,0.00328202,-1.19696,1.55521,0.0379371,-94.0281,-0.0516533,
2,0,0,1,0,26811.5,-0.0652967,-0.0656549,-62.2208,14,0.00545686,10,0.0040851,-1.20606,1.5334,0.0384766,-93.4034,-0.0656549,
2,0,0,1,0,26811.5,-0.0792798,-0.0796575,-60.9249,14,0.0045952,10,0.00485312,-1.21521,1.69401,0.0348285,-82.8742,-0.0796575,
2,0,0,1,0,26811.5,-0.0932629,-0.0935934,-59.9115,14,0.00374979,10,0.00560732,-1.22249,2.29471,0.0257113,-60.175,-0.0935934,
2,0,0,1,0,26811.5,-0.107296,-0.107644,-59.2852,14,0.00291603,10,0.00638168,-1.22705,4.11211,0.0143479,-33.2101,-0.107644,
2,0,0,1,0,26811.5,-0.121279,-0.121649,-58.9359,14,0.00208899,10,0.00716947,-1.22962,10.1451,0.00581561,-13.3863,-0.121649,
2,0,0,1,0,26811.5,-0.135262,-0.135632,-58.8955,14,0.00126455,10,0.00798812,-1.22992,-19.1318,-0.00308387,7.09374,-0.135632,
2,0,0,1,0,26811.6,-0.149295,-0.149656,-59.1628,14,0.000438376,10,0.00885408,-1.22795,-5.59385,-0.0105473,24.3553,-0.149656,
2,0,0,1,0,26811.6,-0.163278,-0.163565,-59.5525,14,-0.000392484,10,0.00974073,-1.2251,-4.23427,-0.0139339,32.3923,-0.163565,
2,0,0,1,0,26811.6,-0.177261,-0.17762,-60.0482,14,-0.00122965,10,0.0106658,-1.2215,-3.57772,-0.0164909,38.6563,-0.17762,
2,0,0,1,0,26811.6,-0.191295,-0.191642,-60.658,14,-0.00207456,10,0.0116246,-1.21711,-3.17424,-0.0185871,43.9831,-0.191642,
2,0,0,0,1,26811.6,-0.199984,-0.200589,-60.6802,14,-0.00264031,10,0.0121718,-1.21695,-0.0377017,-1.56492,3259.19,-0.200589,
2,0,0,1,1,26811.6,-0.186686,-0.187108,-38.4919,14,-0.00326519,10,0.00720212,-1.41463,-0.0735454,-0.802226,1219.78,-0.187108,
2,0,0,1,1,26811.6,-0.172667,-0.173109,-24.5302,14,-0.00369942,10,0.00424639,-1.6103,-0.0652845,-0.903737,860.374,-0.173109,
2,0,0,1,1,26811.6,-0.158684,-0.159122,-13.9036,14,-0.00396451,10,0.00221237,-1.85687,-0.0449953,-1.31125,688.357,-0.159122,
2,0,0,1,1,26811.7,-0.14467,-0.145115,-5.09822,14,-0.00409507,10,0.00073983,-2.29258,-0.0138349,-4.26458,579.683,-0.145115,
2,1,0,1,1,26811.7,-0.130668,-0.131099,2.37869,14,-0.00411209,10,-0.000311844,-2.62366,0.0291428,2.02451,500.572,-0.131099,
2,1,0,1,1,26811.7,-0.116685,-0.117207,8.93289,14,-0.00403129,10,-0.00104699,-2.04901,0.0432324,1.36472,444.673,-0.117207,
2,1,0,1,1,26811.7,-0.102654,-0.103122,14.9208,14,-0.0038634,10,-0.00153866,-1.82621,0.0827972,0.712585,404.508,-0.103122,
2,1,0,1,1,26811.7,-0.0886685,-0.089057,20.2594,14,-0.00361612,10,-0.00180424,-1.69337,0.126631,0.465922,364.163,-0.089057,
2,1,0,1,1,26811.7,-0.0746854,-0.0750893,25.0836,14,-0.00329764,10,-0.00188351,-1.60061,0.173935,0.339207,330.082,-0.0750893,
2,1,0,1,1,26811.7,-0.0606523,-0.0610866,29.5539,14,-0.00291455,10,-0.00180535,-1.52939,0.224983,0.262241,300.585,-0.06108664,
2,1,0,1,1,26811.8,-0.0466692,-0.0470564,33.52,14,-0.00247239,10,-0.00157733,-1.4747,0.285675,0.206528,269.128,-0.0470564,
2,1,0,1,1,26811.8,-0.0326861,-0.0330813,37.076,14,-0.00197747,10,-0.00122652,-1.43091,0.353904,0.166712,240.628,-0.0330813,
2,1,0,1,1,26811.8,-0.018653,-0.0191009,40.3006,14,-0.00143521,10,-0.000769778,-1.39469,0.433097,0.136228,213.614,-0.01910089,
2,1,0,1,1,26811.8,-0.00466992,-0.00503777,43.0714,14,-0.000850979,10,-0.000216984,-1.36581, , , ,-0.005037772,
2,1,0,0,1,26811.8,-0.000175352,-0.000516197,43.8619,14,-0.000655337,10,-2.26413e-05,-1.35791, , , ,-0.000516197,