File: Figure_codes/Fig_3-5/rawdata_trumpetplot_data/after 10th/20221101_1-115_003_TrumpetPlot_ParaChange_from10_every3_11_CV_C01_19.csv
mode,ox/red,error,control changes,counter inc.,time/s,control/V,Ewe/V,<I>/mA,cycle number,(Q-Qo)/C,I Range,P/W,log(|I|),Tafel slope mV/dec,alpha_eff,dI/d(E-IR),E-IR/V,
2,1,0,1,0,38627,2.44065e-05,-0.000344411,9.77246,20,0.0000000E+000,10,-3.36574e-06,-2.01, , , ,-0.000344411,
2,1,0,1,0,38627,0.0101427,0.00982383,13.2383,20,0.000297334,10,0.00013005,-1.87817,0.131395,0.449029,230.94,0.00982383,
2,1,0,1,0,38627,0.0205441,0.0202285,15.1787,20,0.000668537,10,0.000307043,-1.81876,0.22165,0.266186,157.45,0.0202285,
2,1,0,1,0,38627.1,0.0309482,0.0306216,16.6176,20,0.00108277,10,0.000508857,-1.77943,0.315503,0.187003,121.069,0.0306216,
2,1,0,1,0,38627.1,0.0413439,0.0410539,17.7936,20,0.00153046,10,0.000730497,-1.74974,0.389593,0.15144,105.087,0.0410539,
2,1,0,1,0,38627.1,0.0517425,0.0513631,18.8659,20,0.00200738,10,0.000969014,-1.72432,0.42059,0.140279,103.373,0.0513631,
2,1,0,1,0,38627.2,0.0621438,0.0618187,19.9601,20,0.00251227,10,0.00123391,-1.69984,0.443863,0.132924,103.469,0.0618187,
2,1,0,1,0,38627.2,0.0725479,0.0721832,21.0456,20,0.00304526,10,0.00151914,-1.67684,0.463291,0.12735,104.577,0.0721832,
2,1,0,1,0,38627.2,0.0829437,0.0825879,22.1734,20,0.00360722,10,0.00183125,-1.65417,0.475254,0.124144,107.475,0.0825879,
2,1,0,1,0,38627.2,0.0933422,0.092982,23.2978,20,0.00419857,10,0.00216628,-1.63268,0.493005,0.119674,108.822,0.092982,
2,1,0,1,0,38627.3,0.103749,0.103433,24.4572,20,0.00481918,10,0.00252969,-1.61159,0.510936,0.115474,110.124,0.103433,
2,1,0,1,0,38627.3,0.114148,0.113771,25.5758,20,0.00546951,10,0.00290979,-1.59217,0.517459,0.114019,113.853,0.113771,
2,1,0,1,0,38627.3,0.124543,0.124218,26.8414,20,0.00615078,10,0.00333419,-1.57119,0.473831,0.124517,130.469,0.124218,
2,1,0,1,0,38627.3,0.134942,0.134587,28.2858,20,0.00686727,10,0.0038069,-1.54843,0.450542,0.130953,144.547,0.134587,
2,1,0,1,0,38627.4,0.145349,0.144979,29.8005,20,0.00762246,10,0.00432045,-1.52578,0.488469,0.120786,140.359,0.144979,
2,1,0,1,0,38627.4,0.155747,0.155419,31.1737,20,0.00841558,10,0.00484497,-1.50621,0.582107,0.101356,123.256,0.155419,
2,1,0,1,0,38627.4,0.166143,0.165761,32.259,20,0.00924126,10,0.00534729,-1.49135,0.938073,0.0628949,79.1009,0.165761,
2,1,0,1,0,38627.4,0.176542,0.176192,32.7134,20,0.0100878,10,0.00576384,-1.48527,-32.0456,-0.00184113,-2.34654,0.176192,
2,1,0,1,0,38627.5,0.186949,0.186651,32.1129,20,0.0109329,10,0.00599389,-1.49332,-0.644153,-0.0915932,-114.576,0.186651,
2,1,0,1,0,38627.5,0.197347,0.197003,30.3443,20,0.011747,10,0.00597791,-1.51792,-0.31727,-0.185962,-219.857,0.197003,
2,1,0,1,0,38627.5,0.207743,0.20738,27.7254,20,0.0125026,10,0.00574968,-1.55712,-0.235496,-0.250535,-270.692,0.20738,
2,1,0,1,0,38627.5,0.218141,0.217829,24.8628,20,0.0131857,10,0.00541583,-1.60445,-0.217,-0.27189,-264.036,0.217829,
2,1,0,1,0,38627.6,0.228548,0.228253,22.353,20,0.0137983,10,0.00510214,-1.65066,-0.239059,-0.246801,-215.44,0.228253,
2,1,0,1,0,38627.6,0.238947,0.238617,20.3514,20,0.014352,10,0.00485618,-1.69141,-0.276078,-0.213708,-169.761,0.238617,
2,1,0,1,0,38627.6,0.249343,0.249039,18.8077,20,0.0148601,10,0.00468384,-1.72566,-0.338617,-0.174238,-128.051,0.2490388,
2,1,0,1,0,38627.6,0.259741,0.259427,17.642,20,0.0153332,10,0.00457679,-1.75345,-0.419367,-0.140688,-96.9644,0.2594265,
2,1,0,1,0,38627.7,0.270148,0.269828,16.7486,20,0.0157797,10,0.00451923,-1.77602,-0.506644,-0.116453,-76.1493,0.269828,
2,1,0,1,0,38627.7,0.280547,0.280244,16.0448,20,0.0162056,10,0.00449645,-1.79467,-0.595039,-0.0991532,-62.0832,0.280244,
2,1,0,1,0,38627.7,0.290942,0.290622,15.4646,20,0.0166149,10,0.00449434,-1.81066,-0.706717,-0.0834846,-50.4125,0.290622,
2,1,0,0,0,38627.7,0.300012,0.299632,15.0413,20,0.016961,10,0.00450687,-1.82271,0.00160409,36.781,18981.3,0.299632,
2,1,0,1,0,38627.8,0.290704,0.290379,4.96678,20,0.0171709,10,0.00144225,-2.30393,0.0167947,3.51302,671.386,0.290379,
2,1,0,1,0,38627.8,0.280305,0.279966,-0.121019,20,0.0172267,10,-3.38812e-05,-3.91715,-0.195146,-0.302338,371.092,0.279966,
2,0,0,1,0,38627.8,0.269909,0.2696,-3.11274,20,0.0171813,10,-0.000839194,-2.50686,-0.0302503,-1.95039,228.216,0.2696,
2,0,0,1,0,38627.8,0.2595,0.259209,-5.05115,20,0.0170735,10,-0.0013093,-2.29661,-0.0747898,-0.788878,154.051,0.259209,
2,0,0,1,0,38627.9,0.249104,0.248756,-6.40689,20,0.0169235,10,-0.00159375,-2.19335,-0.129925,-0.454108,113.262,0.248756,
2,0,0,1,0,38627.9,0.238705,0.238398,-7.44846,20,0.0167427,10,-0.00177569,-2.12793,-0.19231,-0.306796,89.0689,0.238398,
2,0,0,1,0,38627.9,0.22831,0.228018,-8.26898,20,0.0165379,10,-0.00188548,-2.08255,-0.259825,-0.227076,73.2015,0.228018,
2,0,0,1,0,38628,0.2179,0.217583,-8.97681,20,0.0163135,10,-0.0019532,-2.04688,-0.330979,-0.178259,62.3445,0.217583,
2,0,0,1,0,38628,0.207504,0.207159,-9.57125,20,0.0160721,10,-0.00198277,-2.01903,-0.395872,-0.149038,55.7637,0.207159,
2,0,0,1,0,38628,0.197106,0.196782,-10.151,20,0.0158154,10,-0.00199753,-1.99349,-0.423928,-0.139175,55.1454,0.196782,
2,0,0,1,0,38628,0.18671,0.186385,-10.7018,20,0.0155443,10,-0.00199465,-1.97054,-0.465392,-0.126775,52.9491,0.186385,
2,0,0,1,0,38628.1,0.1763,0.175977,-11.2698,20,0.0152586,10,-0.00198323,-1.94808,-0.450441,-0.130983,57.6864,0.1759768,
2,0,0,1,0,38628.1,0.165905,0.165582,-11.9281,20,0.0149572,10,-0.00197507,-1.92343,-0.403613,-0.14618,68.0256,0.165582,
2,0,0,1,0,38628.1,0.155506,0.155173,-12.7307,20,0.0146373,10,-0.00197546,-1.89515,-0.326107,-0.180922,89.878,0.155173,
2,0,0,1,0,38628.1,0.145105,0.144749,-13.8328,20,0.0142929,10,-0.00200228,-1.85909,-0.246313,-0.239533,129.597,0.1447489,
2,0,0,1,0,38628.2,0.134701,0.134372,-15.4968,20,0.0139129,10,-0.00208233,-1.80976,-0.18183,-0.324478,196.532,0.134372,
2,0,0,1,0,38628.2,0.124305,0.124004,-17.8508,20,0.0134806,10,-0.00221357,-1.74834,-0.164139,-0.359451,250.484,0.124004,
2,0,0,1,0,38628.2,0.113906,0.113612,-20.6224,20,0.0129805,10,-0.00234296,-1.68566,-0.175902,-0.335414,269.884,0.113612,
2,0,0,1,0,38628.2,0.103505,0.103227,-23.3494,20,0.0124083,10,-0.00241028,-1.63172,-0.209336,-0.281843,256.622,0.103227,
2,0,0,1,0,38628.3,0.0931008,0.0928102,-25.8347,20,0.0117676,10,-0.00239772,-1.5878,-0.273741,-0.215532,216.946,0.0928102,
2,0,0,1,0,38628.3,0.0827051,0.0824267,-27.7959,20,0.0110692,10,-0.00229112,-1.55602,-0.392652,-0.15026,162.766,0.0824267,
2,0,0,1,0,38628.3,0.0723065,0.0719795,-29.1868,20,0.010327,10,-0.00210085,-1.53481,-0.6675,-0.0883895,100.575,0.0719795,
2,0,0,1,0,38628.3,0.0618996,0.0615727,-29.9362,20,0.00955705,10,-0.00184325,-1.5238,-1.53176,-0.0385178,44.9689,0.0615727,
2,0,0,1,0,38628.4,0.0515011,0.0511744,-30.1779,20,0.00877482,10,-0.00154433,-1.52031,-15.4534,-0.00381794,4.49072,0.0511744,
2,0,0,1,0,38628.4,0.0411053,0.0407972,-30.0681,20,0.00799123,10,-0.00122669,-1.52189,3.73671,0.0157893,-18.5333,0.0407972,
2,0,0,1,0,38628.4,0.0307068,0.030383,-29.8128,20,0.00721226,10,-0.000905803,-1.5256,2.54146,0.023215,-27.0227,0.030383,
2,0,0,1,0,38628.4,0.0202999,0.0199613,-29.4618,20,0.00644145,10,-0.000588096,-1.53074,1.61307,0.0365763,-42.0164,0.0199613,
2,0,0,1,0,38628.5,0.00990136,0.0095513,-28.9323,20,0.00568205,10,-0.000276342,-1.53862,1.1188,0.0527349,-59.5297,0.0095513,
2,0,0,1,0,38628.5,-0.000494411,-0.000872494,-28.257,20,0.00493823,10,2.4654e-05,-1.54887,0.865402,0.0681764,-75.1221,-0.000872494,
2,0,0,1,0,38628.5,-0.010893,-0.0112454,-27.3512,20,0.00421517,10,0.000307575,-1.56302,0.693849,0.0850329,-90.7325,-0.0112454,
2,0,0,1,0,38628.6,-0.0212998,-0.0217106,-26.3958,20,0.00351668,10,0.000573068,-1.57846,0.686551,0.0859368,-88.5058,-0.0217106,
2,0,0,1,0,38628.6,-0.0316984,-0.0320421,-25.5352,20,0.00284213,10,0.000818201,-1.59286,0.799773,0.0737709,-73.5405,-0.0320421,
2,0,0,1,0,38628.6,-0.0420942,-0.0425073,-24.895,20,0.00218711,10,0.00105822,-1.60389,1.13674,0.0519026,-50.4668,-0.0425073,
2,0,0,1,0,38628.6,-0.0524927,-0.0528579,-24.504,20,0.00154545,10,0.00129523,-1.61076,2.15833,0.0273359,-26.1529,-0.0528579,
2,0,0,1,0,38628.7,-0.0628996,-0.0632753,-24.3484,20,0.000910931,10,0.00154065,-1.61353,9.03287,0.0065317,-6.2063,-0.06327533,
2,0,0,1,0,38628.7,-0.0732982,-0.0736599,-24.3763,20,0.000278045,10,0.00179556,-1.61303,-4.40144,-0.0134047,12.7552,-0.0736599,
2,0,0,1,0,38628.7,-0.0836939,-0.0840731,-24.5697,20,-0.000357978,10,0.00206565,-1.6096,-2.19005,-0.02694,25.8442,-0.0840731,
2,0,0,1,0,38628.7,-0.0940925,-0.0944364,-24.9222,20,-0.00100123,10,0.00235357,-1.60341,-1.39336,-0.0423437,41.2008,-0.0944364,
2,0,0,1,1,38628.8,-0.0978574,-0.0982889,-20.9244,20,-0.00149988,10,0.00205663,-1.67935,-0.030241,-1.95099,1570.79,-0.0982889,
2,0,0,1,1,38628.8,-0.0874588,-0.0878524,-9.84499,20,-0.00188354,10,0.000864906,-2.00678,-0.027982,-2.1085,804.539,-0.0878524,
2,0,0,1,1,38628.8,-0.077052,-0.0774413,-2.87341,20,-0.00204282,10,0.000222521,-2.5416,-0.0102563,-5.75257,567.543,-0.0774413,
2,1,0,1,1,38628.8,-0.0666562,-0.0670652,2.24262,20,-0.00204739,10,-0.000150402,-2.64924,0.0100368,5.87836,427.201,-0.0670652,
2,1,0,1,1,38628.9,-0.0562576,-0.0567167,6.1681,20,-0.00193569,10,-0.000349834,-2.20985,0.0419327,1.40702,332.752,-0.0567167,
2,1,0,1,1,38628.9,-0.0458563,-0.0462208,9.25056,20,-0.00173333,10,-0.000427568,-2.03383,0.0810474,0.727969,261.226,-0.0462208,
2,1,0,1,1,38628.9,-0.0354522,-0.0358182,11.6657,20,-0.00145983,10,-0.000417846,-1.93309,0.130414,0.452404,205.252,-0.0358182,
2,1,0,1,1,38628.9,-0.0250564,-0.0254093,13.5462,20,-0.00113083,10,-0.000344199,-1.86818,0.197988,0.297998,157.223,-0.02540925,
2,1,0,1,1,38629,-0.0146579,-0.0150257,14.9916,20,-0.000758905,10,-0.00022526,-1.82415,0.284752,0.207198,121.045,-0.0150257,
2,1,0,1,1,38629,-0.00425653,-0.004638,16.0837,20,-0.00035418,10,-7.4596e-05,-1.79362,0.408024,0.144599,90.7373,-0.004637999,
2,1,0,0,1,38629,-7.54729e-05,-0.000344411,16.4463,20,-0.000183273,10,-5.6643e-06,-1.78393, , , ,-0.000344411,