File: Figure_codes/Fig_3-5/rawdata_trumpetplot_data/after 10th/20221101_1-115_003_TrumpetPlot_ParaChange_from10_every3_08_CV_C01_26.csv
mode,ox/red,error,control changes,counter inc.,time/s,control/V,Ewe/V,<I>/mA,cycle number,(Q-Qo)/C,I Range,P/W,log(|I|),Tafel slope mV/dec,alpha_eff,dI/d(E-IR),E-IR/V,
2,0,0,0,0,52398.4,2.44065e-05,-0.000401673,-3.97156,27,0.0000000E+000,10,1.59527e-06,-2.40104, , , ,-0.000401673,
2,1,0,1,0,52398.5,0.0072942,0.00693297,0.511026,27,-0.000101736,10,3.54293e-06,-3.29156,0.00502021,11.7525,301.93,0.00693297,
2,1,0,1,0,52398.6,0.0147816,0.0144142,1.949,27,2.42755e-05,10,2.80932e-05,-2.71019,0.0349044,1.69033,126.511,0.0144142,
2,1,0,1,0,52398.7,0.0222707,0.021909,2.6555,27,0.000244087,10,5.81793e-05,-2.57585,0.0823275,0.71665,73.9362,0.021909,
2,1,0,1,0,52398.8,0.0297581,0.0294035,3.10182,27,0.000515838,10,9.12043e-05,-2.50838,0.134037,0.440175,53.2328,0.0294035,
2,1,0,1,0,52398.9,0.0372544,0.036917,3.46626,27,0.00082518,10,0.000127964,-2.46014,0.180626,0.326642,44.1204,0.036917,
2,1,0,1,0,52399,0.0447507,0.0444089,3.79168,27,0.00116638,10,0.000168384,-2.42117,0.206033,0.286362,42.3536,0.0444089,
2,1,0,1,0,52399.1,0.0522381,0.0518942,4.09177,27,0.0015368,10,0.000212339,-2.38809,0.224985,0.262239,41.9174,0.0518942,
2,1,0,1,0,52399.2,0.0597273,0.0593986,4.38675,27,0.00193532,10,0.000260567,-2.35786,0.275447,0.214197,36.6775,0.0593986,
2,1,0,1,0,52399.2,0.0672147,0.0668876,4.66873,27,0.00236023,10,0.00031228,-2.3308,0.295276,0.199813,36.3583,0.0668876,
2,1,0,1,0,52399.3,0.0747038,0.0744083,4.91646,27,0.00280981,10,0.000365826,-2.30835,0.339149,0.173965,33.3639,0.0744083,
2,1,0,1,0,52399.4,0.0822055,0.0819069,5.13074,27,0.00328252,10,0.000420243,-2.28982,0.44698,0.131997,26.4421,0.0819069,
2,1,0,1,0,52399.5,0.0896946,0.0893588,5.335,27,0.00377367,10,0.000476729,-2.27287,0.508304,0.116072,24.1611,0.0893588,
2,1,0,1,0,52399.6,0.097182,0.09681,5.53866,27,0.00428329,10,0.000536198,-2.2566,0.369294,0.159764,34.5311,0.09681,
2,1,0,1,0,52399.7,0.104671,0.104324,5.82437,27,0.00481541,10,0.000607619,-2.23475,0.304126,0.193999,44.1174,0.104324,
2,1,0,1,0,52399.8,0.112159,0.11178,6.21306,27,0.00537896,10,0.000694497,-2.20669,0.252562,0.233606,56.5982,0.11178,
2,1,0,1,0,52399.9,0.119655,0.11931,6.65679,27,0.00598268,10,0.000794222,-2.17674,0.25758,0.229055,59.4598,0.11931,
2,1,0,1,0,52400,0.127149,0.126798,7.02801,27,0.00662573,10,0.000891137,-2.15317,0.375579,0.157091,43.0742,0.1267979,
2,1,0,1,0,52400.1,0.134639,0.134303,7.30958,27,0.00729881,10,0.000981701,-2.13611,0.636673,0.0926692,26.4243,0.1343033,
2,1,0,1,0,52400.2,0.142126,0.141793,7.46187,27,0.00799186,10,0.00105804,-2.12715,1.11979,0.0526884,15.3231,0.141793,
2,1,0,1,0,52400.3,0.149615,0.149315,7.39034,27,0.00869072,10,0.00110349,-2.13134,-0.44904,-0.131391,-37.8239,0.149315,
2,1,0,1,0,52400.4,0.157103,0.156784,6.87187,27,0.00936315,10,0.0010774,-2.16292,-0.150369,-0.392369,-104.9,0.156784,
2,1,0,1,0,52400.5,0.164606,0.164261,5.94555,27,0.00996659,10,0.000976621,-2.22581,-0.105251,-0.560567,-129.913,0.164261,
2,1,0,1,0,52400.6,0.172095,0.171775,5.03113,27,0.0104798,10,0.000864223,-2.29833,-0.110554,-0.533677,-105.154,0.171775,
2,1,0,1,0,52400.7,0.179582,0.179285,4.39306,27,0.0109202,10,0.000787612,-2.35723,-0.143467,-0.411245,-70.6787,0.1792853,
2,1,0,1,0,52400.7,0.18707,0.186779,3.97534,27,0.0113112,10,0.000742511,-2.40063,-0.21736,-0.271439,-42.0866,0.186779,
2,1,0,1,0,52400.8,0.194559,0.194226,3.69163,27,0.0116698,10,0.00071701,-2.43278,-0.293439,-0.201064,-28.9957,0.194226,
2,1,0,1,0,52400.9,0.202062,0.201759,3.50543,27,0.0120077,10,0.000707252,-2.45526,-0.353683,-0.166816,-22.8174,0.201759,
2,1,0,1,0,52401,0.20955,0.209232,3.37816,27,0.0123303,10,0.000706819,-2.47132,-0.480076,-0.122897,-16.2002,0.209232,
2,1,0,1,0,52401.1,0.217039,0.216749,3.27922,27,0.0126427,10,0.000710767,-2.48423,-0.801542,-0.0736081,-9.43244,0.216749,
2,1,0,1,0,52401.2,0.224526,0.224191,3.21219,27,0.0129477,10,0.000720144,-2.4932,-0.727348,-0.0811166,-10.1739,0.224191,
2,1,0,1,0,52401.3,0.232016,0.231688,3.16177,27,0.0132469,10,0.000732544,-2.50007,-1.32134,-0.0446516,-5.50716,0.231688,
2,1,0,1,0,52401.4,0.23951,0.239189,3.11638,27,0.0135421,10,0.000745405,-2.50635,-2.83259,-0.020829,-2.53571,0.239189,
2,1,0,1,0,52401.5,0.247006,0.246689,3.08811,27,0.0138338,10,0.000761803,-2.51031,-1.35764,-0.0434578,-5.22402,0.246689,
2,1,0,1,0,52401.6,0.254494,0.254181,3.05828,27,0.0141222,10,0.000777356,-2.51452,-1.28018,-0.0460872,-5.4914,0.254181,
2,1,0,1,0,52401.7,0.261983,0.261683,3.02554,27,0.0144079,10,0.000791734,-2.5192,-3.73598,-0.0157924,-1.86805,0.2616832,
2,1,0,1,0,52401.8,0.26947,0.269117,2.99805,27,0.0146912,10,0.000806825,-2.52316,-2.64707,-0.0222888,-2.6141,0.269117,
2,1,0,1,0,52401.9,0.276959,0.276709,2.98454,27,0.0149724,10,0.000825849,-2.52512,-2.82618,-0.0208762,-2.42939,0.276709,
2,1,0,1,0,52402,0.284461,0.284182,2.96003,27,0.0152518,10,0.000841187,-2.5287,-4.11128,-0.0143508,-1.65453,0.284182,
2,1,0,1,0,52402.1,0.29195,0.291636,2.92875,27,0.0155284,10,0.000854129,-2.53332,-1.5351,-0.0384341,-4.39231,0.291636,
2,1,0,1,0,52402.2,0.299438,0.299127,2.91003,27,0.0158027,10,0.00087047,-2.5361,-0.0351826,-1.67697,-177.131,0.299127,
2,0,0,1,0,52402.2,0.29424,0.293903,-0.101893,27,0.0158889,10,-2.99466e-05,-3.99186,-0.137697,-0.428477,214.713,0.293903,
2,0,0,1,0,52402.3,0.286753,0.286449,-0.965828,27,0.0158299,10,-0.000276661,-3.0151,-0.0334629,-1.76315,65.3947,0.286449,
2,0,0,1,0,52402.4,0.279264,0.27889,-1.32188,27,0.0157201,10,-0.000368658,-2.87881,-0.0887475,-0.664808,34.1404,0.2788904,
2,0,0,1,0,52402.5,0.271776,0.271478,-1.52678,27,0.0155851,10,-0.000414487,-2.81622,-0.132808,-0.444252,26.5151,0.271478,
2,0,0,1,0,52402.6,0.26428,0.263943,-1.68622,27,0.0154331,10,-0.000445066,-2.77309,-0.215163,-0.274211,18.0455,0.263943,
2,0,0,1,0,52402.7,0.256786,0.256446,-1.81669,27,0.015268,10,-0.000465882,-2.74072,-0.259304,-0.227532,16.0653,0.256446,
2,0,0,1,0,52402.8,0.249296,0.248965,-1.91491,27,0.0150924,10,-0.000476745,-2.71785,-0.31514,-0.187218,14.0089,0.248965,
2,0,0,1,0,52402.9,0.241809,0.241505,-2.00163,27,0.0149075,10,-0.000483404,-2.69862,-0.444673,-0.132682,10.4084,0.241505,
2,0,0,1,0,52403,0.23432,0.233944,-2.09884,27,0.0147142,10,-0.000491011,-2.67802,-0.49456,-0.119298,9.78211,0.233944,
2,0,0,1,0,52403.1,0.226833,0.226516,-2.17625,27,0.0145132,10,-0.000492956,-2.66229,-0.346268,-0.170388,14.4625,0.226516,
2,0,0,1,0,52403.2,0.219329,0.219008,-2.25415,27,0.0143042,10,-0.000493676,-2.64702,-0.516115,-0.114316,10.0546,0.219008,
2,0,0,1,0,52403.3,0.21184,0.211561,-2.33646,27,0.0140885,10,-0.000494305,-2.63144,-0.655991,-0.0899403,8.18762,0.211561,
2,0,0,1,0,52403.4,0.204353,0.204023,-2.40992,27,0.0138657,10,-0.000491679,-2.618,-0.620351,-0.0951075,8.93867,0.204023,
2,0,0,1,0,52403.4,0.196863,0.196511,-2.48021,27,0.0136357,10,-0.000487389,-2.60551,-0.625551,-0.0943168,9.1533,0.196511,
2,0,0,1,0,52403.5,0.189376,0.189029,-2.56791,27,0.0133983,10,-0.00048541,-2.59042,-0.563999,-0.10461,10.4869,0.189029,
2,0,0,1,0,52403.6,0.18188,0.181543,-2.66048,27,0.0131526,10,-0.000482991,-2.57504,-0.413684,-0.142621,14.7778,0.181543,
2,0,0,1,0,52403.7,0.174385,0.174071,-2.75992,27,0.0128978,10,-0.000480421,-2.5591,-0.424623,-0.138947,14.9868,0.174071,
2,0,0,1,0,52403.8,0.166896,0.166527,-2.89269,27,0.0126325,10,-0.000481711,-2.5387,-0.365911,-0.161241,18.1798,0.166527,
2,0,0,1,0,52403.9,0.159409,0.159075,-3.06013,27,0.0123538,10,-0.000486789,-2.51426,-0.25808,-0.228611,27.2478,0.159075,
2,0,0,1,0,52404,0.151919,0.151592,-3.28605,27,0.0120564,10,-0.00049814,-2.48333,-0.199042,-0.29642,38.1472,0.151592,
2,0,0,1,0,52404.1,0.144425,0.144097,-3.66687,27,0.0117308,10,-0.000528385,-2.4357,-0.140178,-0.420893,60.3392,0.144097,
2,0,0,1,0,52404.2,0.136929,0.136619,-4.25268,27,0.0113608,10,-0.000580997,-2.37134,-0.101896,-0.579024,96.0944,0.136619,
2,0,0,1,0,52404.3,0.129441,0.129111,-5.01049,27,0.0109272,10,-0.000646909,-2.30012,-0.104447,-0.564879,110.478,0.129111,
2,0,0,1,0,52404.4,0.121952,0.121643,-5.81223,27,0.0104191,10,-0.000707019,-2.23566,-0.134834,-0.437575,99.0917,0.121643,
2,0,0,1,0,52404.5,0.114465,0.114101,-6.51379,27,0.00984063,10,-0.000743231,-2.18617,-0.179423,-0.328833,83.431,0.1141011,
2,0,0,1,0,52404.6,0.106976,0.106658,-7.0388,27,0.00920407,10,-0.000750745,-2.1525,-0.273913,-0.215397,59.1539,0.106658,
2,0,0,1,0,52404.7,0.0994721,0.0991424,-7.37982,27,0.00852462,10,-0.000731654,-2.13195,-0.652716,-0.0903916,26.0035,0.0991424,
2,0,0,1,0,52404.8,0.0919847,0.0916513,-7.46588,27,0.00782709,10,-0.000684258,-2.12692,8.01184,0.0073641,-2.14365,0.0916513,
2,0,0,1,0,52404.9,0.0844974,0.0841654,-7.34536,27,0.00713174,10,-0.000618225,-2.13399,0.778248,0.0758113,-21.7344,0.0841654,
2,0,0,1,0,52404.9,0.0770082,0.076694,-7.14989,27,0.00645226,10,-0.000548354,-2.1457,0.55475,0.106354,-29.6797,0.076694,
2,0,0,1,0,52405,0.0695208,0.0691842,-6.98044,27,0.0057905,10,-0.000482936,-2.15612,0.846143,0.0697282,-18.9915,0.0691842,
2,0,0,1,0,52405.1,0.0620245,0.0616755,-6.83217,27,0.00514237,10,-0.000421378,-2.16544,0.941248,0.0626828,-16.7333,0.0616755,
2,0,0,1,0,52405.2,0.0545282,0.054201,-6.70064,27,0.00450699,10,-0.000363182,-2.17388,0.82246,0.071736,-18.7561,0.054201,
2,0,0,1,0,52405.3,0.0470408,0.0467546,-6.55457,27,0.00388553,10,-0.000306456,-2.18346,0.715985,0.082404,-21.0762,0.0467546,
2,0,0,1,0,52405.4,0.0395516,0.0391984,-6.38581,27,0.00327905,10,-0.000250313,-2.19478,0.717271,0.0822562,-20.4839,0.0391984,
2,0,0,1,0,52405.5,0.0320643,0.031681,-6.18888,27,0.00268934,10,-0.00019607,-2.20839,0.480575,0.12277,-29.6557,0.031681,
2,0,0,1,0,52405.6,0.0245751,0.0242182,-5.97197,27,0.00211901,10,-0.000144631,-2.22388,0.4522,0.130473,-30.4097,0.0242182,
2,0,0,1,0,52405.7,0.0170735,0.0166917,-5.74459,27,0.00156864,10,-9.58869e-05,-2.24074,0.494511,0.11931,-26.764,0.0166917,
2,0,0,1,0,52405.8,0.00958429,0.00923299,-5.542,27,0.00103943,10,-5.11692e-05,-2.25633,0.529383,0.11145,-24.1106,0.00923299,
2,0,0,1,0,52405.9,0.0020969,0.00175588,-5.42705,27,0.000527302,10,-9.52922e-06,-2.26544,0.97027,0.0608078,-12.8007,0.00175588,
2,0,0,1,0,52405.9,0.000199195,-0.00019553,-5.3686,27,0.000399198,10,1.04972e-06,-2.27014, , , ,-0.00019553,