File: Figure_codes/Fig_3-5/rawdata_trumpetplot_data/after 10th/20221101_1-115_003_TrumpetPlot_ParaChange_from10_every3_13_CV_C01_29.csv
mode,ox/red,error,control changes,counter inc.,time/s,control/V,Ewe/V,<I>/mA,cycle number,(Q-Qo)/C,I Range,P/W,log(|I|),Tafel slope mV/dec,alpha_eff,dI/d(E-IR),E-IR/V,
2,1,0,1,0,58331.6,2.44065e-05,-0.000344411,15.1533,30,0.0000000E+000,10,-5.21896e-06,-1.81949, , , ,-0.000344411,
2,1,0,1,0,58331.7,0.0122624,0.0118195,19.0405,30,0.000263008,10,0.000225049,-1.72032,0.177877,0.33169,244.618,0.0118195,
2,1,0,1,0,58331.7,0.0250636,0.0246981,21.8234,30,0.000591104,10,0.000538996,-1.66108,0.251281,0.234797,199.369,0.0246981,
2,1,0,1,0,58331.7,0.0378704,0.0374623,24.1937,30,0.000959936,10,0.000906351,-1.6163,0.32134,0.183606,173.005,0.0374623,
2,1,0,1,0,58331.7,0.0506632,0.0502794,26.3031,30,0.00136435,10,0.00132251,-1.57999,0.38157,0.154624,158.508,0.0502794,
2,1,0,1,0,58331.7,0.0634672,0.0631008,28.2755,30,0.00180124,10,0.00178421,-1.54859,0.433107,0.136225,150.162,0.06310077,
2,1,0,1,0,58331.7,0.0762628,0.0759094,30.1703,30,0.00226908,10,0.00229021,-1.52042,0.466412,0.126498,148.903,0.0759094,
2,1,0,1,0,58331.7,0.0890668,0.0886894,32.0647,30,0.00276722,10,0.0028438,-1.49397,0.498424,0.118373,148.127,0.0886894,
2,1,0,1,0,58331.8,0.10186,0.101499,33.958,30,0.00329569,10,0.00344671,-1.46906,0.528326,0.111673,147.996,0.101499,
2,1,0,1,0,58331.8,0.114666,0.114245,35.8745,30,0.00385457,10,0.00409849,-1.44521,0.547711,0.107721,150.782,0.114245,
2,1,0,1,0,58331.8,0.127462,0.127008,37.8199,30,0.0044442,10,0.00480344,-1.42228,0.551491,0.106983,158.012,0.127008,
2,1,0,1,0,58331.8,0.140263,0.139863,39.931,30,0.00506641,10,0.00558485,-1.39869,0.544162,0.108424,168.975,0.139863,
2,1,0,1,0,58331.8,0.153064,0.152577,42.1057,30,0.00572277,10,0.00642435,-1.37566,0.560773,0.105212,172.936,0.1525768,
2,1,0,1,0,58331.8,0.165866,0.165453,44.2914,30,0.00641462,10,0.00732816,-1.35368,0.639856,0.0922083,159.243,0.165453,
2,1,0,1,0,58331.9,0.178667,0.178267,46.1917,30,0.00713908,10,0.00823446,-1.33544,0.79796,0.0739386,133.101,0.178267,
2,1,0,1,0,58331.9,0.191463,0.19105,47.6423,30,0.00789066,10,0.00910207,-1.32201,1.23985,0.0475865,88.2963,0.19105,
2,1,0,1,0,58331.9,0.204269,0.203873,48.3796,30,0.00866,10,0.00986329,-1.31534,4.17238,0.0141406,26.6447,0.203873,
2,1,0,1,0,58331.9,0.217062,0.216691,48.3084,30,0.00943467,10,0.010468,-1.31598,-2.98175,-0.019787,-37.2314,0.216691,
2,1,0,1,0,58331.9,0.229866,0.229494,47.4443,30,0.0102017,10,0.0108882,-1.32382,-1.12398,-0.0524921,-97.0096,0.229494,
2,1,0,1,0,58331.9,0.242662,0.242282,45.8557,30,0.0109489,10,0.01111,-1.33861,-0.711523,-0.0829207,-148.17,0.242282,
2,1,0,1,0,58332,0.255466,0.255048,43.7273,30,0.0116659,10,0.0111526,-1.35925,-0.562412,-0.104905,-178.842,0.255048,
2,1,0,1,0,58332,0.268259,0.267891,41.3117,30,0.0123462,10,0.011067,-1.38393,-0.496387,-0.118859,-191.599,0.267891,
2,1,0,1,0,58332,0.281065,0.280714,38.8919,30,0.0129876,10,0.0109175,-1.41014,-0.484736,-0.121716,-184.786,0.280714,
2,1,0,1,0,58332,0.293861,0.2935,36.6108,30,0.0135912,10,0.0107453,-1.43639,-0.49927,-0.118173,-169.234,0.2935,
2,1,0,1,0,58332,0.298983,0.298726,33.6394,30,0.0139134,10,0.010049,-1.47315,0.0478422,1.23322,1460.49,0.298726,
2,1,0,1,0,58332,0.286187,0.285873,19.8202,30,0.014327,10,0.00566605,-1.70289,0.0563377,1.04726,813.046,0.285873,
2,1,0,1,0,58332,0.273386,0.273052,11.1567,30,0.01457,10,0.00304637,-1.95246,0.0439683,1.34188,577.254,0.273052,
2,1,0,1,0,58332.1,0.260585,0.260283,4.77144,30,0.0146944,10,0.00124193,-2.32135,0.0230848,2.5558,435.994,0.260283,
2,1,0,1,0,58332.1,0.247783,0.247424,-0.148121,30,0.0147292,10,-3.66487e-05,-3.82938,-1.26128,-0.0467779,340.716,0.247424,
2,0,0,1,0,58332.1,0.234982,0.234573,-4.05689,30,0.014694,10,-0.000951636,-2.39181,-0.0310364,-1.90099,273.431,0.234573,
2,0,0,1,0,58332.1,0.222187,0.221849,-7.2168,30,0.0146027,10,-0.00160104,-2.14166,-0.0723661,-0.815299,224.301,0.221849,
2,0,0,1,0,58332.1,0.20938,0.209019,-9.85496,30,0.0144653,10,-0.00205987,-2.00635,-0.118531,-0.497758,189.437,0.209019,
2,0,0,1,0,58332.1,0.196587,0.196243,-12.09,30,0.014289,10,-0.00237259,-1.91757,-0.169319,-0.348455,163.596,0.196243,
2,0,0,1,0,58332.2,0.183783,0.183445,-14.057,30,0.0140792,10,-0.00257869,-1.85211,-0.221646,-0.26619,145.629,0.183445,
2,0,0,1,0,58332.2,0.170987,0.170668,-15.8447,30,0.0138396,10,-0.00270419,-1.80012,-0.268872,-0.219435,135.526,0.170668,
2,0,0,1,0,58332.2,0.158183,0.157827,-17.5784,30,0.0135719,10,-0.00277434,-1.75502,-0.292137,-0.20196,138.546,0.157827,
2,0,0,1,0,58332.2,0.145385,0.14503,-19.4225,30,0.013276,10,-0.00281684,-1.71169,-0.289409,-0.203863,154.734,0.14503,
2,0,0,1,0,58332.2,0.132584,0.132241,-21.6236,30,0.012948,10,-0.00285953,-1.66507,-0.25602,-0.23045,194.991,0.132241,
2,0,0,1,0,58332.2,0.119782,0.119447,-24.4486,30,0.01258,10,-0.0029203,-1.61175,-0.227706,-0.259106,247.715,0.119447,
2,0,0,1,0,58332.3,0.106987,0.106667,-27.903,30,0.0121615,10,-0.00297631,-1.55435,-0.22642,-0.260578,283.564,0.106667,
2,0,0,1,0,58332.3,0.0941801,0.093877,-31.5986,30,0.0116851,10,-0.00296638,-1.50033,-0.255269,-0.231129,284.436,0.09387695,
2,0,0,1,0,58332.3,0.0813844,0.0811181,-35.0958,30,0.0111506,10,-0.0028469,-1.45475,-0.307587,-0.191816,262.268,0.0811181,
2,0,0,1,0,58332.3,0.0685832,0.0682766,-38.2317,30,0.010563,10,-0.00261033,-1.41758,-0.392452,-0.150337,223.818,0.0682766,
2,0,0,1,0,58332.3,0.0557876,0.0554817,-40.7987,30,0.00992948,10,-0.00226358,-1.38935,-0.531028,-0.111105,176.585,0.0554817,
2,0,0,1,0,58332.3,0.0429808,0.0426773,-42.8175,30,0.00925972,10,-0.00182733,-1.36838,-0.705459,-0.0836334,139.541,0.0426773,
2,0,0,1,0,58332.3,0.030188,0.0298263,-44.373,30,0.00856137,10,-0.00132348,-1.35288,-0.97812,-0.0603198,104.329,0.0298263,
2,0,0,1,0,58332.4,0.017384,0.0170367,-45.498,30,0.00784163,10,-0.000775136,-1.34201,-1.4281,-0.0413137,73.2929,0.01703671,
2,0,0,1,0,58332.4,0.00458834,0.00422064,-46.2385,30,0.00710702,10,-0.000195156,-1.335,-2.32508,-0.0253754,45.7736,0.00422064,
2,0,0,1,0,58332.4,-0.00821564,-0.0086071,-46.6545,30,0.00636303,10,0.00040156,-1.33111,-6.78687,-0.00869325,15.8155,-0.0086071,
2,0,0,1,0,58332.4,-0.0210196,-0.0214009,-46.6873,30,0.0056158,10,0.00099915,-1.3308,9.50181,0.00620934,-11.3035,-0.0214009,
2,0,0,1,0,58332.4,-0.0338153,-0.034234,-46.4091,30,0.00487069,10,0.00158877,-1.3334,3.67827,0.0160402,-29.0379,-0.034234,
2,0,0,1,0,58332.4,-0.0466193,-0.0469928,-45.9463,30,0.00413167,10,0.00215915,-1.33775,2.59239,0.0227589,-40.8048,-0.0469928,
2,0,0,1,0,58332.5,-0.0594121,-0.0598025,-45.3963,30,0.00340083,10,0.00271481,-1.34298,2.51379,0.0234706,-41.5971,-0.0598025,
2,0,0,1,0,58332.5,-0.0722189,-0.0726037,-44.9065,30,0.00267842,10,0.00326038,-1.34769,2.93205,0.0201224,-35.2766,-0.0726037,
2,0,0,1,0,58332.5,-0.0850146,-0.0853954,-44.5092,30,0.00196326,10,0.00380088,-1.35155,4.08894,0.0144292,-25.0785,-0.0853954,
2,0,0,1,0,58332.5,-0.0978158,-0.0982518,-44.2829,30,0.00125309,10,0.00435087,-1.35376,9.45971,0.00623698,-10.7842,-0.0982518,
2,0,0,1,0,58332.5,-0.110611,-0.111007,-44.2256,30,0.000545198,10,0.00490937,-1.35433,-38.3242,-0.0015395,2.65879,-0.111007,
2,0,0,1,0,58332.5,-0.123418,-0.123848,-44.3669,30,-0.000163394,10,0.00549475,-1.35294,-5.46314,-0.0107997,18.709,-0.123848,
2,0,0,1,0,58332.6,-0.136214,-0.136591,-44.6725,30,-0.000875609,10,0.00610185,-1.34996,-3.42413,-0.0172307,30.06,-0.136591,
2,0,0,1,0,58332.6,-0.149015,-0.149436,-45.1354,30,-0.00159412,10,0.00674483,-1.34548,-2.631,-0.0224249,39.5117,-0.149436,
2,0,0,1,0,58332.6,-0.161816,-0.162234,-45.6752,30,-0.00232066,10,0.00741006,-1.34032,-2.48938,-0.0237007,42.2421,-0.162234,
2,0,0,1,0,58332.6,-0.174615,-0.174994,-46.2138,30,-0.00305586,10,0.00808717,-1.33523,-2.64171,-0.022334,40.2654,-0.1749945,
2,0,0,1,0,58332.6,-0.187419,-0.187777,-46.6799,30,-0.00379916,10,0.0087654,-1.33087,-3.22094,-0.0183176,33.3609,-0.187777,
2,0,0,1,0,58332.6,-0.199647,-0.200012,-47.0363,30,-0.00451639,10,0.00940784,-1.32757,0.251376,0.234708,-419.131,-0.200012,
2,0,0,1,1,58332.6,-0.192535,-0.192977,-36.1094,30,-0.0049319,10,0.00696828,-1.44238,-0.0754283,-0.782199,1127.34,-0.192977,
2,0,0,1,1,58332.7,-0.179739,-0.180162,-25.3293,30,-0.00541631,10,0.00456337,-1.59638,-0.0834328,-0.707156,701.14,-0.180162,
2,0,0,1,1,58332.7,-0.166932,-0.167367,-17.4896,30,-0.00575562,10,0.00292719,-1.75722,-0.0734308,-0.803477,546.97,-0.167367,
2,0,0,1,1,58332.7,-0.154139,-0.154583,-11.1221,30,-0.00598247,10,0.00171929,-1.95381,-0.0547822,-1.07699,460.984,-0.154583,
2,0,0,1,1,58332.7,-0.141335,-0.141798,-5.64471,30,-0.00611497,10,0.000800411,-2.24836,-0.0304592,-1.93702,401.067,-0.141798,
2,0,0,1,1,58332.7,-0.12854,-0.128981,-0.79493,30,-0.00616516,10,0.000102531,-3.09967,-0.0381504,-1.54651,359.359,-0.128981,
2,1,0,1,1,58332.7,-0.115736,-0.116213,3.59592,30,-0.00614169,10,-0.000417892,-2.44419,0.021657,2.72429,328.289,-0.116213,
2,1,0,1,1,58332.8,-0.102932,-0.103412,7.63076,30,-0.00605116,10,-0.00078911,-2.11743,0.05661,1.04222,301.543,-0.103412,
2,1,0,1,1,58332.8,-0.0901362,-0.0906052,11.3593,30,-0.00589852,10,-0.00102921,-1.94465,0.0915039,0.644781,282.574,-0.0906052,
2,1,0,1,1,58332.8,-0.0773322,-0.0777637,14.834,30,-0.00568827,10,-0.00115355,-1.82874,0.131085,0.450088,258.846,-0.0777637,
2,1,0,1,1,58332.8,-0.0645393,-0.0649995,18.0245,30,-0.00542465,10,-0.00117158,-1.74414,0.171558,0.343906,241.044,-0.0649995,
2,1,0,1,1,58332.8,-0.0517325,-0.0521432,20.9963,30,-0.0051118,10,-0.00109482,-1.67786,0.217157,0.271693,221.906,-0.0521432,
2,1,0,1,1,58332.8,-0.0389369,-0.0393812,23.7139,30,-0.00475354,10,-0.000933881,-1.625,0.267298,0.220727,203.799,-0.0393812,
2,1,0,1,1,58332.9,-0.0261357,-0.0265927,26.1928,30,-0.00435366,10,-0.000696537,-1.58182,0.32607,0.180943,184.666,-0.0265927,
2,1,0,1,1,58332.9,-0.01334,-0.013767,28.4253,30,-0.00391607,10,-0.000391332,-1.5463,0.39637,0.148851,164.948,-0.013767,
2,1,0,1,1,58332.9,-0.000774628,-0.00118584,30.4015,30,-0.00345372,10,-3.60515e-05,-1.5171, , , ,-0.001185844,
2,1,0,0,1,58332.9,-0.000125413,-0.000478022,30.5058,30,-0.00342937,10,-1.45825e-05,-1.51562, , , ,-0.000478022,