File: Figure_codes/Fig_3-5/rawdata_trumpetplot_data/after 10th/20221101_1-115_003_TrumpetPlot_ParaChange_from10_every3_03_CV_C01_31.csv
mode,ox/red,error,control changes,counter inc.,time/s,control/V,Ewe/V,<I>/mA,cycle number,(Q-Qo)/C,I Range,P/W,log(|I|),Tafel slope mV/dec,alpha_eff,dI/d(E-IR),E-IR/V,
2,0,0,1,0,62014.1,2.44065e-05,-0.000401673,-0.112751,32,0.0000000E+000,10,4.52889e-08,-3.94788, , , ,-0.000401673,
2,1,0,1,0,62015.5,0.00729041,0.00693923,0.196522,32,0.000236685,10,1.36371e-06,-3.70659,0.0807801,0.730378,5.55434,0.00693923,
2,1,0,1,0,62017,0.0147815,0.0144056,0.227821,32,0.000573341,10,3.2819e-06,-3.64241,0.150904,0.390977,3.47918,0.0144056,
2,1,0,1,0,62018.5,0.0222725,0.0218744,0.25309,32,0.000951794,10,5.53619e-06,-3.59672,0.184309,0.320115,3.15823,0.0218744,
2,1,0,1,0,62020,0.0297635,0.0294201,0.278709,32,0.00136822,10,8.19964e-06,-3.55485,0.195442,0.30188,3.27641,0.02942007,
2,1,0,1,0,62021.5,0.0372545,0.0368729,0.303965,32,0.00182294,10,1.12081e-05,-3.51718,0.201637,0.292605,3.47845,0.03687286,
2,1,0,1,0,62023,0.0447456,0.0443466,0.328865,32,0.00231446,10,1.4584e-05,-3.48298,0.243557,0.242243,3.09717,0.0443466,
2,1,0,1,0,62024.5,0.0522367,0.0518566,0.349825,32,0.00284012,10,1.81407e-05,-3.45615,0.227005,0.259907,3.55274,0.0518566,
2,1,0,1,0,62026,0.0597277,0.0593535,0.3719,32,0.00339821,10,2.20736e-05,-3.42957,0.317087,0.186069,2.68553,0.0593535,
2,1,0,1,0,62027.5,0.0672187,0.0668797,0.38963,32,0.00398498,10,2.60584e-05,-3.40935,0.377867,0.15614,2.36172,0.0668797,
2,1,0,1,0,62029,0.0747092,0.0743506,0.402861,32,0.00459619,10,2.99529e-05,-3.39485,0.643744,0.0916513,1.44086,0.0743506,
2,1,0,0,0,62030.5,0.0822001,0.0818435,0.415673,32,0.00522905,10,3.40201e-05,-3.38125,0.435122,0.135594,2.20993,0.0818435,
2,1,0,1,0,62032,0.0896911,0.0893554,0.43679,32,0.00588594,10,3.90295e-05,-3.35973,0.312533,0.18878,3.226,0.0893554,
2,1,0,0,0,62033.5,0.097182,0.0968471,0.466305,32,0.00657943,10,4.51603e-05,-3.33133,0.194212,0.303792,5.5239,0.0968471,
2,1,0,1,0,62035,0.104673,0.104324,0.505849,32,0.00732473,10,5.27722e-05,-3.29598,0.206668,0.285481,5.62571,0.104324,
2,1,0,0,0,62036.5,0.112164,0.11178,0.540059,32,0.00812699,10,6.03677e-05,-3.26756,0.365425,0.161456,3.39061,0.11178,
2,1,0,1,0,62038,0.119655,0.119281,0.562182,32,0.0089723,10,6.70577e-05,-3.25012,0.695939,0.0847776,1.86181,0.119281,
2,1,0,0,0,62039.5,0.127146,0.12677,0.574196,32,0.00984424,10,7.27906e-05,-3.24094,1.35237,0.0436271,0.978821,0.12677,
2,1,0,1,0,62041,0.134637,0.134282,0.566777,32,0.0107227,10,7.61077e-05,-3.24659,-0.316333,-0.186512,-4.1127,0.134282,
2,1,0,1,0,62042.5,0.142127,0.141759,0.504997,32,0.0115497,10,7.15879e-05,-3.29671,-0.0992728,-0.594322,-11.6405,0.141759,
2,1,0,1,0,62044,0.149618,0.149235,0.409028,32,0.0122502,10,6.10414e-05,-3.38825,-0.0844911,-0.698298,-11.176,0.149235,
2,1,0,1,0,62045.5,0.157109,0.156785,0.34852,32,0.0128288,10,5.46428e-05,-3.45777,-0.145038,-0.406791,-5.54112,0.156785,
2,1,0,1,0,62047,0.1646,0.164253,0.321714,32,0.0133449,10,5.28424e-05,-3.49253,-0.280673,-0.210209,-2.62799,0.164253,
2,1,0,1,0,62048.5,0.172091,0.171753,0.306238,32,0.0138312,10,5.25973e-05,-3.51394,-0.595712,-0.0990412,-1.18961,0.171753,
2,1,0,1,0,62050,0.179582,0.179241,0.299284,32,0.0143021,10,5.3644e-05,-3.52392,-1.06264,-0.0555223,-0.650359,0.179241,
2,1,0,1,0,62051.5,0.187074,0.186701,0.295747,32,0.014764,10,5.52162e-05,-3.52908,-1.83284,-0.0321905,-0.369102,0.186701,
2,1,0,1,0,62053,0.194564,0.194179,0.290902,32,0.0152197,10,5.6487e-05,-3.53625,-3.92298,-0.0150396,-0.171299,0.194179,
2,1,0,1,0,62054.5,0.202056,0.201716,0.289488,32,0.0156708,10,5.83944e-05,-3.53837,-1.68567,-0.0350009,-0.393607,0.201716,
2,1,0,1,0,62056,0.209547,0.20921,0.287483,32,0.0161189,10,6.01445e-05,-3.54139,-1.72835,-0.0341365,-0.382569,0.20921,
2,1,0,1,0,62057.5,0.217038,0.21666,0.283896,32,0.0165638,10,6.15088e-05,-3.54684,-1.5171,-0.0388901,-0.433345,0.21666,
2,1,0,1,0,62059,0.224529,0.224189,0.283859,32,0.0170059,10,6.3638e-05,-3.5469,-1.88035,-0.0313771,-0.34677,0.224189,
2,1,0,1,0,62060.5,0.232019,0.231652,0.281156,32,0.0174456,10,6.51306e-05,-3.55105,-9.6304,-0.00612643,-0.0672499,0.231652,
2,1,0,0,0,62062,0.23951,0.239183,0.280803,32,0.0178824,10,6.71634e-05,-3.5516,-8.26245,-0.00714074,-0.0779314,0.239183,
2,1,0,1,0,62063.5,0.247001,0.246622,0.279113,32,0.0183172,10,6.88353e-05,-3.55422,-2.13428,-0.0276439,-0.300412,0.246622,
2,1,0,0,0,62065,0.254492,0.254154,0.277309,32,0.0187496,10,7.04793e-05,-3.55704,-1.64456,-0.0358759,-0.388129,0.254154,
2,1,0,1,0,62066.4,0.261983,0.261605,0.274922,32,0.0191792,10,7.1921e-05,-3.56079,-2.81226,-0.0209796,-0.225106,0.261605,
2,1,0,0,0,62067.9,0.269474,0.269097,0.273655,32,0.0196065,10,7.36398e-05,-3.5628,6.28569,0.00938641,0.100375,0.269097,
2,1,0,1,0,62069.4,0.276965,0.276619,0.272231,32,0.0200313,10,7.53043e-05,-3.56506,-3.97771,-0.0148326,-0.157783,0.276619,
2,1,0,0,0,62070.9,0.284456,0.284163,0.271117,32,0.0204537,10,7.70412e-05,-3.56684,-1.81662,-0.032478,-0.342833,0.284163,
2,1,0,1,0,62072.4,0.291947,0.2916,0.268824,32,0.0208732,10,7.83892e-05,-3.57053,6.5414,0.00901948,0.0947067,0.2916,
2,1,0,1,0,62073.9,0.299437,0.299095,0.265874,32,0.0212899,10,7.95216e-05,-3.57532,-0.00300033,-19.6645,-112.199,0.299095,
2,0,0,1,0,62075.3,0.293744,0.293408,-0.014967,32,0.0213394,10,-4.39145e-06,-4.82486,-0.00264136,-22.337,5.78705,0.2934078,
2,0,0,1,0,62076.8,0.286253,0.285908,-0.0457541,32,0.0212772,10,-1.30814e-05,-4.33957,-0.0310566,-1.89976,3.37941,0.285908,
2,0,0,0,0,62078.3,0.278763,0.278424,-0.0665458,32,0.0211768,10,-1.85279e-05,-4.17688,-0.0632452,-0.932877,2.39793,0.2784237,
2,0,0,1,0,62079.8,0.271272,0.270904,-0.0833622,32,0.0210481,10,-2.25832e-05,-4.07903,-0.102213,-0.577224,1.86876,0.270904,
2,0,0,0,0,62081.3,0.263781,0.263392,-0.0970914,32,0.0208965,10,-2.55731e-05,-4.01282,-0.137599,-0.428783,1.62933,0.263392,
2,0,0,1,0,62082.8,0.25629,0.255913,-0.109989,32,0.0207254,10,-2.81476e-05,-3.95865,-0.182849,-0.322671,1.37301,0.255913,
2,0,0,0,0,62084.3,0.248799,0.248498,-0.119566,32,0.0205372,10,-2.97119e-05,-3.92239,-0.237524,-0.248396,1.16451,0.248498,
2,0,0,1,0,62085.8,0.241308,0.24098,-0.129017,32,0.0203335,10,-3.10904e-05,-3.88935,-0.206896,-0.285168,1.45228,0.24098,
2,0,0,0,0,62087.3,0.233817,0.233486,-0.13937,32,0.020116,10,-3.25409e-05,-3.85583,-0.283558,-0.20807,1.13089,0.233486,
2,0,0,1,0,62088.8,0.226326,0.225988,-0.147672,32,0.0198849,10,-3.33721e-05,-3.8307,-0.285545,-0.206622,1.18618,0.225988,
2,0,0,0,0,62090.3,0.218835,0.218475,-0.156711,32,0.0196407,10,-3.42373e-05,-3.8049,-0.402505,-0.146582,0.893866,0.2184747,
2,0,0,1,0,62091.8,0.211344,0.21099,-0.164967,32,0.0193836,10,-3.48065e-05,-3.7826,-0.40382,-0.146105,0.944043,0.21099,
2,0,0,1,0,62093.3,0.203854,0.203465,-0.173292,32,0.0191132,10,-3.52588e-05,-3.76122,-0.372383,-0.158439,1.07587,0.203465,
2,0,0,1,0,62094.8,0.196363,0.196021,-0.182267,32,0.0188302,10,-3.57282e-05,-3.73929,-0.332925,-0.177217,1.26141,0.196021,
2,0,0,1,0,62096.3,0.188871,0.188497,-0.191858,32,0.0185328,10,-3.61647e-05,-3.71702,-0.263151,-0.224206,1.67359,0.188497,
2,0,0,1,0,62097.8,0.181381,0.181039,-0.202328,32,0.0182201,10,-3.66293e-05,-3.69394,-0.298032,-0.197965,1.56836,0.181039,
2,0,0,1,0,62099.3,0.173889,0.173501,-0.214743,32,0.0178901,10,-3.72581e-05,-3.66808,-0.292178,-0.201932,1.69664,0.173501,
2,0,0,1,0,62100.8,0.166398,0.166028,-0.228852,32,0.0175402,10,-3.79958e-05,-3.64045,-0.255631,-0.230802,2.08264,0.166028,
2,0,0,1,0,62102.3,0.158907,0.158518,-0.247312,32,0.0171653,10,-3.92035e-05,-3.60675,-0.219198,-0.269163,2.61252,0.158518,
2,0,0,1,0,62103.8,0.151416,0.151058,-0.275886,32,0.0167564,10,-4.16749e-05,-3.55927,-0.141537,-0.416854,4.5013,0.151058,
2,0,0,1,0,62105.3,0.143925,0.143583,-0.319744,32,0.016295,10,-4.59099e-05,-3.4952,-0.0927799,-0.635914,7.93907,0.143583,
2,0,0,1,0,62106.8,0.136434,0.136072,-0.389976,32,0.0157479,10,-5.3065e-05,-3.40896,-0.0837669,-0.704335,10.7046,0.136072,
2,0,0,1,0,62108.3,0.128943,0.128547,-0.471687,32,0.0150847,10,-6.06337e-05,-3.32635,-0.102626,-0.574906,10.5549,0.128547,
2,0,0,0,0,62109.8,0.121453,0.121107,-0.540759,32,0.0143044,10,-6.54897e-05,-3.267,-0.18427,-0.320183,6.7249,0.121107,
2,0,0,1,0,62111.3,0.113962,0.113623,-0.572328,32,0.0134461,10,-6.50295e-05,-3.24236,-0.690721,-0.085418,1.90581,0.113623,
2,0,0,0,0,62112.8,0.106471,0.106103,-0.577643,32,0.0125621,10,-6.12899e-05,-3.23834,24.2918,0.00242881,-0.0548019,0.106103,
2,0,0,1,0,62114.3,0.0989798,0.0986223,-0.572197,32,0.0116808,10,-5.64314e-05,-3.24245,4.08218,0.0144531,-0.321911,0.0986223,
2,0,0,0,0,62115.8,0.0914889,0.0911252,-0.563228,32,0.0108118,10,-5.13242e-05,-3.24932,0.888371,0.0664137,-1.45672,0.09112519,
2,0,0,1,0,62117.3,0.083998,0.083609,-0.548671,32,0.00996028,10,-4.58739e-05,-3.26069,0.524989,0.112383,-2.40223,0.08360903,
2,0,0,0,0,62118.8,0.076507,0.0760992,-0.533654,32,0.00913117,10,-4.06106e-05,-3.27274,0.609941,0.0967307,-2.0128,0.0760992,
2,0,0,1,0,62120.3,0.069016,0.0686721,-0.515082,32,0.00832633,10,-3.53718e-05,-3.28812,0.538972,0.109468,-2.21139,0.0686721,
2,0,0,0,0,62121.8,0.0615251,0.061209,-0.501528,32,0.00754483,10,-3.0698e-05,-3.2997,0.510273,0.115624,-2.26631,0.061209,
2,0,0,1,0,62123.3,0.0540342,0.0537512,-0.485361,32,0.00678686,10,-2.60887e-05,-3.31394,0.588688,0.100223,-1.898,0.0537512,
2,0,0,1,0,62124.7,0.0465436,0.0461759,-0.469173,32,0.00605288,10,-2.16645e-05,-3.32867,0.486645,0.121238,-2.22063,0.0461759,
2,0,0,1,0,62126.2,0.0390526,0.0386555,-0.453277,32,0.00534387,10,-1.75216e-05,-3.34364,0.414361,0.142388,-2.50939,0.0386555,
2,0,0,1,0,62127.7,0.0315615,0.0311975,-0.437592,32,0.0046593,10,-1.36518e-05,-3.35893,0.492516,0.119793,-2.04557,0.0311975,
2,0,0,1,0,62129.2,0.0240706,0.0237101,-0.423052,32,0.00399714,10,-1.00306e-05,-3.37361,0.632633,0.093261,-1.54542,0.0237101,
2,0,0,1,0,62130.7,0.0165795,0.0162013,-0.413647,32,0.00335296,10,-6.70163e-06,-3.38337,1.93929,0.0304234,-0.491414,0.0162013,
2,0,0,1,0,62132.2,0.00908846,0.00872736,-0.408944,32,0.00272021,10,-3.569e-06,-3.38834,3.65647,0.0161358,-0.257404,0.00872736,
2,0,0,1,0,62133.7,0.00159739,0.00116857,-0.413708,32,0.00208927,10,-4.83446e-07,-3.38331, , , ,0.00116857,
2,0,0,0,0,62134,0.000199195,-0.000203165,-0.411188,32,0.00197082,10,8.35388e-08,-3.38596, , , ,-0.0002031647,