File: Figure_codes/Fig_3-5/rawdata_trumpetplot_data/after 10th/20221101_1-115_003_TrumpetPlot_ParaChange_from10_every3_12_CV_C01_4.csv
mode,ox/red,error,control changes,counter inc.,time/s,control/V,Ewe/V,<I>/mA,cycle number,(Q-Qo)/C,I Range,P/W,log(|I|),Tafel slope mV/dec,alpha_eff,dI/d(E-IR),E-IR/V,
2,1,0,1,0,9077.04,2.44065e-05,-0.000153538,19.035,5,0.0000000E+000,10,-2.92259e-06,-1.72045, , , ,-0.000153538,
2,1,0,1,0,9077.06,0.0104008,0.0100847,22.9099,5,0.00036456,10,0.00023104,-1.63998,0.199621,0.29556,262.563,0.0100847,
2,1,0,1,0,9077.08,0.0212099,0.020887,25.2212,5,0.000799303,10,0.000526796,-1.59823,0.325722,0.181136,177.832,0.020887,
2,1,0,1,0,9077.1,0.0320052,0.0316608,26.9137,5,0.00126928,10,0.000852107,-1.57003,0.427848,0.1379,144.725,0.0316608,
2,1,0,1,0,9077.11,0.0428033,0.0424695,28.4178,5,0.00176754,10,0.00120689,-1.54641,0.479464,0.123054,136.464,0.0424695,
2,1,0,1,0,9077.13,0.0535986,0.0532379,29.9102,5,0.00229257,10,0.00159236,-1.52418,0.479336,0.123087,143.736,0.0532379,
2,1,0,1,0,9077.15,0.0644077,0.0640986,31.5361,5,0.00284561,10,0.00202142,-1.50119,0.467985,0.126072,155.156,0.0640986,
2,1,0,1,0,9077.17,0.075203,0.0748458,33.2649,5,0.00342877,10,0.00248974,-1.47801,0.451966,0.130541,169.541,0.0748458,
2,1,0,1,0,9077.19,0.0860011,0.0856927,35.1364,5,0.00404445,10,0.00301094,-1.45424,0.467569,0.126185,172.998,0.0856927,
2,1,0,1,0,9077.2,0.0968075,0.0964187,37.0264,5,0.00469385,10,0.00357004,-1.43149,0.469118,0.125768,181.78,0.0964187,
2,1,0,1,0,9077.22,0.107606,0.107254,39.0386,5,0.00537868,10,0.00418705,-1.40851,0.483073,0.122135,186.013,0.107254,
2,1,0,1,0,9077.24,0.118401,0.118073,41.0532,5,0.00609942,10,0.00484729,-1.38665,0.482488,0.122283,196.01,0.118073,
2,1,0,1,0,9077.26,0.129207,0.128863,43.3001,5,0.00685835,10,0.00557977,-1.36351,0.44933,0.131306,222.024,0.128863,
2,1,0,1,0,9077.28,0.140005,0.139693,45.8702,5,0.00766079,10,0.00640774,-1.33847,0.418623,0.140938,252.428,0.139693,
2,1,0,1,0,9077.29,0.150803,0.150463,48.6299,5,0.00851167,10,0.00731703,-1.3131,0.443926,0.132905,252.188,0.150463,
2,1,0,1,0,9077.31,0.161604,0.16125,51.2543,5,0.00941143,10,0.00826475,-1.29027,0.524297,0.112532,224.897,0.16125,
2,1,0,1,0,9077.33,0.172405,0.172065,53.4527,5,0.010355,10,0.00919734,-1.27203,0.730407,0.0807769,168.205,0.172065,
2,1,0,1,0,9077.35,0.183203,0.182881,54.7029,5,0.0113305,10,0.0100041,-1.26199,3.18594,0.0185189,39.3854,0.1828811,
2,1,0,1,0,9077.37,0.194001,0.193687,53.9661,5,0.0123122,10,0.0104525,-1.26788,-0.630391,-0.0935928,-196.006,0.193687,
2,1,0,1,0,9077.38,0.204808,0.204495,50.3508,5,0.0132551,10,0.0102965,-1.29799,-0.251684,-0.234421,-458.129,0.204495,
2,1,0,1,0,9077.4,0.215603,0.215385,44.4184,5,0.0141097,10,0.00956705,-1.35244,-0.172994,-0.341051,-590.051,0.215385,
2,1,0,1,0,9077.42,0.226401,0.22608,38.0904,5,0.0148508,10,0.00861148,-1.41918,-0.161145,-0.36613,-545.519,0.22608,
2,1,0,1,0,9077.44,0.237207,0.236901,32.9733,5,0.0154877,10,0.00781141,-1.48184,-0.188431,-0.313111,-404.307,0.2369014,
2,1,0,1,0,9077.46,0.248005,0.247733,29.3457,5,0.0160461,10,0.0072699,-1.53246,-0.24797,-0.237932,-273.422,0.247733,
2,1,0,1,0,9077.47,0.258801,0.258508,26.8865,5,0.0165507,10,0.00695039,-1.57047,-0.33227,-0.177566,-186.884,0.258508,
2,1,0,1,0,9077.49,0.26961,0.269284,25.2185,5,0.0170186,10,0.00679095,-1.59828,-0.435721,-0.135408,-133.471,0.2692841,
2,1,0,1,0,9077.51,0.280405,0.280144,24.0211,5,0.0174611,10,0.00672936,-1.61941,-0.57915,-0.101873,-95.5893,0.280144,
2,1,0,1,0,9077.53,0.291203,0.29089,23.1137,5,0.0178848,10,0.00672354,-1.63613,-0.687373,-0.0858341,-77.4661,0.29089,
2,1,0,0,0,9077.54,0.300012,0.29967,22.5001,5,0.0182199,10,0.00674261,-1.64782,0.00154912,38.086,27631.3,0.29967,
2,1,0,1,0,9077.56,0.290843,0.290607,6.26531,5,0.0184186,10,0.00182074,-2.20306,0.0110872,5.32145,1156.15,0.290607,
2,0,0,1,0,9077.58,0.280047,0.279761,-2.21335,5,0.0184452,10,-0.000619209,-2.65495,-0.0130445,-4.52299,553.476,0.2797609,
2,0,0,1,0,9077.59,0.269244,0.268937,-6.62607,5,0.0183616,10,-0.001782,-2.17874,-0.0469723,-1.25606,310.188,0.268937,
2,0,0,1,0,9077.61,0.258443,0.258153,-9.2226,5,0.018217,10,-0.00238084,-2.03515,-0.107686,-0.547891,194.923,0.258153,
2,0,0,1,0,9077.63,0.247645,0.24732,-10.9652,5,0.018034,10,-0.00271191,-1.95998,-0.181675,-0.324756,138.44,0.24732,
2,0,0,1,0,9077.65,0.236849,0.236562,-12.2678,5,0.0178242,10,-0.00290209,-1.91123,-0.262353,-0.224887,107.454,0.236562,
2,0,0,1,0,9077.67,0.22604,0.225767,-13.3194,5,0.0175935,10,-0.00300707,-1.87552,-0.344517,-0.171254,88.9142,0.225767,
2,0,0,1,0,9077.68,0.215245,0.214965,-14.2324,5,0.0173452,10,-0.00305947,-1.84672,-0.393883,-0.149791,83.2019,0.214965,
2,0,0,1,0,9077.7,0.204447,0.204117,-15.1083,5,0.0170811,10,-0.00308385,-1.82079,-0.440741,-0.133865,78.8407,0.204117,
2,0,0,1,0,9077.72,0.19364,0.193373,-15.9651,5,0.0168016,10,-0.00308721,-1.79683,-0.454539,-0.129802,80.7824,0.193373,
2,0,0,1,0,9077.74,0.182842,0.182544,-16.852,5,0.0165063,10,-0.00307623,-1.77335,-0.433596,-0.136071,89.5572,0.182544,
2,0,0,1,0,9077.76,0.172047,0.17179,-17.9116,5,0.0161936,10,-0.00307703,-1.74687,-0.374047,-0.157734,110.444,0.17179,
2,0,0,1,0,9077.77,0.161241,0.160931,-19.2829,5,0.0158594,10,-0.00310322,-1.71483,-0.306685,-0.19238,144.984,0.160931,
2,0,0,1,0,9077.79,0.150443,0.150135,-21.1341,5,0.0154966,10,-0.00317297,-1.67502,-0.236684,-0.249277,206.154,0.1501347,
2,0,0,1,0,9077.81,0.139645,0.13935,-23.7842,5,0.0150933,10,-0.00331434,-1.62371,-0.18793,-0.313946,292.564,0.13935,
2,0,0,1,0,9077.83,0.128849,0.128586,-27.5001,5,0.014633,10,-0.00353613,-1.56067,-0.162395,-0.363312,390.781,0.128586,
2,0,0,1,0,9077.85,0.118043,0.117792,-32.1289,5,0.0140967,10,-0.00378453,-1.4931,-0.164282,-0.359138,450.088,0.117792,
2,0,0,1,0,9077.86,0.107245,0.107043,-36.9656,5,0.0134735,10,-0.00395691,-1.4322,-0.191439,-0.308192,444.539,0.107043,
2,0,0,1,0,9077.88,0.0964468,0.096178,-41.6074,5,0.012765,10,-0.00400172,-1.38083,-0.241737,-0.244067,395.334,0.096178,
2,0,0,1,0,9077.9,0.0856404,0.0854594,-45.4793,5,0.0119795,10,-0.00388664,-1.34219,-0.326994,-0.180431,319.531,0.0854594,
2,0,0,1,0,9077.92,0.0748451,0.0746231,-48.4898,5,0.0111322,10,-0.00361846,-1.31435,-0.478854,-0.123211,232.51,0.0746231,
2,0,0,1,0,9077.94,0.0640471,0.0637063,-50.3636,5,0.0102404,10,-0.00320848,-1.29788,-1.02046,-0.0578172,113.336,0.0637063,
2,0,0,1,0,9077.95,0.0532407,0.052924,-50.9715,5,0.00932672,10,-0.00269762,-1.29267,-26.2954,-0.00224374,4.45363,0.052924,
2,0,0,1,0,9077.97,0.0424426,0.0421864,-50.5732,5,0.00841179,10,-0.0021335,-1.29608,1.85309,0.0318387,-62.7851,0.0421864,
2,0,0,1,0,9077.99,0.0316473,0.0313405,-49.7023,5,0.00750896,10,-0.0015577,-1.30362,1.27741,0.0461871,-89.5734,0.0313405,
2,0,0,1,0,9078.01,0.0208437,0.0205594,-48.6713,5,0.00662357,10,-0.00100065,-1.31273,1.1013,0.0535732,-101.744,0.0205594,
2,0,0,1,0,9078.03,0.0100429,0.00973263,-47.5291,5,0.00575756,10,-0.000462583,-1.32304,0.948613,0.0621961,-115.308,0.009732631,
2,0,0,1,0,9078.04,-0.000755207,-0.00110896,-46.2197,5,0.00491369,10,5.1256e-05,-1.33517,0.781217,0.0755232,-136.025,-0.00110896,
2,0,0,1,0,9078.06,-0.0115505,-0.0119177,-44.4676,5,0.0040971,10,0.000529952,-1.35196,0.563121,0.104773,-181.693,-0.0119177,
2,0,0,1,0,9078.08,-0.0223597,-0.0227148,-42.4193,5,0.00331506,10,0.000963543,-1.37244,0.499041,0.118227,-195.651,-0.0227148,
2,0,0,1,0,9078.1,-0.033155,-0.0335065,-40.3778,5,0.00257047,10,0.00135292,-1.39386,0.545556,0.108147,-170.593,-0.0335065,
2,0,0,1,0,9078.12,-0.043953,-0.0443184,-38.7726,5,0.00185912,10,0.00171834,-1.41148,0.714748,0.0825466,-125.072,-0.04431843,
2,0,0,1,0,9078.13,-0.0547594,-0.0551335,-37.7426,5,0.00117163,10,0.00208088,-1.42317,1.22703,0.0480834,-70.8938,-0.0551335,
2,0,0,1,0,9078.15,-0.0655575,-0.0659062,-37.2154,5,0.000497791,10,0.00245272,-1.42928,3.66413,0.016102,-23.4209,-0.0659062,
2,0,0,1,0,9078.17,-0.0763528,-0.0767361,-37.1512,5,-0.000171077,10,0.00285084,-1.43003,-7.93897,-0.00743169,10.7892,-0.07673613,
2,0,0,1,0,9078.19,-0.0871592,-0.087512,-37.4309,5,-0.00084196,10,0.00327566,-1.42677,-2.22528,-0.0265135,38.7694,-0.087512,
2,0,0,1,0,9078.21,-0.0979573,-0.0982921,-37.9965,5,-0.00152058,10,0.00373476,-1.42026,-1.70547,-0.0345946,51.1598,-0.0982921,
2,0,0,1,1,9078.22,-0.0955546,-0.0959613,-27.2547,5,-0.00189474,10,0.0026154,-1.56456,-0.0304283,-1.93898,2067.04,-0.09596131,
2,0,0,1,1,9078.24,-0.0847538,-0.085178,-10.7211,5,-0.00222287,10,0.000913198,-1.96976,-0.019068,-3.09419,1225.01,-0.085178,
2,0,0,1,1,9078.25,-0.0739557,-0.0743799,0.18841,5,-0.00231083,10,-1.40139e-05,-3.7249,-0.434525,-0.135781,851.106,-0.0743799,
2,1,0,1,1,9078.27,-0.0631604,-0.0636348,8.00132,5,-0.00223262,10,-0.000509162,-2.09684,0.0275325,2.14292,620.863,-0.0636348,
2,1,0,1,1,9078.29,-0.0523512,-0.0528027,13.8538,5,-0.00203301,10,-0.000731521,-1.85843,0.0667195,0.8843,468.13,-0.0528027,
2,1,0,1,1,9078.31,-0.0415559,-0.0419474,18.2163,5,-0.00174218,10,-0.000764128,-1.73954,0.120827,0.4883,343.701,-0.0419474,
2,1,0,1,1,9078.33,-0.0307579,-0.0311757,21.3926,5,-0.00138396,10,-0.000666931,-1.66974,0.194246,0.303739,252.363,-0.0311757,
2,1,0,1,1,9078.34,-0.0199515,-0.0203554,23.7175,5,-0.000976587,10,-0.000482779,-1.62493,0.296685,0.198864,183.458,-0.0203554,
2,1,0,1,1,9078.36,-0.0091534,-0.00951163,25.3682,5,-0.000533752,10,-0.000241293,-1.59571,0.456121,0.129352,127.798,-0.00951163,
2,1,0,0,1,9078.38,-7.54729e-05,-0.000325324,26.2966,5,-0.000142689,10,-8.55489e-06,-1.5801, , , ,-0.000325324,