File: Figure_codes/Fig_3-5/rawdata_trumpetplot_data/after 10th/20221101_1-115_003_TrumpetPlot_ParaChange_from10_every3_03_CV_C01_27.csv
mode,ox/red,error,control changes,counter inc.,time/s,control/V,Ewe/V,<I>/mA,cycle number,(Q-Qo)/C,I Range,P/W,log(|I|),Tafel slope mV/dec,alpha_eff,dI/d(E-IR),E-IR/V,
2,0,0,1,0,54133.5,2.44065e-05,-0.00042076,-0.0917617,28,0.0000000E+000,10,3.86096e-08,-4.03734, , , ,-0.00042076,
2,1,0,1,0,54135,0.00729041,0.00696998,0.19751,28,0.000247989,10,1.37664e-06,-3.70441,0.086163,0.684749,5.2647,0.00696998,
2,1,0,1,0,54136.5,0.0147815,0.0144165,0.228439,28,0.000590872,10,3.29328e-06,-3.64123,0.144132,0.409347,3.65006,0.0144165,
2,1,0,1,0,54138,0.0222725,0.021904,0.255333,28,0.000975403,10,5.59281e-06,-3.59289,0.168738,0.349654,3.47861,0.02190396,
2,1,0,1,0,54139.5,0.0297635,0.0294371,0.28074,28,0.00139843,10,8.26418e-06,-3.5517,0.194925,0.30268,3.30856,0.0294371,
2,1,0,1,0,54141,0.0372545,0.0368908,0.304806,28,0.00186001,10,1.12445e-05,-3.51598,0.23406,0.252073,3.01686,0.0368908,
2,1,0,1,0,54142.5,0.0447456,0.0443771,0.330674,28,0.00235924,10,1.46744e-05,-3.4806,0.249826,0.236165,3.04716,0.0443771,
2,1,0,1,0,54144,0.0522367,0.0518724,0.354416,28,0.00289423,10,1.83844e-05,-3.45049,0.222948,0.264635,3.65927,0.0518724,
2,1,0,1,0,54145.5,0.0597277,0.0593771,0.374326,28,0.00346215,10,2.22264e-05,-3.42675,0.351113,0.168037,2.4573,0.0593771,
2,1,0,1,0,54147,0.0672187,0.0668731,0.393858,28,0.00405968,10,2.63385e-05,-3.40466,0.480013,0.122913,1.88187,0.0668731,
2,1,0,1,0,54148.5,0.0747092,0.074357,0.408095,28,0.0046818,10,3.03447e-05,-3.38924,0.551947,0.106894,1.699,0.074357,
2,1,0,0,0,54150,0.0822001,0.0818275,0.420821,28,0.00532596,10,3.44348e-05,-3.3759,0.580202,0.101689,1.67869,0.0818275,
2,1,0,1,0,54151.5,0.0896911,0.0893342,0.440866,28,0.00599451,10,3.93844e-05,-3.35569,0.297779,0.198134,3.42136,0.08933416,
2,1,0,0,0,54153,0.097182,0.0968217,0.472321,28,0.00670059,10,4.57309e-05,-3.32576,0.197579,0.298614,5.49485,0.0968217,
2,1,0,1,0,54154.5,0.104673,0.104304,0.51484,28,0.00746024,10,5.36999e-05,-3.28833,0.200173,0.294744,5.88915,0.104304,
2,1,0,0,0,54156,0.112164,0.111829,0.548818,28,0.0082787,10,6.13735e-05,-3.26057,0.351884,0.167669,3.58487,0.111829,
2,1,0,1,0,54157.5,0.119655,0.119289,0.573021,28,0.00914279,10,6.83548e-05,-3.24183,0.721261,0.0818011,1.83075,0.119289,
2,1,0,0,0,54159,0.127146,0.126793,0.58472,28,0.010035,10,7.41384e-05,-3.23305,1.59843,0.0369113,0.844658,0.126793,
2,1,0,1,0,54160.5,0.134637,0.134282,0.578822,28,0.0109356,10,7.77251e-05,-3.23746,-0.317374,-0.1859,-4.19218,0.134282,
2,1,0,1,0,54162,0.142127,0.141773,0.51401,28,0.0117845,10,7.28726e-05,-3.28903,-0.0956491,-0.616838,-12.3408,0.141773,
2,1,0,1,0,54163.5,0.149618,0.149269,0.413728,28,0.0125013,10,6.17569e-05,-3.38329,-0.0812431,-0.726215,-11.7576,0.149269,
2,1,0,1,0,54165,0.157109,0.156779,0.349423,28,0.0130878,10,5.47821e-05,-3.45665,-0.135381,-0.435806,-5.94021,0.156779,
2,1,0,1,0,54166.5,0.1646,0.164199,0.32056,28,0.013607,10,5.26355e-05,-3.49409,-0.293196,-0.201231,-2.51694,0.164199,
2,1,0,1,0,54167.9,0.172091,0.171808,0.306457,28,0.0140956,10,5.26519e-05,-3.51363,-0.406354,-0.145194,-1.7358,0.171808,
2,1,0,1,0,54169.4,0.179582,0.17924,0.297565,28,0.0145686,10,5.33355e-05,-3.52642,-1.08419,-0.0544186,-0.633241,0.17924,
2,1,0,1,0,54170.9,0.187074,0.186739,0.293502,28,0.0150323,10,5.48083e-05,-3.53239,-2.26027,-0.026103,-0.298833,0.186739,
2,1,0,1,0,54172.4,0.194564,0.194216,0.290935,28,0.01549,10,5.65043e-05,-3.5362,-1.57917,-0.0373614,-0.423623,0.194216,
2,1,0,1,0,54173.9,0.202056,0.201719,0.287067,28,0.0159431,10,5.7907e-05,-3.54202,-1.21714,-0.0484744,-0.543457,0.201719,
2,1,0,1,0,54175.4,0.209547,0.209193,0.285355,28,0.0163925,10,5.96943e-05,-3.54461,-1.59541,-0.036981,-0.411789,0.209193,
2,1,0,1,0,54176.9,0.217038,0.216706,0.282337,28,0.0168382,10,6.11842e-05,-3.54923,-3.75437,-0.015715,-0.173934,0.216706,
2,1,0,1,0,54178.4,0.224529,0.224222,0.282455,28,0.0172813,10,6.33328e-05,-3.54905,-2.48626,-0.0237304,-0.261159,0.2242225,
2,1,0,1,0,54179.9,0.232019,0.231694,0.280088,28,0.0177216,10,6.48946e-05,-3.55271,-2.32523,-0.0253738,-0.277586,0.231694,
2,1,0,0,0,54181.4,0.23951,0.239157,0.277763,28,0.0181596,10,6.64288e-05,-3.55633,-3.09141,-0.0190852,-0.20735,0.239157,
2,1,0,1,0,54182.9,0.247001,0.246688,0.27726,28,0.0185952,10,6.83968e-05,-3.55711,-1.46177,-0.0403619,-0.435738,0.246688,
2,1,0,0,0,54184.4,0.254492,0.254134,0.275327,28,0.0190283,10,6.997e-05,-3.56015,-1.53365,-0.0384704,-0.413179,0.254134,
2,1,0,1,0,54185.9,0.261983,0.261652,0.272568,28,0.0194585,10,7.13181e-05,-3.56452,5.88538,0.0100248,0.107068,0.261652,
2,1,0,0,0,54187.4,0.269474,0.269143,0.271267,28,0.0198864,10,7.30095e-05,-3.5666,-4.40931,-0.0133808,-0.141919,0.269143,
2,1,0,1,0,54188.9,0.276965,0.276644,0.269448,28,0.0203115,10,7.45414e-05,-3.56952,-2.71347,-0.0217434,-0.229678,0.276644,
2,1,0,0,0,54190.4,0.284456,0.284156,0.26854,28,0.0207339,10,7.63073e-05,-3.57099,-8.33333,-0.00708001,-0.0741343,0.284156,
2,1,0,1,0,54191.9,0.291947,0.291626,0.267635,28,0.0211532,10,7.80491e-05,-3.57246,-2.83575,-0.0208058,-0.21654,0.291626,
2,1,0,1,0,54193.4,0.299437,0.299114,0.265146,28,0.02157,10,7.93087e-05,-3.57652,-0.00280892,-21.0045,-113.234,0.299114,
2,0,0,1,0,54194.8,0.293744,0.293434,-0.0159195,28,0.0216126,10,-4.67132e-06,-4.79807,-0.00394227,-14.966,5.63342,0.293434,
2,0,0,1,0,54196.3,0.286253,0.285908,-0.0453497,28,0.0215463,10,-1.29658e-05,-4.34343,-0.0301662,-1.95583,3.49553,0.2859076,
2,0,0,0,0,54197.8,0.278763,0.278436,-0.0672088,28,0.021442,10,-1.87134e-05,-4.17257,-0.0535998,-1.10075,2.88181,0.278436,
2,0,0,1,0,54199.3,0.271272,0.270912,-0.0837097,28,0.0213095,10,-2.26779e-05,-4.07722,-0.113189,-0.521254,1.68395,0.270912,
2,0,0,0,0,54200.8,0.263781,0.263405,-0.097087,28,0.0211544,10,-2.55732e-05,-4.01284,-0.110957,-0.531737,1.99473,0.263405,
2,0,0,1,0,54202.3,0.25629,0.255936,-0.108494,28,0.0209801,10,-2.77676e-05,-3.96459,-0.130472,-0.452206,1.91386,0.255936,
2,0,0,0,0,54203.8,0.248799,0.248427,-0.118915,28,0.0207887,10,-2.95417e-05,-3.92476,-0.205569,-0.287009,1.33964,0.248427,
2,0,0,1,0,54205.3,0.241308,0.240954,-0.129494,28,0.0205823,10,-3.1202e-05,-3.88775,-0.210587,-0.28017,1.41812,0.240954,
2,0,0,0,0,54206.8,0.233817,0.233486,-0.139848,28,0.0203615,10,-3.26526e-05,-3.85434,-0.237283,-0.248648,1.34145,0.233486,
2,0,0,1,0,54208.3,0.226326,0.22601,-0.148212,28,0.0201274,10,-3.34975e-05,-3.82912,-0.302158,-0.195262,1.12634,0.22601,
2,0,0,0,0,54209.8,0.218835,0.218483,-0.155796,28,0.0198801,10,-3.40389e-05,-3.80744,-0.354165,-0.166589,1.0097,0.218483,
2,0,0,1,0,54211.3,0.211344,0.211002,-0.163592,28,0.0196204,10,-3.45182e-05,-3.78624,-0.352748,-0.167258,1.07049,0.211002,
2,0,0,1,0,54212.8,0.203854,0.20347,-0.172459,28,0.0193473,10,-3.50903e-05,-3.76331,-0.336822,-0.175167,1.18094,0.20347,
2,0,0,1,0,54214.3,0.196363,0.195974,-0.182301,28,0.0190614,10,-3.57263e-05,-3.73921,-0.376394,-0.156751,1.11265,0.195974,
2,0,0,1,0,54215.8,0.188871,0.188533,-0.190726,28,0.018761,10,-3.59581e-05,-3.71959,-0.285972,-0.206314,1.54024,0.188533,
2,0,0,1,0,54217.3,0.181381,0.181016,-0.201314,28,0.0184452,10,-3.6441e-05,-3.69613,-0.235134,-0.25092,1.98028,0.181016,
2,0,0,1,0,54218.8,0.173889,0.173526,-0.215344,28,0.0181117,10,-3.73679e-05,-3.66687,-0.311804,-0.189221,1.58525,0.173526,
2,0,0,1,0,54220.3,0.166398,0.166008,-0.230293,28,0.0177566,10,-3.82305e-05,-3.63772,-0.227826,-0.25897,2.34237,0.166008,
2,0,0,1,0,54221.8,0.158907,0.158543,-0.249913,28,0.0173752,10,-3.96219e-05,-3.60221,-0.169622,-0.347832,3.41435,0.158543,
2,0,0,1,0,54223.3,0.151416,0.151031,-0.280848,28,0.0169568,10,-4.24166e-05,-3.55153,-0.129175,-0.456745,5.01248,0.151031,
2,0,0,1,0,54224.8,0.143925,0.143555,-0.329675,28,0.01648,10,-4.73263e-05,-3.48191,-0.0866562,-0.680852,8.76987,0.143555,
2,0,0,1,0,54226.2,0.136434,0.136048,-0.407829,28,0.0159081,10,-5.54843e-05,-3.38952,-0.0835148,-0.706461,11.2045,0.136048,
2,0,0,1,0,54227.7,0.128943,0.128532,-0.493969,28,0.0152105,10,-6.34907e-05,-3.3063,-0.105782,-0.557753,10.7147,0.128532,
2,0,0,0,0,54229.2,0.121453,0.121111,-0.559159,28,0.0143939,10,-6.77205e-05,-3.25247,-0.218949,-0.26947,5.87224,0.121111,
2,0,0,1,0,54230.7,0.113962,0.11363,-0.584011,28,0.0135061,10,-6.63612e-05,-3.23358,-1.24183,-0.0475104,1.08692,0.11363,
2,0,0,0,0,54232.2,0.106471,0.106194,-0.588118,28,0.0126007,10,-6.24544e-05,-3.23054,2.21878,0.0265912,-0.611125,0.106194,
2,0,0,1,0,54233.7,0.0989798,0.0986286,-0.579155,28,0.0117027,10,-5.71213e-05,-3.23721,1.15634,0.0510232,-1.14974,0.0986286,
2,0,0,0,0,54235.2,0.0914889,0.0911358,-0.568256,28,0.0108207,10,-5.17884e-05,-3.24546,0.744457,0.0792524,-1.7517,0.0911358,
2,0,0,1,0,54236.7,0.083998,0.0836631,-0.551801,28,0.00995931,10,-4.61654e-05,-3.25822,0.42479,0.138892,-2.98714,0.0836631,
2,0,0,0,0,54238.2,0.076507,0.0761576,-0.534936,28,0.00912307,10,-4.07394e-05,-3.2717,0.513886,0.114811,-2.39532,0.0761576,
2,0,0,1,0,54239.7,0.069016,0.0686828,-0.516294,28,0.00831279,10,-3.54605e-05,-3.2871,0.572281,0.103096,-2.08475,0.0686828,
2,0,0,0,0,54241.2,0.0615251,0.0611687,-0.502238,28,0.0075266,10,-3.07212e-05,-3.29909,0.589693,0.100052,-1.96126,0.0611687,
2,0,0,1,0,54242.7,0.0540342,0.0536589,-0.487368,28,0.00676441,10,-2.61516e-05,-3.31214,0.551153,0.107048,-2.02899,0.0536589,
2,0,0,1,0,54244.2,0.0465436,0.0462037,-0.467649,28,0.00602697,10,-2.16071e-05,-3.33008,0.497612,0.118566,-2.16993,0.0462037,
2,0,0,1,0,54245.7,0.0390526,0.0386833,-0.451582,28,0.00531531,10,-1.74687e-05,-3.34526,0.401484,0.146955,-2.5867,0.03868331,
2,0,0,1,0,54247.2,0.0315615,0.0311637,-0.436588,28,0.00462886,10,-1.36057e-05,-3.35993,0.453666,0.130052,-2.21235,0.0311637,
2,0,0,1,0,54248.7,0.0240706,0.023744,-0.421132,28,0.00396524,10,-9.99935e-06,-3.37558,0.592725,0.0995402,-1.64132,0.023744,
2,0,0,1,0,54250.2,0.0165795,0.016229,-0.413255,28,0.00331969,10,-6.7067e-06,-3.38378,1.32763,0.0444402,-0.715135,0.01622897,
2,0,0,1,0,54251.7,0.00908846,0.00874011,-0.407311,28,0.00268482,10,-3.55994e-06,-3.39007,3.43546,0.0171738,-0.2734,0.00874011,
2,0,0,1,0,54253.2,0.00159739,0.00116249,-0.41252,28,0.00205087,10,-4.79549e-07,-3.38456, , , ,0.00116249,
2,0,0,0,0,54253.5,0.000199195,-0.000161173,-0.410149,28,0.00193183,10,6.61047e-08,-3.38706, , , ,-0.0001611726,