File: Figure_codes/Fig_3-5/rawdata_trumpetplot_data/after 10th/20221101_1-115_003_TrumpetPlot_ParaChange_from10_every3_06_CV_C01_15.csv
mode,ox/red,error,control changes,counter inc.,time/s,control/V,Ewe/V,<I>/mA,cycle number,(Q-Qo)/C,I Range,P/W,log(|I|),Tafel slope mV/dec,alpha_eff,dI/d(E-IR),E-IR/V,
2,0,0,0,0,30702,2.44065e-05,-0.000363498,-1.41089,16,0.0000000E+000,10,5.12857e-07,-2.85051, , , ,-0.000363498,
2,1,0,1,0,30702.2,0.00729063,0.0069691,1.14029,16,7.45658e-05,10,7.94677e-06,-2.94299,0.0259725,2.27164,96.06,0.0069691,
2,1,0,1,0,30702.3,0.014778,0.0144377,1.54256,16,0.000334793,10,2.2271e-05,-2.81176,0.0987776,0.597301,35.8994,0.0144377,
2,1,0,1,0,30702.5,0.0222743,0.0219203,1.764,16,0.000648744,10,3.86672e-05,-2.7535,0.14899,0.396,27.1863,0.0219203,
2,1,0,1,0,30702.7,0.0297626,0.0294981,1.94776,16,0.000998825,10,5.74552e-05,-2.71047,0.193415,0.305043,23.1228,0.0294981,
2,1,0,1,0,30702.9,0.0372544,0.0369058,2.12002,16,0.00138265,10,7.8241e-05,-2.67366,0.205552,0.287032,23.7837,0.0369058,
2,1,0,1,0,30703.1,0.0447472,0.0444552,2.29926,16,0.00179973,10,0.000102214,-2.63841,0.233583,0.252587,22.6515,0.04445523,
2,1,0,1,0,30703.3,0.0522345,0.0519296,2.46241,16,0.00224879,10,0.000127872,-2.60864,0.244521,0.241288,23.2235,0.0519296,
2,1,0,1,0,30703.5,0.0597309,0.0594253,2.62439,16,0.00272903,10,0.000155955,-2.58097,0.296433,0.199033,20.3955,0.0594253,
2,1,0,1,0,30703.7,0.0672182,0.0669123,2.7733,16,0.00323699,10,0.000185568,-2.557,0.333519,0.176901,19.0746,0.0669123,
2,1,0,1,0,30703.8,0.0747074,0.0743772,2.8954,16,0.00377029,10,0.000215351,-2.53829,0.477253,0.123624,13.9641,0.0743772,
2,1,0,1,0,30704,0.0822019,0.0818546,2.99462,16,0.00432577,10,0.000245124,-2.52366,0.562905,0.104813,12.2681,0.0818546,
2,1,0,1,0,30704.2,0.0896911,0.0893958,3.10508,16,0.0048995,10,0.000277581,-2.50793,0.453082,0.130219,15.7706,0.0893958,
2,1,0,1,0,30704.4,0.097182,0.0968708,3.24172,16,0.00549646,10,0.000314028,-2.48922,0.302895,0.194787,24.7378,0.09687081,
2,1,0,1,0,30704.6,0.104675,0.104361,3.47897,16,0.00612778,10,0.000363069,-2.45855,0.212933,0.277083,37.6166,0.104361,
2,1,0,1,0,30704.8,0.112162,0.111838,3.76475,16,0.00680804,10,0.000421043,-2.42426,0.228711,0.257968,37.8443,0.111838,
2,1,0,1,0,30705,0.119655,0.119313,4.01736,16,0.00754087,10,0.000479322,-2.39606,0.33883,0.174129,27.2997,0.119313,
2,1,0,1,0,30705.2,0.127146,0.126804,4.18627,16,0.00831349,10,0.000530835,-2.37817,0.530254,0.111267,18.169,0.126804,
2,1,0,1,0,30705.3,0.134635,0.134336,4.30117,16,0.009112,10,0.000577801,-2.36641,0.917217,0.064325,10.8029,0.134336,
2,1,0,1,0,30705.5,0.14213,0.141857,4.30615,16,0.0099255,10,0.000610858,-2.36591,-0.640019,-0.0921847,-15.4724,0.141857,
2,1,0,1,0,30705.7,0.149619,0.149312,3.97374,16,0.0107107,10,0.000593326,-2.4008,-0.12309,-0.479323,-73.9589,0.149312,
2,1,0,1,0,30705.9,0.157106,0.156818,3.28592,16,0.0113954,10,0.000515292,-2.48334,-0.077706,-0.759272,-97.3487,0.156818,
2,1,0,1,0,30706.1,0.164602,0.164239,2.66752,16,0.0119525,10,0.00043811,-2.57389,-0.0929532,-0.634728,-66.3011,0.164239,
2,1,0,1,0,30706.3,0.172091,0.171778,2.29757,16,0.0124169,10,0.000394672,-2.63873,-0.141544,-0.416833,-37.4446,0.1717784,
2,1,0,1,0,30706.5,0.179582,0.179253,2.08334,16,0.0128283,10,0.000373445,-2.68124,-0.217379,-0.271415,-22.1542,0.179253,
2,1,0,1,0,30706.7,0.187074,0.18674,1.966,16,0.0132095,10,0.000367131,-2.70642,-0.404965,-0.145691,-11.1592,0.1867401,
2,1,0,1,0,30706.8,0.194563,0.194237,1.89178,16,0.0135725,10,0.000367454,-2.72313,-0.54125,-0.109007,-8.04494,0.194237,
2,1,0,1,0,30707,0.202059,0.201774,1.83629,16,0.0139244,10,0.000370516,-2.73606,-0.543509,-0.108554,-7.78279,0.201774,
2,1,0,1,0,30707.2,0.209546,0.20923,1.80559,16,0.0142681,10,0.000377783,-2.74338,-0.817437,-0.0721768,-5.0775,0.20923,
2,1,0,1,0,30707.4,0.217035,0.21675,1.76957,16,0.0146055,10,0.000383554,-2.75213,-1.18619,-0.0497389,-3.45086,0.21675,
2,1,0,1,0,30707.6,0.22453,0.224246,1.7538,16,0.0149388,10,0.000393284,-2.75602,-1.37721,-0.0428401,-2.93369,0.224246,
2,1,0,1,0,30707.8,0.232019,0.23173,1.733,16,0.0152678,10,0.000401587,-2.7612,-1.86065,-0.0317094,-2.14231,0.23173,
2,1,0,1,0,30708,0.23951,0.239194,1.71798,16,0.0155938,10,0.00041093,-2.76498,-2.30151,-0.0256354,-1.71954,0.239194,
2,1,0,1,0,30708.1,0.247003,0.246707,1.70669,16,0.0159171,10,0.000421051,-2.76785,-1.52624,-0.0386572,-2.56687,0.246707,
2,1,0,1,0,30708.3,0.25449,0.254156,1.69221,16,0.0162376,10,0.000430086,-2.77155,-2.61057,-0.0226005,-1.48968,0.254156,
2,1,0,1,0,30708.5,0.261983,0.261658,1.67242,16,0.0165557,10,0.000437601,-2.77666,-1.80369,-0.0327107,-2.14594,0.261658,
2,1,0,1,0,30708.7,0.269474,0.269155,1.66531,16,0.0168714,10,0.000448226,-2.7785,-4.88209,-0.012085,-0.784354,0.2691547,
2,1,0,1,0,30708.9,0.276963,0.276661,1.65226,16,0.0171847,10,0.000457115,-2.78192,-1.97315,-0.0299014,-1.92526,0.276661,
2,1,0,1,0,30709.1,0.284458,0.284155,1.63783,16,0.0174956,10,0.000465398,-2.78573,-2.31907,-0.0254413,-1.62578,0.284155,
2,1,0,1,0,30709.3,0.291947,0.291675,1.62177,16,0.0178034,10,0.000473029,-2.79001,-1.44929,-0.0407095,-2.56973,0.291675,
2,1,0,1,0,30709.5,0.299434,0.299171,1.60525,16,0.0181084,10,0.000480245,-2.79446,-0.0162288,-3.6355,-195.729,0.299171,
2,0,0,1,0,30709.6,0.294196,0.293886,-0.316956,16,0.0181517,10,-9.31488e-05,-3.499,-0.00858405,-6.87321,68.643,0.293886,
2,0,0,1,0,30709.8,0.286701,0.286377,-0.574777,16,0.0180603,10,-0.000164603,-3.2405,-0.0578874,-1.01922,22.8251,0.2863766,
2,0,0,1,0,30710,0.279212,0.278911,-0.708178,16,0.0179355,10,-0.000197518,-3.14986,-0.108761,-0.542472,15.0702,0.278911,
2,0,0,1,0,30710.2,0.271725,0.271437,-0.807347,16,0.0177902,10,-0.000219143,-3.09294,-0.134246,-0.439492,13.7162,0.271437,
2,0,0,1,0,30710.4,0.264228,0.263948,-0.880676,16,0.0176288,10,-0.000232452,-3.05518,-0.224945,-0.262286,8.99481,0.263948,
2,0,0,1,0,30710.6,0.256741,0.256407,-0.942815,16,0.0174548,10,-0.000241744,-3.02557,-0.290815,-0.202878,7.48738,0.256407,
2,0,0,1,0,30710.7,0.249248,0.248983,-1.00441,16,0.0172694,10,-0.00025008,-2.99809,-0.36326,-0.162418,6.32159,0.248983,
2,0,0,1,0,30710.9,0.241756,0.241438,-1.04912,16,0.0170738,10,-0.000253298,-2.97918,-0.425414,-0.138688,5.69761,0.241438,
2,0,0,1,0,30711.1,0.234268,0.233974,-1.09872,16,0.0168689,10,-0.000257071,-2.95911,-0.376357,-0.156766,6.75533,0.233974,
2,0,0,1,0,30711.3,0.226772,0.226477,-1.15445,16,0.0166548,10,-0.000261455,-2.93763,-0.382363,-0.154304,6.88746,0.226477,
2,0,0,1,0,30711.5,0.219284,0.218962,-1.19442,16,0.0164325,10,-0.000261532,-2.92284,-0.385797,-0.15293,7.13205,0.2189617,
2,0,0,1,0,30711.7,0.211796,0.211461,-1.2409,16,0.0162015,10,-0.000262402,-2.90626,-0.595966,-0.0989989,4.77658,0.211461,
2,0,0,1,0,30711.9,0.204301,0.203924,-1.28881,16,0.0159617,10,-0.00026282,-2.88981,-0.680415,-0.0867118,4.34856,0.203924,
2,0,0,1,0,30712.1,0.196812,0.196517,-1.33129,16,0.0157136,10,-0.000261621,-2.87573,-0.458057,-0.128805,6.71683,0.196517,
2,0,0,1,0,30712.2,0.189321,0.188988,-1.38546,16,0.0154561,10,-0.000261835,-2.85841,-0.394122,-0.1497,8.07963,0.188988,
2,0,0,1,0,30712.4,0.181828,0.181478,-1.4461,16,0.0151883,10,-0.000262437,-2.8398,-0.406491,-0.145145,8.16462,0.181478,
2,0,0,1,0,30712.6,0.174341,0.174013,-1.50975,16,0.0149086,10,-0.000262716,-2.82109,-0.288307,-0.204643,12.1074,0.174013,
2,0,0,1,0,30712.8,0.166848,0.166543,-1.60995,16,0.0146138,10,-0.000268126,-2.79319,-0.259035,-0.227769,14.2206,0.166543,
2,0,0,1,0,30713,0.159357,0.159021,-1.73329,16,0.0142989,10,-0.00027563,-2.76113,-0.204753,-0.288153,19.4896,0.159021,
2,0,0,1,0,30713.2,0.151868,0.151524,-1.92255,16,0.0139546,10,-0.000291311,-2.71612,-0.137381,-0.429463,32.3839,0.1515235,
2,0,0,1,0,30713.4,0.144373,0.144068,-2.2468,16,0.0135628,10,-0.000323692,-2.64843,-0.0926029,-0.637129,56.0058,0.144068,
2,0,0,1,0,30713.6,0.136884,0.136547,-2.73878,16,0.0130948,10,-0.000373972,-2.56244,-0.0858075,-0.687585,73.5798,0.136547,
2,0,0,1,0,30713.7,0.129393,0.129071,-3.31572,16,0.0125243,10,-0.000427965,-2.47942,-0.101456,-0.581535,75.1287,0.129071,
2,0,0,1,0,30713.9,0.1219,0.121556,-3.82387,16,0.0118506,10,-0.000464814,-2.4175,-0.155677,-0.378989,56.372,0.121556,
2,0,0,1,0,30714.1,0.114413,0.114056,-4.1733,16,0.0110962,10,-0.000475989,-2.37952,-0.274476,-0.214955,34.9969,0.114056,
2,0,0,1,0,30714.3,0.10692,0.106559,-4.34097,16,0.0102922,10,-0.00046257,-2.36241,-0.996438,-0.0592109,10.0121,0.106559,
2,0,0,1,0,30714.5,0.0994284,0.0991634,-4.32732,16,0.00947421,10,-0.000429112,-2.36378,0.790243,0.0746606,-12.5959,0.0991634,
2,0,0,1,0,30714.7,0.0919401,0.0916288,-4.17926,16,0.00867295,10,-0.000382941,-2.3789,0.449139,0.131362,-21.4633,0.09162885,
2,0,0,1,0,30714.9,0.0844447,0.0841219,-4.02207,16,0.00790154,10,-0.000338344,-2.39555,0.446969,0.132,-20.6881,0.08412192,
2,0,0,1,0,30715,0.0769565,0.0766438,-3.88299,16,0.00715963,10,-0.000297607,-2.41083,0.535958,0.110083,-16.6853,0.07664378,
2,0,0,1,0,30715.2,0.0694682,0.0691356,-3.77794,16,0.00643921,10,-0.00026119,-2.42275,0.569292,0.103637,-15.296,0.0691356,
2,0,0,1,0,30715.4,0.0619728,0.0617115,-3.68299,16,0.00573674,10,-0.000227283,-2.4338,0.619542,0.0952316,-13.6704,0.0617115,
2,0,0,1,0,30715.6,0.0544836,0.0541529,-3.57702,16,0.00505395,10,-0.000193706,-2.44648,0.717654,0.0822123,-11.4903,0.0541529,
2,0,0,1,0,30715.8,0.0469927,0.0466581,-3.46885,16,0.00439045,10,-0.00016185,-2.45981,0.556005,0.106114,-14.3561,0.0466581,
2,0,0,1,0,30716,0.0394999,0.0391212,-3.35429,16,0.00374844,10,-0.000131224,-2.4744,0.474952,0.124223,-16.2285,0.0391212,
2,0,0,1,0,30716.2,0.0320125,0.0316988,-3.21819,16,0.00313003,10,-0.000102013,-2.49239,0.407382,0.144827,-18.2038,0.0316988,
2,0,0,1,0,30716.4,0.0245198,0.0242263,-3.08285,16,0.00253653,10,-7.46862e-05,-2.51105,0.38333,0.153914,-18.5078,0.0242263,
2,0,0,1,0,30716.5,0.0170289,0.0166518,-2.96156,16,0.00196751,10,-4.93154e-05,-2.52848,0.494282,0.119365,-13.8076,0.0166518,
2,0,0,1,0,30716.7,0.0095397,0.0092243,-2.86085,16,0.00141933,10,-2.63894e-05,-2.5435,0.727478,0.0811021,-9.07263,0.0092243,
2,0,0,1,0,30716.9,0.00204518,0.00167356,-2.83976,16,0.000885366,10,-4.75252e-06,-2.54672,1.65086,0.0357389,-3.91474,0.00167356,
2,0,0,1,0,30717,0.000177222,-0.000209654,-2.79905,16,0.000752883,10,5.86832e-07,-2.55299, , , ,-0.000209654,