File: Figure_codes/Fig_3-5/rawdata_trumpetplot_data/after 10th/20221101_1-115_003_TrumpetPlot_ParaChange_from10_every3_06_CV_C01_28.csv
mode,ox/red,error,control changes,counter inc.,time/s,control/V,Ewe/V,<I>/mA,cycle number,(Q-Qo)/C,I Range,P/W,log(|I|),Tafel slope mV/dec,alpha_eff,dI/d(E-IR),E-IR/V,
2,0,0,0,0,56313.7,2.44065e-05,-0.000363498,-1.41153,29,0.0000000E+000,10,5.13088e-07,-2.85031, , , ,-0.000363498,
2,1,0,1,0,56313.9,0.00729063,0.0069512,0.918009,29,3.60726e-05,10,6.38127e-06,-3.03715,0.018569,3.17734,106.811,0.0069512,
2,1,0,1,0,56314,0.014778,0.0144097,1.37935,29,0.000261658,10,1.9876e-05,-2.86033,0.080495,0.732965,39.4211,0.0144097,
2,1,0,1,0,56314.2,0.0222743,0.0219298,1.61495,29,0.000546836,10,3.54156e-05,-2.79184,0.143221,0.411951,25.8699,0.0219298,
2,1,0,1,0,56314.4,0.0297626,0.0294124,1.78991,29,0.000868434,10,5.26454e-05,-2.74717,0.181216,0.325579,22.7477,0.0294124,
2,1,0,1,0,56314.6,0.0372544,0.0369125,1.95577,29,0.00122208,10,7.21922e-05,-2.70868,0.220173,0.267971,20.4538,0.0369125,
2,1,0,1,0,56314.8,0.0447472,0.0443419,2.11627,29,0.00160624,10,9.38393e-05,-2.67443,0.22354,0.263934,21.7976,0.0443419,
2,1,0,1,0,56315,0.0522345,0.0518942,2.26997,29,0.00201998,10,0.000117798,-2.64398,0.256626,0.229907,20.4227,0.0518942,
2,1,0,1,0,56315.2,0.0597309,0.0593914,2.42045,29,0.0024627,10,0.000143754,-2.6161,0.295381,0.199742,18.8586,0.0593914,
2,1,0,1,0,56315.3,0.0672182,0.0668818,2.55672,29,0.00293118,10,0.000170998,-2.59232,0.342723,0.17215,17.1427,0.0668818,
2,1,0,1,0,56315.5,0.0747074,0.0743284,2.67091,29,0.0034233,10,0.000198525,-2.57334,0.467156,0.126296,13.1789,0.0743284,
2,1,0,1,0,56315.7,0.0822019,0.0818417,2.77033,29,0.00393608,10,0.000226728,-2.55747,0.548244,0.107616,11.6262,0.0818417,
2,1,0,1,0,56315.9,0.0896911,0.0893169,2.86261,29,0.00446567,10,0.000255679,-2.54324,0.479788,0.122971,13.742,0.0893169,
2,1,0,1,0,56316.1,0.097182,0.0967889,2.98378,29,0.00501559,10,0.000288797,-2.52523,0.318522,0.18523,21.6141,0.0967889,
2,1,0,1,0,56316.3,0.104675,0.104296,3.18986,29,0.00559489,10,0.00033269,-2.49623,0.233081,0.253131,31.4589,0.104296,
2,1,0,1,0,56316.5,0.112162,0.111777,3.43816,29,0.00621723,10,0.000384306,-2.46367,0.239205,0.246651,33.0893,0.111777,
2,1,0,1,0,56316.7,0.119655,0.119312,3.67276,29,0.00688665,10,0.000438203,-2.43501,0.314519,0.187588,26.8747,0.1193118,
2,1,0,1,0,56316.8,0.127146,0.126776,3.82249,29,0.0075926,10,0.0004846,-2.41765,0.599746,0.0983749,14.6628,0.126776,
2,1,0,1,0,56317,0.134635,0.134282,3.9014,29,0.00831949,10,0.000523886,-2.40878,1.49821,0.0393803,6.00317,0.134282,
2,1,0,1,0,56317.2,0.14213,0.141798,3.88664,29,0.00905489,10,0.00055112,-2.41043,-0.616706,-0.0956696,-14.4786,0.1417985,
2,1,0,1,0,56317.4,0.149619,0.149208,3.60535,29,0.00976397,10,0.000537947,-2.44305,-0.139845,-0.421897,-59.1714,0.149208,
2,1,0,1,0,56317.6,0.157106,0.156786,3.0615,29,0.0103923,10,0.00048,-2.51407,-0.0952599,-0.619358,-73.9963,0.156786,
2,1,0,1,0,56317.8,0.164602,0.164288,2.55989,29,0.0109189,10,0.000420558,-2.59178,-0.104377,-0.565258,-56.489,0.164288,
2,1,0,1,0,56318,0.172091,0.171767,2.22678,29,0.011367,10,0.000382488,-2.65232,-0.145581,-0.405273,-35.3106,0.171767,
2,1,0,1,0,56318.2,0.179582,0.179277,2.02634,29,0.0117666,10,0.000363276,-2.69329,-0.227663,-0.259156,-20.5625,0.179277,
2,1,0,1,0,56318.3,0.187074,0.186711,1.91175,29,0.0121371,10,0.000356945,-2.71857,-0.38764,-0.152203,-11.3457,0.186711,
2,1,0,1,0,56318.5,0.194563,0.194191,1.83228,29,0.0124897,10,0.000355812,-2.73701,-0.513312,-0.11494,-8.24852,0.194191,
2,1,0,1,0,56318.7,0.202059,0.201701,1.78809,29,0.0128312,10,0.000360659,-2.74761,-0.655462,-0.0900128,-6.26347,0.201701,
2,1,0,1,0,56318.9,0.209546,0.209208,1.75321,29,0.0131648,10,0.000366787,-2.75616,-0.852037,-0.0692459,-4.73594,0.209208,
2,1,0,1,0,56319.1,0.217035,0.216693,1.71883,29,0.0134927,10,0.000372458,-2.76477,-1.25391,-0.047053,-3.17516,0.216693,
2,1,0,1,0,56319.3,0.22453,0.224178,1.7046,29,0.0138165,10,0.000382133,-2.76838,-1.23917,-0.0476124,-3.1621,0.224178,
2,1,0,1,0,56319.5,0.232019,0.231668,1.68879,29,0.0141364,10,0.000391238,-2.77242,-12.6104,-0.00467867,-0.307843,0.231668,
2,1,0,1,0,56319.7,0.23951,0.239179,1.67318,29,0.0144536,10,0.000400189,-2.77646,-3.53158,-0.0167064,-1.09135,0.239179,
2,1,0,1,0,56319.8,0.247003,0.246666,1.66239,29,0.0147682,10,0.000410055,-2.77927,-1.54207,-0.0382603,-2.4727,0.246666,
2,1,0,1,0,56320,0.25449,0.254144,1.64532,29,0.0150805,10,0.000418147,-2.78375,-2.52724,-0.0233456,-1.50331,0.254144,
2,1,0,1,0,56320.2,0.261983,0.261648,1.63712,29,0.0153908,10,0.000428349,-2.78592,-1.85172,-0.0318623,-2.03608,0.261648,
2,1,0,1,0,56320.4,0.269474,0.269122,1.6254,29,0.0156989,10,0.00043743,-2.78904,-5.03845,-0.01171,-0.742323,0.269122,
2,1,0,1,0,56320.6,0.276963,0.276631,1.61226,29,0.016005,10,0.000446002,-2.79256,-2.15697,-0.0273532,-1.72502,0.276631,
2,1,0,1,0,56320.8,0.284458,0.284147,1.60256,29,0.0163089,10,0.000455362,-2.79519,-6.02367,-0.00979469,-0.611853,0.284147,
2,1,0,1,0,56321,0.291947,0.291604,1.59003,29,0.0166102,10,0.000463659,-2.7986,-1.66839,-0.0353635,-2.19308,0.291604,
2,1,0,1,0,56321.2,0.299434,0.299103,1.57468,29,0.0169091,10,0.00047099,-2.80281,-0.0201462,-2.9286,-159.846,0.299103,
2,0,0,1,0,56321.3,0.294196,0.293843,-0.201097,29,0.0169733,10,-5.90908e-05,-3.6966,-0.00297232,-19.8498,83.8279,0.293843,
2,0,0,1,0,56321.5,0.286701,0.286345,-0.516756,29,0.0168976,10,-0.00014797,-3.28671,-0.0448689,-1.31494,26.2191,0.286345,
2,0,0,1,0,56321.7,0.279212,0.278913,-0.660209,29,0.0167832,10,-0.000184141,-3.18032,-0.103389,-0.57066,14.7275,0.278913,
2,0,0,1,0,56321.9,0.271725,0.271397,-0.759847,29,0.0166468,10,-0.00020622,-3.11927,-0.129897,-0.454204,13.4222,0.271397,
2,0,0,1,0,56322.1,0.264228,0.263908,-0.83742,29,0.0164939,10,-0.000221002,-3.07706,-0.194315,-0.303631,9.93186,0.263908,
2,0,0,1,0,56322.2,0.256741,0.256409,-0.903743,29,0.016328,10,-0.000231728,-3.04395,-0.263199,-0.224165,7.86875,0.256409,
2,0,0,1,0,56322.4,0.249248,0.248885,-0.958452,29,0.0161507,10,-0.000238544,-3.01843,-0.312822,-0.188605,7.07069,0.248885,
2,0,0,1,0,56322.6,0.241756,0.241444,-1.00711,29,0.0159632,10,-0.00024316,-2.99692,-0.413794,-0.142583,5.63203,0.2414435,
2,0,0,1,0,56322.8,0.234268,0.233897,-1.05766,29,0.0157667,10,-0.000247383,-2.97566,-0.394375,-0.149604,6.16849,0.233897,
2,0,0,1,0,56323,0.226772,0.2264,-1.10157,29,0.0155611,10,-0.000249394,-2.95799,-0.366854,-0.160827,6.9329,0.2264,
2,0,0,1,0,56323.2,0.219285,0.218966,-1.15089,29,0.0153473,10,-0.000252006,-2.93897,-0.502701,-0.117366,5.25625,0.218966,
2,0,0,1,0,56323.4,0.211796,0.211445,-1.19249,29,0.0151254,10,-0.000252147,-2.92354,-0.509328,-0.115839,5.36925,0.2114452,
2,0,0,1,0,56323.6,0.204301,0.203967,-1.23551,29,0.014895,10,-0.000252003,-2.90815,-0.800369,-0.073716,3.55921,0.203967,
2,0,0,1,0,56323.7,0.196812,0.196477,-1.27903,29,0.0146568,10,-0.000251301,-2.89312,-0.481436,-0.12255,6.10551,0.196477,
2,0,0,1,0,56323.9,0.189321,0.189004,-1.32233,29,0.0144099,10,-0.000249927,-2.87866,-0.470378,-0.125431,6.49182,0.189004,
2,0,0,1,0,56324.1,0.181828,0.18146,-1.37734,29,0.0141538,10,-0.000249932,-2.86096,-0.429014,-0.137525,7.39131,0.18146,
2,0,0,1,0,56324.3,0.174341,0.174014,-1.43749,29,0.0138876,10,-0.000250144,-2.84239,-0.399212,-0.147791,8.28251,0.174014,
2,0,0,1,0,56324.5,0.166848,0.166462,-1.51133,29,0.013609,10,-0.000251579,-2.82064,-0.382649,-0.154188,9.07717,0.166462,
2,0,0,1,0,56324.7,0.159357,0.158982,-1.60533,29,0.0133149,10,-0.000255217,-2.79444,-0.25088,-0.235172,14.7197,0.158982,
2,0,0,1,0,56324.9,0.151868,0.151517,-1.74144,29,0.0129993,10,-0.000263858,-2.75909,-0.180431,-0.326996,22.2867,0.151517,
2,0,0,1,0,56325.1,0.144373,0.144044,-1.96313,29,0.0126503,10,-0.000282778,-2.70705,-0.11729,-0.503026,38.7761,0.144044,
2,0,0,1,0,56325.2,0.136884,0.136519,-2.33139,29,0.0122472,10,-0.000318279,-2.63239,-0.0956084,-0.617101,56.019,0.136519,
2,0,0,1,0,56325.4,0.129393,0.129042,-2.78917,29,0.0117658,10,-0.000359919,-2.55452,-0.101691,-0.580191,63.0482,0.129042,
2,0,0,1,0,56325.6,0.1219,0.121572,-3.23467,29,0.0111975,10,-0.000393246,-2.49017,-0.135061,-0.43684,55.1181,0.121572,
2,0,0,1,0,56325.8,0.114413,0.114066,-3.60779,29,0.0105527,10,-0.000411525,-2.44276,-0.202252,-0.291716,40.96,0.114066,
2,0,0,1,0,56326,0.10692,0.106579,-3.83772,29,0.00985005,10,-0.000409022,-2.41593,-0.406747,-0.145053,21.7268,0.1065794,
2,0,0,1,0,56326.2,0.0994284,0.0990792,-3.92051,29,0.00911723,10,-0.000388441,-2.40666,-69.6303,-0.000847333,0.129581,0.0990792,
2,0,0,1,0,56326.4,0.0919401,0.0915813,-3.86562,29,0.00838406,10,-0.000354019,-2.41278,0.732767,0.0805167,-12.1297,0.0915813,
2,0,0,1,0,56326.6,0.0844447,0.0840447,-3.75244,29,0.00766689,10,-0.000315373,-2.42569,0.641991,0.0919016,-13.4775,0.08404471,
2,0,0,1,0,56326.7,0.0769565,0.0765817,-3.66526,29,0.00697004,10,-0.000280692,-2.43589,0.730734,0.0807407,-11.5345,0.0765817,
2,0,0,1,0,56326.9,0.0694682,0.0691223,-3.58836,29,0.00628839,10,-0.000248036,-2.4451,0.84405,0.0699011,-9.78461,0.0691223,
2,0,0,1,0,56327.1,0.0619728,0.0616117,-3.5134,29,0.00561946,10,-0.000216467,-2.45427,0.723008,0.0816036,-11.2029,0.06161166,
2,0,0,1,0,56327.3,0.0544836,0.054135,-3.43126,29,0.00496614,10,-0.000185751,-2.46455,0.648486,0.0909812,-12.1747,0.054135,
2,0,0,1,0,56327.5,0.0469927,0.046605,-3.33608,29,0.00432897,10,-0.000155478,-2.47676,0.601225,0.098133,-12.7887,0.046605,
2,0,0,1,0,56327.7,0.0394999,0.0391958,-3.23803,29,0.00370995,10,-0.000126917,-2.48972,0.520737,0.113301,-14.3033,0.0391958,
2,0,0,1,0,56327.9,0.0320125,0.0316308,-3.12321,29,0.0031115,10,-9.87894e-05,-2.5054,0.459341,0.128445,-15.6533,0.0316308,
2,0,0,1,0,56328.1,0.0245198,0.0242084,-3.00121,29,0.00253467,10,-7.26545e-05,-2.5227,0.454749,0.129742,-15.2329,0.0242084,
2,0,0,1,0,56328.2,0.0170289,0.0166661,-2.8995,29,0.00197922,10,-4.83235e-05,-2.53768,0.536908,0.109889,-12.4357,0.0166661,
2,0,0,1,0,56328.4,0.0095397,0.00916602,-2.81488,29,0.00144206,10,-2.58012e-05,-2.55054,0.670197,0.0880338,-9.66001,0.00916602,
2,0,0,1,0,56328.6,0.00204518,0.00165004,-2.77816,29,0.000917584,10,-4.58409e-06,-2.55624,2.25675,0.0261438,-2.82081,0.00165004,
2,0,0,1,0,56328.7,0.000177222,-0.000255846,-2.75913,29,0.000787604,10,7.05911e-07,-2.55923, , , ,-0.000255846,