File: Figure_codes/Fig_3-5/rawdata_trumpetplot_data/after 10th/20221101_1-115_003_TrumpetPlot_ParaChange_from10_every3_13_CV_C01_32.csv
mode,ox/red,error,control changes,counter inc.,time/s,control/V,Ewe/V,<I>/mA,cycle number,(Q-Qo)/C,I Range,P/W,log(|I|),Tafel slope mV/dec,alpha_eff,dI/d(E-IR),E-IR/V,
2,1,0,1,0,64242,2.44065e-05,-0.000287149,14.8715,33,0.0000000E+000,10,-4.27034e-06,-1.82764, , , ,-0.0002871489,
2,1,0,1,0,64242,0.0122624,0.0119043,18.7792,33,0.000259256,10,0.000223554,-1.72632,0.176343,0.334576,243.331,0.0119043,
2,1,0,1,0,64242.1,0.0250636,0.0247459,21.5484,33,0.000582948,10,0.000533233,-1.66659,0.252119,0.234016,196.045,0.0247459,
2,1,0,1,0,64242.1,0.0378704,0.0374676,23.8922,33,0.000947004,10,0.000895182,-1.62174,0.317878,0.185606,172.643,0.0374676,
2,1,0,1,0,64242.1,0.0506632,0.0502847,25.9757,33,0.00134644,10,0.00130618,-1.58543,0.379455,0.155486,157.455,0.0502847,
2,1,0,1,0,64242.1,0.0634672,0.0631241,27.9294,33,0.00177808,10,0.00176302,-1.55394,0.430844,0.136941,149.183,0.0631241,
2,1,0,1,0,64242.1,0.0762628,0.0759115,29.8123,33,0.00224039,10,0.0022631,-1.5256,0.471247,0.1252,145.628,0.0759115,
2,1,0,1,0,64242.1,0.0890668,0.0886778,31.6879,33,0.0027326,10,0.00281001,-1.49911,0.498822,0.118279,146.217,0.0886778,
2,1,0,1,0,64242.2,0.10186,0.101507,33.5498,33,0.00325467,10,0.00340553,-1.47431,0.527429,0.111863,146.452,0.101507,
2,1,0,1,0,64242.2,0.114666,0.114283,35.4276,33,0.00380674,10,0.00404879,-1.45066,0.547989,0.107666,148.888,0.114283,
2,1,0,1,0,64242.2,0.127462,0.127064,37.3562,33,0.00438917,10,0.00474665,-1.42764,0.551104,0.107058,156.207,0.127064,
2,1,0,1,0,64242.2,0.140263,0.139892,39.4471,33,0.00500374,10,0.00551834,-1.40399,0.548615,0.107544,165.535,0.139892,
2,1,0,1,0,64242.2,0.153064,0.152582,41.5439,33,0.00565194,10,0.00633886,-1.38149,0.573154,0.102939,166.989,0.152582,
2,1,0,1,0,64242.2,0.165866,0.165469,43.6749,33,0.00633439,10,0.00722686,-1.35977,0.651904,0.0905041,154.077,0.165469,
2,1,0,1,0,64242.3,0.178667,0.178297,45.4734,33,0.0070482,10,0.00810777,-1.34224,0.833378,0.0707962,125.479,0.178297,
2,1,0,1,0,64242.3,0.191463,0.191105,46.8237,33,0.00778761,10,0.00894822,-1.32953,1.33789,0.0440994,80.443,0.191105,
2,1,0,1,0,64242.3,0.204269,0.203877,47.4954,33,0.0085433,10,0.00968323,-1.32335,4.77659,0.0123519,22.8515,0.203877,
2,1,0,1,0,64242.3,0.217062,0.216718,47.411,33,0.00930357,10,0.0102748,-1.32412,-2.95791,-0.0199465,-36.8312,0.216718,
2,1,0,1,0,64242.3,0.229866,0.229523,46.5764,33,0.0100563,10,0.0106904,-1.33183,-1.1483,-0.0513802,-93.2042,0.229523,
2,1,0,1,0,64242.3,0.242662,0.242353,45.0488,33,0.01079,10,0.0109177,-1.34632,-0.74217,-0.0794966,-139.58,0.242353,
2,1,0,1,0,64242.3,0.255466,0.255133,43.0282,33,0.0114951,10,0.0109779,-1.36625,-0.575963,-0.102437,-171.876,0.255133,
2,1,0,1,0,64242.4,0.268259,0.267894,40.7172,33,0.0121652,10,0.0109079,-1.39022,-0.510931,-0.115475,-183.493,0.267894,
2,1,0,1,0,64242.4,0.281065,0.280715,38.3983,33,0.0127979,10,0.010779,-1.41569,-0.496765,-0.118768,-177.995,0.280715,
2,1,0,1,0,64242.4,0.293861,0.29355,36.189,33,0.0133941,10,0.0106233,-1.44142,-0.509384,-0.115826,-163.933,0.2935504,
2,1,0,1,0,64242.4,0.298983,0.298781,33.2267,33,0.0137127,10,0.00992752,-1.47851,0.048519,1.21602,1425.66,0.298781,
2,1,0,1,0,64242.4,0.286187,0.285942,19.7434,33,0.0141225,10,0.00564547,-1.70458,0.0572176,1.03115,797.495,0.285942,
2,1,0,1,0,64242.4,0.273386,0.27309,11.2668,33,0.014366,10,0.00307686,-1.9482,0.0454435,1.29831,564.352,0.27309,
2,1,0,1,0,64242.5,0.260585,0.260326,4.97063,33,0.014493,10,0.00129398,-2.30359,0.0246976,2.3889,429.513,0.260326,
2,1,0,1,0,64242.5,0.247783,0.247511,0.0853732,33,0.0145314,10,2.11308e-05,-4.06868,0.148932,0.396155,341.748,0.247511,
2,0,0,1,0,64242.5,0.234982,0.234686,-3.80573,33,0.0145002,10,-0.000893152,-2.41956,-0.0288579,-2.0445,272.518,0.234686,
2,0,0,1,0,64242.5,0.222187,0.221898,-6.96857,33,0.0144128,10,-0.00154631,-2.15686,-0.069462,-0.849385,225.543,0.221898,
2,0,0,1,0,64242.5,0.20938,0.209122,-9.61998,33,0.0142791,10,-0.00201175,-2.01683,-0.114711,-0.514335,191.156,0.209122,
2,0,0,1,0,64242.5,0.196587,0.196246,-11.876,33,0.0141064,10,-0.00233062,-1.92533,-0.165643,-0.356187,164.204,0.196246,
2,0,0,1,0,64242.5,0.183783,0.183466,-13.8635,33,0.0138999,10,-0.00254349,-1.85813,-0.216092,-0.273031,147.222,0.183466,
2,0,0,1,0,64242.6,0.170987,0.170678,-15.6664,33,0.0136633,10,-0.00267391,-1.80503,-0.262293,-0.224939,137.317,0.170678,
2,0,0,1,0,64242.6,0.158183,0.157865,-17.4129,33,0.0133985,10,-0.00274888,-1.75913,-0.288484,-0.204517,138.982,0.157865,
2,0,0,1,0,64242.6,0.145385,0.145069,-19.2667,33,0.0131051,10,-0.00279501,-1.71519,-0.285567,-0.206606,155.622,0.145069,
2,0,0,1,0,64242.6,0.132584,0.132277,-21.4824,33,0.0127794,10,-0.00284163,-1.66792,-0.253852,-0.232419,195.365,0.132277,
2,0,0,1,0,64242.6,0.119783,0.119433,-24.3194,33,0.0124136,10,-0.00290454,-1.61405,-0.227328,-0.259537,246.654,0.119433,
2,0,0,1,0,64242.6,0.106987,0.106695,-27.7504,33,0.0119974,10,-0.00296083,-1.55673,-0.227054,-0.25985,281.17,0.106695,
2,0,0,1,0,64242.7,0.0941801,0.093878,-31.3816,33,0.0115239,10,-0.00294605,-1.50332,-0.257092,-0.22949,280.564,0.093878,
2,0,0,1,0,64242.7,0.0813844,0.0811648,-34.7746,33,0.0109934,10,-0.00282247,-1.45874,-0.315588,-0.186952,253.492,0.0811648,
2,0,0,1,0,64242.7,0.0685832,0.068336,-37.8305,33,0.0104115,10,-0.00258518,-1.42216,-0.404244,-0.145951,215.005,0.068336,
2,0,0,1,0,64242.7,0.0557876,0.0555273,-40.296,33,0.00978536,10,-0.00223753,-1.39474,-0.546958,-0.107869,169.296,0.0555273,
2,0,0,1,0,64242.7,0.0429808,0.0426985,-42.2286,33,0.0091244,10,-0.0018031,-1.37439,-0.722493,-0.0816617,134.384,0.0426985,
2,0,0,1,0,64242.7,0.030188,0.0298751,-43.728,33,0.00843596,10,-0.00130638,-1.35924,-0.998115,-0.0591114,100.754,0.0298751,
2,0,0,1,0,64242.8,0.017384,0.0170441,-44.8084,33,0.00772693,10,-0.00076372,-1.34864,-1.47125,-0.040102,70.0644,0.0170441,
2,0,0,1,0,64242.8,0.00458834,0.0042726,-45.5156,33,0.00700366,10,-0.00019447,-1.34184,-2.45949,-0.0239887,42.5912,0.0042726,
2,0,0,1,0,64242.8,-0.00821564,-0.00858377,-45.9074,33,0.00627152,10,0.000394059,-1.33812,-7.59332,-0.00776999,13.9058,-0.00858377,
2,0,0,1,0,64242.8,-0.0210196,-0.0213649,-45.9201,33,0.00553653,10,0.000981077,-1.338,9.75919,0.00604558,-10.8243,-0.0213649,
2,0,0,1,0,64242.8,-0.0338153,-0.0342244,-45.6441,33,0.00480368,10,0.00156214,-1.34062,3.80041,0.0155246,-27.6467,-0.0342244,
2,0,0,1,0,64242.8,-0.0466193,-0.047015,-45.2152,33,0.00407661,10,0.0021258,-1.34472,2.73583,0.0215657,-38.0513,-0.047015,
2,0,0,1,0,64242.9,-0.0594121,-0.0598057,-44.7146,33,0.00335711,10,0.00267419,-1.34955,2.69231,0.0219143,-38.2494,-0.0598057,
2,0,0,1,0,64242.9,-0.0722189,-0.0725518,-44.2746,33,0.00264537,10,0.0032122,-1.35385,3.2059,0.0184036,-31.7995,-0.0725518,
2,0,0,1,0,64242.9,-0.0850145,-0.0853636,-43.9063,33,0.00194018,10,0.003748,-1.35747,4.54065,0.0129937,-22.2762,-0.0853636,
2,0,0,1,0,64242.9,-0.0978158,-0.0981807,-43.6969,33,0.00123945,10,0.00429019,-1.35955,10.5319,0.00560201,-9.55949,-0.0981807,
2,0,0,1,0,64242.9,-0.110611,-0.110953,-43.6495,33,0.000540751,10,0.00484306,-1.36002,-35.6421,-0.00165535,2.82195,-0.110953,
2,0,0,1,0,64242.9,-0.123418,-0.123766,-43.7783,33,-0.000158589,10,0.00541827,-1.35874,-6.28911,-0.00938129,16.0369,-0.123766,
2,0,0,1,0,64242.9,-0.136214,-0.136589,-44.0623,33,-0.000861178,10,0.00601841,-1.35593,-3.80761,-0.0154953,26.6533,-0.136589,
2,0,0,1,0,64243,-0.149015,-0.149374,-44.4704,33,-0.00156938,10,0.00664272,-1.35193,-2.8593,-0.0206344,35.8151,-0.149374,
2,0,0,1,0,64243,-0.161816,-0.162155,-44.9462,33,-0.00228476,10,0.00728826,-1.34731,-2.7579,-0.0213931,37.5241,-0.162155,
2,0,0,1,0,64243,-0.174615,-0.17496,-45.4005,33,-0.00300771,10,0.00794325,-1.34294,-3.08643,-0.019116,33.8708,-0.17496,
2,0,0,1,0,64243,-0.187419,-0.187756,-45.8074,33,-0.00373761,10,0.00860063,-1.33906,-3.86421,-0.0152683,27.2871,-0.187756,
2,0,0,1,0,64243,-0.199647,-0.199983,-46.1025,33,-0.00444095,10,0.00921973,-1.33628,0.231445,0.254921,-445.633,-0.199983,
2,0,0,1,1,64243,-0.192535,-0.193,-35.1471,33,-0.00484632,10,0.0067834,-1.45411,-0.0746303,-0.790563,1111.69,-0.193,
2,0,0,1,1,64243.1,-0.179739,-0.180142,-24.6967,33,-0.00531808,10,0.0044489,-1.60736,-0.0841724,-0.700942,677.449,-0.180142,
2,0,0,1,1,64243.1,-0.166932,-0.167336,-17.1182,33,-0.00564934,10,0.0028645,-1.76654,-0.0740463,-0.796798,530.445,-0.167336,
2,0,0,1,1,64243.1,-0.154139,-0.15453,-10.9482,33,-0.00587182,10,0.00169182,-1.96066,-0.0557529,-1.05824,445.721,-0.15453,
2,0,0,1,1,64243.1,-0.141335,-0.141753,-5.61867,33,-0.00600278,10,0.000796462,-2.25037,-0.0313542,-1.88172,389.5,-0.141753,
2,0,0,1,1,64243.1,-0.12854,-0.128957,-0.886696,33,-0.00605364,10,0.000114346,-3.05223,-0.0327131,-1.80356,351.333,-0.128957,
2,1,0,1,1,64243.1,-0.115736,-0.116195,3.4039,33,-0.00603261,10,-0.000395516,-2.46802,0.0206153,2.86196,321.576,-0.116195,
2,1,0,1,1,64243.2,-0.102932,-0.103389,7.34751,33,-0.00594587,10,-0.000759656,-2.13386,0.055158,1.06965,298.201,-0.103389,
2,1,0,1,1,64243.2,-0.0901362,-0.0905766,11.0197,33,-0.0057981,10,-0.000998131,-1.95783,0.0907399,0.65021,276.594,-0.0905766,
2,1,0,1,1,64243.2,-0.0773322,-0.0777965,14.4534,33,-0.00559358,10,-0.00112442,-1.84003,0.128548,0.458973,257.131,-0.0777965,
2,1,0,1,1,64243.2,-0.0645393,-0.0649773,17.6231,33,-0.00533634,10,-0.0011451,-1.75392,0.170218,0.346615,237.315,-0.0649773,
2,1,0,1,1,64243.2,-0.0517325,-0.0520933,20.5575,33,-0.00503032,10,-0.00107091,-1.68703,0.213891,0.275841,220.609,-0.0520933,
2,1,0,1,1,64243.2,-0.0389369,-0.0393515,23.2478,33,-0.00467925,10,-0.000914835,-1.63362,0.263106,0.224244,203.115,-0.0393515,
2,1,0,1,1,64243.2,-0.0261357,-0.0265428,25.7213,33,-0.00428676,10,-0.000682717,-1.58971,0.322636,0.182868,183.323,-0.0265428,
2,1,0,1,1,64243.3,-0.01334,-0.0137013,27.955,33,-0.00385668,10,-0.00038302,-1.55354,0.389728,0.151388,164.959,-0.0137013,
2,1,0,1,1,64243.3,-0.000774628,-0.00120175,29.9291,33,-0.00340179,10,-3.59673e-05,-1.52391, , , ,-0.00120175,
2,1,0,0,1,64243.3,-0.000125413,-0.000592546,30.0428,33,-0.00337782,10,-1.78017e-05,-1.52226, , , ,-0.000592546,