File: Figure_codes/Fig_3-5/rawdata_trumpetplot_data/after 10th/20221101_1-115_003_TrumpetPlot_ParaChange_from10_every3_04_CV_C01_11.csv
mode,ox/red,error,control changes,counter inc.,time/s,control/V,Ewe/V,<I>/mA,cycle number,(Q-Qo)/C,I Range,P/W,log(|I|),Tafel slope mV/dec,alpha_eff,dI/d(E-IR),E-IR/V,
2,0,0,1,0,22731.5,2.44065e-05,-0.000306236,-0.376068,12,0.0000000E+000,10,1.15166e-07,-3.42473, , , ,-0.000306236,
2,1,0,1,0,22732.2,0.00729063,0.00697133,0.378369,12,0.000207104,10,2.63774e-06,-3.42208,0.0653579,0.902722,13.1418,0.00697133,
2,1,0,1,0,22732.9,0.0147814,0.0144868,0.450169,12,0.000533311,10,6.5215e-06,-3.34662,0.124932,0.472256,8.28233,0.0144868,
2,1,0,1,0,22733.7,0.0222725,0.0219623,0.507354,12,0.00090611,10,1.11427e-05,-3.29469,0.164175,0.359372,7.10749,0.0219623,
2,1,0,1,0,22734.4,0.0297635,0.0294574,0.559148,12,0.00131898,10,1.64711e-05,-3.25247,0.190374,0.309917,6.74536,0.0294574,
2,1,0,1,0,22735.2,0.0372544,0.0369193,0.611071,12,0.00177147,10,2.25603e-05,-3.21391,0.206215,0.28611,6.85193,0.0369193,
2,1,0,1,0,22735.9,0.0447458,0.0444444,0.663395,12,0.00226366,10,2.94842e-05,-3.17823,0.235462,0.250572,6.4781,0.0444444,
2,1,0,1,0,22736.7,0.0522363,0.0518965,0.710124,12,0.00279285,10,3.6853e-05,-3.14867,0.23576,0.250255,6.94397,0.0518965,
2,1,0,1,0,22737.4,0.0597282,0.0593975,0.755954,12,0.00335663,10,4.49018e-05,-3.1215,0.30816,0.191459,5.64198,0.0593975,
2,1,0,1,0,22738.2,0.0672182,0.0669055,0.797417,12,0.00395173,10,5.33516e-05,-3.09831,0.397053,0.148595,4.60396,0.0669055,
2,1,0,1,0,22738.9,0.0747092,0.0744111,0.828858,12,0.00457348,10,6.16762e-05,-3.08152,0.606254,0.0973189,3.13981,0.0744111,
2,1,0,1,0,22739.7,0.0822001,0.0818594,0.85372,12,0.00521769,10,6.9885e-05,-3.06868,0.508032,0.116134,3.88069,0.0818594,
2,1,0,1,0,22740.4,0.0896911,0.089384,0.895027,12,0.00588673,10,8.00011e-05,-3.04816,0.308954,0.190967,6.69283,0.089384,
2,1,0,1,0,22741.2,0.097182,0.0968641,0.955447,12,0.00659314,10,9.25485e-05,-3.01979,0.187044,0.315434,11.7702,0.0968641,
2,1,0,1,0,22741.9,0.104673,0.104321,1.04805,12,0.00735589,10,0.000109334,-2.97962,0.206946,0.285099,11.6178,0.104321,
2,1,0,1,0,22742.7,0.112164,0.111847,1.12562,12,0.00818443,10,0.000125896,-2.94861,0.287569,0.205168,8.9971,0.1118466,
2,1,0,1,0,22743.4,0.119655,0.119362,1.18489,12,0.00906494,10,0.000141431,-2.92632,0.517188,0.114079,5.2706,0.119362,
2,1,0,1,0,22744.2,0.127146,0.126834,1.22306,12,0.00998204,10,0.000155126,-2.91255,0.52639,0.112084,5.36181,0.126834,
2,1,0,1,0,22744.9,0.134637,0.134299,1.24707,12,0.0109275,10,0.000167479,-2.90411,-0.839941,-0.0702431,-3.41727,0.134299,
2,1,0,1,0,22745.7,0.142127,0.141807,1.1506,12,0.0118499,10,0.000163163,-2.93908,-0.121954,-0.48379,-21.6285,0.141807,
2,1,0,1,0,22746.4,0.149619,0.14929,0.934405,12,0.0126479,10,0.000139497,-3.02946,-0.0702788,-0.839513,-30.5847,0.14929,
2,1,0,1,0,22747.2,0.157109,0.15683,0.743463,12,0.0132843,10,0.000116597,-3.12874,-0.0904216,-0.652499,-19.0159,0.15683,
2,1,0,1,0,22747.9,0.164601,0.164267,0.649121,12,0.0138152,10,0.000106629,-3.18767,-0.15201,-0.388132,-9.84953,0.164267,
2,1,0,1,0,22748.7,0.172091,0.171781,0.595985,12,0.0142935,10,0.000102379,-3.22476,-0.27079,-0.217881,-5.09063,0.171781,
2,1,0,1,0,22749.4,0.179582,0.179278,0.569231,12,0.0147434,10,0.000102051,-3.24471,-0.524204,-0.112552,-2.50918,0.179278,
2,1,0,1,0,22750.2,0.187074,0.186794,0.554474,12,0.015177,10,0.000103573,-3.25612,-1.06028,-0.0556454,-1.19918,0.186794,
2,1,0,1,0,22750.9,0.194564,0.194238,0.54205,12,0.0156002,10,0.000105287,-3.26596,-1.06888,-0.055198,-1.16719,0.194238,
2,1,0,1,0,22751.7,0.202056,0.201764,0.532593,12,0.0160158,10,0.000107458,-3.2736,-0.998995,-0.0590593,-1.22716,0.2017644,
2,1,0,1,0,22752.4,0.209546,0.209252,0.524842,12,0.0164255,10,0.000109824,-3.27997,-1.61,-0.0366459,-0.752406,0.209252,
2,1,0,1,0,22753.2,0.217038,0.216728,0.519472,12,0.0168298,10,0.000112584,-3.28444,-1.34376,-0.0439066,-0.891586,0.216728,
2,1,0,1,0,22753.9,0.224528,0.224231,0.513829,12,0.0172301,10,0.000115216,-3.28918,-2.6061,-0.0226392,-0.454377,0.224231,
2,1,0,1,0,22754.6,0.232019,0.231749,0.508591,12,0.0176262,10,0.000117865,-3.29363,-2.81594,-0.0209522,-0.417251,0.231749,
2,1,0,1,0,22755.4,0.23951,0.239225,0.502819,12,0.0180189,10,0.000120287,-3.29859,-1.27014,-0.0464517,-0.914138,0.239225,
2,1,0,1,0,22756.1,0.247001,0.246699,0.500667,12,0.0184083,10,0.000123514,-3.30045,-2.38545,-0.0247333,-0.482628,0.246699,
2,1,0,1,0,22756.9,0.254492,0.254153,0.495905,12,0.0187947,10,0.000126036,-3.3046,-1.69017,-0.0349077,-0.6761,0.254153,
2,1,0,1,0,22757.6,0.261983,0.261709,0.493809,12,0.0191782,10,0.000129234,-3.30644,-1.58977,-0.0371123,-0.712742,0.261709,
2,1,0,1,0,22758.4,0.269474,0.269168,0.48741,12,0.0195588,10,0.000131195,-3.31211,3.88844,0.0151732,0.289464,0.2691685,
2,1,0,1,0,22759.1,0.276965,0.276693,0.485567,12,0.0199363,10,0.000134353,-3.31375,-2.44681,-0.0241131,-0.45638,0.276693,
2,1,0,1,0,22759.9,0.284456,0.28415,0.478482,12,0.0203107,10,0.000135961,-3.32013,-4.753,-0.0124132,-0.232202,0.28415,
2,1,0,1,0,22760.6,0.291947,0.291659,0.475052,12,0.0206816,10,0.000138553,-3.32326,-1.6765,-0.0351924,-0.654798,0.2916587,
2,1,0,1,0,22761.4,0.299437,0.299154,0.468928,12,0.0210493,10,0.000140282,-3.32889,-0.0019893,-29.6586,-231.948,0.299154,
2,0,0,1,0,22762.1,0.293745,0.293438,-0.0852158,12,0.0210566,10,-2.50056e-05,-4.06948,-0.0184299,-3.20132,10.0294,0.293438,
2,0,0,1,0,22762.8,0.286253,0.285949,-0.13802,12,0.020958,10,-3.94668e-05,-3.86006,-0.0537536,-1.0976,5.9062,0.285949,
2,0,0,1,0,22763.6,0.278763,0.278489,-0.173118,12,0.0208274,10,-4.82115e-05,-3.76166,-0.0958655,-0.615446,4.16341,0.278489,
2,0,0,1,0,22764.3,0.271272,0.270996,-0.199858,12,0.020674,10,-5.41605e-05,-3.69928,-0.162044,-0.364098,2.83905,0.270996,
2,0,0,1,0,22765.1,0.263781,0.263436,-0.224354,12,0.0205017,10,-5.91028e-05,-3.64907,-0.1585,-0.37224,3.25547,0.263436,
2,0,0,1,0,22765.8,0.25629,0.256036,-0.243323,12,0.0203135,10,-6.22995e-05,-3.61382,-0.260953,-0.226094,2.13885,0.256036,
2,0,0,1,0,22766.6,0.248799,0.248508,-0.262689,12,0.0201114,10,-6.52803e-05,-3.58056,-0.303896,-0.194145,1.98004,0.248508,
2,0,0,1,0,22767.3,0.241308,0.240979,-0.275348,12,0.0198972,10,-6.6353e-05,-3.56012,-0.332085,-0.177665,1.91578,0.240979,
2,0,0,1,0,22768.1,0.233817,0.233449,-0.293181,12,0.0196709,10,-6.84426e-05,-3.53286,-0.289964,-0.203474,2.32326,0.233449,
2,0,0,1,0,22768.8,0.226326,0.22608,-0.305887,12,0.019433,10,-6.91548e-05,-3.51444,-0.382834,-0.154114,1.84224,0.22608,
2,0,0,1,0,22769.6,0.218835,0.218548,-0.321446,12,0.0191839,10,-7.02513e-05,-3.49289,-0.291071,-0.2027,2.54709,0.218548,
2,0,0,1,0,22770.3,0.211344,0.211066,-0.336784,12,0.0189237,10,-7.10836e-05,-3.47265,-0.391694,-0.150628,1.9758,0.211066,
2,0,0,1,0,22771.1,0.203854,0.203509,-0.350635,12,0.0186516,10,-7.13575e-05,-3.45514,-0.41594,-0.141847,1.95707,0.203509,
2,0,0,1,0,22771.8,0.196362,0.196031,-0.369605,12,0.0183679,10,-7.2454e-05,-3.43226,-0.374956,-0.157352,2.26944,0.196031,
2,0,0,1,0,22772.6,0.188872,0.188561,-0.388043,12,0.0180708,10,-7.317e-05,-3.41112,-0.277176,-0.212861,3.21705,0.188561,
2,0,0,1,0,22773.3,0.18138,0.18109,-0.409639,12,0.0177593,10,-7.41816e-05,-3.3876,-0.291404,-0.202468,3.23233,0.18109,
2,0,0,1,0,22774.1,0.17389,0.173543,-0.436073,12,0.0174301,10,-7.56772e-05,-3.36044,-0.254699,-0.231646,3.9268,0.173543,
2,0,0,1,0,22774.8,0.166398,0.166084,-0.468711,12,0.0170779,10,-7.78455e-05,-3.3291,-0.215806,-0.273394,5.03849,0.166084,
2,0,0,1,0,22775.6,0.158907,0.158588,-0.519975,12,0.0166943,10,-8.24618e-05,-3.28402,-0.148456,-0.397423,8.09708,0.158588,
2,0,0,1,0,22776.3,0.151417,0.151105,-0.602301,12,0.0162617,10,-9.10107e-05,-3.22019,-0.100533,-0.586871,13.8777,0.151105,
2,0,0,1,0,22777.1,0.143925,0.143633,-0.740586,12,0.0157484,10,-0.000106372,-3.13042,-0.069096,-0.853885,24.6671,0.143633,
2,0,0,1,0,22777.8,0.136435,0.136147,-0.936824,12,0.0151079,10,-0.000127546,-3.02834,-0.0775138,-0.761155,27.7478,0.136147,
2,0,0,1,0,22778.6,0.128943,0.128626,-1.12806,12,0.014318,10,-0.000145098,-2.94767,-0.123754,-0.476752,20.883,0.128626,
2,0,0,1,0,22779.3,0.121453,0.12118,-1.24302,12,0.0134099,10,-0.00015063,-2.90552,-0.327507,-0.180149,8.72483,0.1211803,
2,0,0,1,0,22780.1,0.113962,0.113667,-1.26751,12,0.0124489,10,-0.000144074,-2.89705,2.87686,0.0205085,-1.01577,0.113667,
2,0,0,1,0,22780.8,0.106471,0.106171,-1.24295,12,0.0114902,10,-0.000131966,-2.90555,0.507725,0.116205,-5.65236,0.1061713,
2,0,0,1,0,22781.6,0.0989799,0.0986583,-1.19671,12,0.0105614,10,-0.000118065,-2.92201,0.460911,0.128007,-5.9658,0.0986583,
2,0,0,1,0,22782.3,0.0914889,0.091121,-1.15015,12,0.00966987,10,-0.000104802,-2.93925,0.449065,0.131384,-5.88375,0.091121,
2,0,0,1,0,22783.1,0.083998,0.0836589,-1.10382,12,0.00881323,10,-9.23439e-05,-2.9571,0.357102,0.165219,-7.10198,0.0836589,
2,0,0,1,0,22783.8,0.076507,0.0762169,-1.06614,12,0.00798737,10,-8.12576e-05,-2.97219,0.502022,0.117525,-4.88566,0.0762169,
2,0,0,1,0,22784.5,0.0690161,0.0687326,-1.02689,12,0.00718954,10,-7.05809e-05,-2.98848,0.493404,0.119578,-4.80472,0.0687326,
2,0,0,1,0,22785.3,0.0615251,0.0612058,-0.997886,12,0.00641664,10,-6.10765e-05,-3.00092,0.482896,0.122179,-4.75659,0.0612058,
2,0,0,1,0,22786,0.0540342,0.0536833,-0.962961,12,0.00566901,10,-5.16949e-05,-3.01639,0.505056,0.116819,-4.38439,0.0536833,
2,0,0,1,0,22786.8,0.0465441,0.0462212,-0.925876,12,0.00494685,10,-4.27951e-05,-3.03345,0.549902,0.107292,-3.88447,0.0462212,
2,0,0,1,0,22787.5,0.0390523,0.038722,-0.892087,12,0.00425171,10,-3.45434e-05,-3.04959,0.409752,0.14399,-5.00262,0.038722,
2,0,0,1,0,22788.3,0.0315618,0.0312337,-0.857391,12,0.00358344,10,-2.67795e-05,-3.06682,0.375519,0.157116,-5.2548,0.0312337,
2,0,0,1,0,22789,0.0240704,0.0237554,-0.819971,12,0.00294082,10,-1.94788e-05,-3.0862,0.456535,0.129234,-4.15664,0.0237554,
2,0,0,1,0,22789.8,0.0165796,0.0162416,-0.797628,12,0.00232071,10,-1.29548e-05,-3.0982,0.768585,0.0767644,-2.39271,0.0162416,
2,0,0,1,0,22790.5,0.00908846,0.00877084,-0.782631,12,0.00171606,10,-6.86433e-06,-3.10644,1.4233,0.041453,-1.26392,0.008770844,
2,0,0,1,0,22791.3,0.00159728,0.00124691,-0.787755,12,0.00111757,10,-9.82259e-07,-3.10361, , , ,0.00124691,
2,0,0,1,0,22791.4,0.000199195,-0.000166899,-0.779201,12,0.0010055,10,1.30048e-07,-3.10835, , , ,-0.000166899,