File: Figure_codes/Fig_3-5/rawdata_trumpetplot_data/after 10th/20221101_1-115_003_TrumpetPlot_ParaChange_from10_every3_05_CV_C01_25.csv
mode,ox/red,error,control changes,counter inc.,time/s,control/V,Ewe/V,<I>/mA,cycle number,(Q-Qo)/C,I Range,P/W,log(|I|),Tafel slope mV/dec,alpha_eff,dI/d(E-IR),E-IR/V,
2,0,0,1,0,50373.3,2.44065e-05,-0.000478022,-0.742422,26,0.0000000E+000,10,3.54894e-07,-3.12935, , , ,-0.000478022,
2,1,0,1,0,50373.6,0.00729063,0.00693799,0.64915,26,0.000124106,10,4.5038e-06,-3.18765,0.0416455,1.41672,34.9447,0.00693799,
2,1,0,1,0,50374,0.0147802,0.0144339,0.808812,26,0.000406919,10,1.16743e-05,-3.09215,0.120223,0.490756,15.4363,0.01443386,
2,1,0,1,0,50374.4,0.0222725,0.0219465,0.908076,26,0.000735188,10,1.99291e-05,-3.04188,0.177241,0.33288,11.7872,0.0219465,
2,1,0,1,0,50374.8,0.0297644,0.029437,0.999028,26,0.00109843,10,2.94084e-05,-3.00042,0.190764,0.309283,12.0587,0.029437,
2,1,0,1,0,50375.1,0.0372544,0.036951,1.09076,26,0.00149566,10,4.03048e-05,-2.96227,0.237949,0.247952,10.5599,0.03695102,
2,1,0,1,0,50375.5,0.0447449,0.0444173,1.18062,26,0.00192719,10,5.24401e-05,-2.92789,0.235217,0.250832,11.5544,0.0444173,
2,1,0,1,0,50375.9,0.0522363,0.05192,1.26758,26,0.00239196,10,6.58128e-05,-2.89702,0.247034,0.238834,11.8145,0.05192,
2,1,0,1,0,50376.3,0.0597291,0.0594102,1.3496,26,0.0028879,10,8.01802e-05,-2.86979,0.300399,0.196405,10.3256,0.0594102,
2,1,0,1,0,50376.6,0.0672182,0.0669065,1.41993,26,0.00341178,10,9.50024e-05,-2.84773,0.365317,0.161504,8.93074,0.0669065,
2,1,0,1,0,50377,0.0747092,0.0743611,1.47576,26,0.00395976,10,0.000109739,-2.83098,0.530779,0.111157,6.40283,0.0743611,
2,1,0,1,0,50377.4,0.0822001,0.0818414,1.52562,26,0.0045281,10,0.000124859,-2.81655,0.57442,0.102712,6.11829,0.0818414,
2,1,0,1,0,50377.8,0.0896911,0.0894007,1.58088,26,0.00511495,10,0.000141332,-2.8011,0.416361,0.141704,8.76036,0.0894007,
2,1,0,1,0,50378.1,0.097182,0.0968018,1.66559,26,0.00572809,10,0.000161232,-2.77843,0.23675,0.249208,16.2203,0.0968018,
2,1,0,1,0,50378.5,0.104673,0.104393,1.80662,26,0.0063828,10,0.000188599,-2.74313,0.196073,0.300908,21.1692,0.104393,
2,1,0,1,0,50378.9,0.112164,0.111768,1.95648,26,0.00709337,10,0.000218672,-2.70852,0.242719,0.24308,18.5225,0.111768,
2,1,0,1,0,50379.3,0.119655,0.119312,2.07035,26,0.0078548,10,0.000247017,-2.68396,0.463547,0.127279,10.2721,0.119312,
2,1,0,1,0,50379.6,0.127146,0.126794,2.12506,26,0.00864848,10,0.000269445,-2.67263,0.855169,0.0689922,5.73523,0.126794,
2,1,0,1,0,50380,0.134637,0.134268,2.15487,26,0.00945884,10,0.000289329,-2.66658,-2.75769,-0.0213947,-1.7991,0.1342677,
2,1,0,1,0,50380.4,0.142128,0.141801,2.06491,26,0.0102613,10,0.000292805,-2.6851,-0.188694,-0.312675,-25.0701,0.141801,
2,1,0,1,0,50380.8,0.149619,0.149281,1.76104,26,0.010989,10,0.000262889,-2.75423,-0.083123,-0.709791,-48.6898,0.149281,
2,1,0,1,0,50381.1,0.157108,0.156754,1.41806,26,0.0115871,10,0.000222287,-2.8483,-0.0844076,-0.698989,-38.6917,0.156754,
2,1,0,1,0,50381.5,0.164601,0.164243,1.20228,26,0.012079,10,0.000197466,-2.92,-0.133269,-0.442713,-20.813,0.164243,
2,1,0,1,0,50381.9,0.172092,0.171754,1.08936,26,0.0125122,10,0.000187102,-2.96283,-0.240551,-0.24527,-10.4775,0.171754,
2,1,0,1,0,50382.3,0.179582,0.179289,1.03439,26,0.0129148,10,0.000185455,-2.98532,-0.461612,-0.127813,-5.1697,0.1792893,
2,1,0,1,0,50382.6,0.187073,0.1867,0.999999,26,0.0133011,10,0.0001867,-3,-0.739371,-0.0797976,-3.11671,0.1867,
2,1,0,1,0,50383,0.194564,0.194213,0.979727,26,0.0136772,10,0.000190276,-3.00889,-1.10066,-0.0536044,-2.04812,0.194213,
2,1,0,1,0,50383.4,0.202057,0.201756,0.96476,26,0.0140464,10,0.000194646,-3.01558,-1.01843,-0.0579322,-2.17954,0.2017556,
2,1,0,1,0,50383.8,0.209546,0.209218,0.952368,26,0.0144106,10,0.000199253,-3.0212,-1.01819,-0.057946,-2.15221,0.209218,
2,1,0,1,0,50384.1,0.217037,0.21673,0.940383,26,0.0147707,10,0.00020381,-3.0267,-1.66487,-0.0354381,-1.30351,0.21673,
2,1,0,1,0,50384.5,0.224528,0.224211,0.935203,26,0.0151278,10,0.000209682,-3.02909,-2.83786,-0.0207903,-0.759885,0.224211,
2,1,0,1,0,50384.9,0.232019,0.231686,0.929038,26,0.015482,10,0.000215245,-3.03197,-350.547,-0.000168308,-0.00609703,0.231686,
2,1,0,1,0,50385.3,0.23951,0.239187,0.921638,26,0.0158341,10,0.000220444,-3.03544,-4.33267,-0.0136175,-0.490389,0.239187,
2,1,0,1,0,50385.6,0.247001,0.246705,0.9164,26,0.0161839,10,0.00022608,-3.03791,-1.79957,-0.0327855,-1.17215,0.246705,
2,1,0,1,0,50386,0.254492,0.254126,0.90853,26,0.0165315,10,0.000230881,-3.04166,-2.89781,-0.0203602,-0.72367,0.254126,
2,1,0,1,0,50386.4,0.261983,0.261652,0.90335,26,0.0168769,10,0.000236364,-3.04414,-1.66806,-0.0353703,-1.24997,0.261652,
2,1,0,1,0,50386.7,0.269474,0.269154,0.898225,26,0.0172201,10,0.000241761,-3.04661,116.099,0.000508186,0.0178164,0.2691538,
2,1,0,1,0,50387.1,0.276965,0.276632,0.891846,26,0.0175609,10,0.000246713,-3.04971,-2.18624,-0.0269869,-0.939052,0.276632,
2,1,0,1,0,50387.5,0.284456,0.284121,0.88564,26,0.017899,10,0.000251629,-3.05274,-2.17735,-0.0270971,-0.934296,0.284121,
2,1,0,1,0,50387.9,0.291947,0.2916,0.876318,26,0.0182343,10,0.000255535,-3.05734,-1.41723,-0.0416305,-1.42285,0.2916,
2,1,0,1,0,50388.2,0.299436,0.299097,0.8682,26,0.0185666,10,0.000259676,-3.06138,-0.00419824,-14.0535,-303.511,0.299097,
2,0,0,1,0,50388.6,0.293745,0.293409,-0.169135,26,0.0185982,10,-4.96255e-05,-3.77177,-0.0144683,-4.07789,24.2912,0.293409,
2,0,0,1,0,50389,0.286254,0.285935,-0.278908,26,0.0185057,10,-7.97496e-05,-3.55454,-0.0609201,-0.968482,10.5536,0.2859346,
2,0,0,1,0,50389.3,0.278763,0.278402,-0.34588,26,0.0183816,10,-9.62936e-05,-3.46108,-0.105582,-0.558806,7.54547,0.278402,
2,0,0,1,0,50389.7,0.271272,0.270949,-0.397742,26,0.0182363,10,-0.000107768,-3.4004,-0.132514,-0.445237,6.89199,0.270949,
2,0,0,1,0,50390.1,0.263781,0.26345,-0.437377,26,0.0180742,10,-0.000115227,-3.35914,-0.183488,-0.321547,5.48023,0.26345,
2,0,0,1,0,50390.5,0.25629,0.255985,-0.472449,26,0.0178978,10,-0.00012094,-3.32564,-0.251258,-0.234818,4.32218,0.255985,
2,0,0,1,0,50390.8,0.248799,0.248459,-0.50495,26,0.0177087,10,-0.000125459,-3.29675,-0.314219,-0.187767,3.70695,0.248459,
2,0,0,1,0,50391.2,0.241308,0.240958,-0.532307,26,0.0175084,10,-0.000128263,-3.27384,-0.326785,-0.180547,3.76869,0.2409576,
2,0,0,1,0,50391.6,0.233817,0.233453,-0.562305,26,0.0172975,10,-0.000131272,-3.25003,-0.316392,-0.186478,4.09629,0.233453,
2,0,0,1,0,50392,0.226326,0.225946,-0.587738,26,0.0170764,10,-0.000132797,-3.23082,-0.371556,-0.158792,3.64375,0.225946,
2,0,0,1,0,50392.3,0.218835,0.218476,-0.614763,26,0.0168454,10,-0.000134311,-3.21129,-0.410501,-0.143727,3.43787,0.218476,
2,0,0,1,0,50392.7,0.211344,0.210978,-0.638396,26,0.016605,10,-0.000134687,-3.19491,-0.711792,-0.0828894,2.06635,0.210978,
2,0,0,1,0,50393.1,0.203855,0.203522,-0.662657,26,0.016355,10,-0.000134866,-3.17871,-0.505998,-0.116601,3.03361,0.203522,
2,0,0,1,0,50393.5,0.196362,0.196014,-0.689724,26,0.0160956,10,-0.000135196,-3.16132,-0.442099,-0.133454,3.59437,0.196014,
2,0,0,1,0,50393.8,0.188871,0.188532,-0.719352,26,0.0158255,10,-0.000135621,-3.14306,-0.3182,-0.185418,5.21326,0.188532,
2,0,0,1,0,50394.2,0.18138,0.181078,-0.752818,26,0.0155442,10,-0.000136319,-3.12331,-0.352766,-0.16725,4.90365,0.181078,
2,0,0,1,0,50394.6,0.173891,0.173542,-0.787335,26,0.0152504,10,-0.000136636,-3.10384,-0.292697,-0.201573,6.19705,0.173542,
2,0,0,1,0,50395,0.166398,0.16605,-0.835317,26,0.0149409,10,-0.000138705,-3.07815,-0.333356,-0.176988,5.77355,0.16605,
2,0,0,1,0,50395.3,0.158906,0.158554,-0.896158,26,0.014611,10,-0.000142089,-3.04762,-0.20687,-0.285203,10.0145,0.158554,
2,0,0,1,0,50395.7,0.151417,0.151044,-0.994152,26,0.0142521,10,-0.000150161,-3.00255,-0.141728,-0.416291,16.2035,0.151044,
2,0,0,1,0,50396.1,0.143926,0.14356,-1.15772,26,0.0138457,10,-0.000166201,-2.9364,-0.0918167,-0.642585,29.0643,0.14356,
2,0,0,1,0,50396.5,0.136435,0.136113,-1.40946,26,0.013361,10,-0.000191846,-2.85095,-0.0857835,-0.687778,37.7917,0.136113,
2,0,0,1,0,50396.8,0.128942,0.128636,-1.70013,26,0.0127725,10,-0.000218698,-2.76952,-0.106314,-0.55496,36.7646,0.128636,
2,0,0,1,0,50397.2,0.121453,0.121091,-1.95312,26,0.01208,10,-0.000236506,-2.70927,-0.15943,-0.370069,28.1472,0.121091,
2,0,0,1,0,50397.6,0.113962,0.11364,-2.1151,26,0.011308,10,-0.00024036,-2.67467,-0.366224,-0.161104,13.2951,0.11364,
2,0,0,1,0,50398,0.106471,0.106159,-2.1683,26,0.0104948,10,-0.000230186,-2.66388,12.3073,0.00479392,-0.4059,0.1061594,
2,0,0,1,0,50398.3,0.0989798,0.0986596,-2.13579,26,0.00968014,10,-0.000210716,-2.67044,0.658631,0.0895797,-7.46165,0.09865956,
2,0,0,1,0,50398.7,0.0914889,0.0911983,-2.07364,26,0.00888636,10,-0.000189112,-2.68327,0.577214,0.102215,-8.25658,0.0911983,
2,0,0,1,0,50399.1,0.083998,0.0836792,-2.01167,26,0.00811616,10,-0.000168335,-2.69644,0.599341,0.0984414,-7.72313,0.0836792,
2,0,0,1,0,50399.5,0.076507,0.0761576,-1.9642,26,0.0073657,10,-0.000149589,-2.70681,0.653105,0.0903377,-6.92284,0.0761576,
2,0,0,1,0,50399.8,0.069016,0.0686838,-1.91164,26,0.00663379,10,-0.000131298,-2.71859,0.542311,0.108794,-8.12477,0.0686838,
2,0,0,1,0,50400.2,0.0615251,0.06121,-1.85998,26,0.00592105,10,-0.000113849,-2.73049,0.620195,0.0951314,-6.90985,0.06121,
2,0,0,1,0,50400.6,0.0540342,0.053681,-1.80534,26,0.00522879,10,-9.69125e-05,-2.74344,0.592299,0.0996118,-7.01376,0.053681,
2,0,0,1,0,50401,0.0465432,0.0461939,-1.7467,26,0.00455749,10,-8.06869e-05,-2.75778,0.582212,0.101338,-6.90933,0.0461939,
2,0,0,1,0,50401.3,0.0390523,0.0387144,-1.68364,26,0.00390923,10,-6.51811e-05,-2.77375,0.38608,0.152818,-10.0238,0.0387144,
2,0,0,1,0,50401.7,0.0315626,0.0312137,-1.61732,26,0.00328549,10,-5.04824e-05,-2.7912,0.439935,0.134111,-8.46515,0.0312137,
2,0,0,1,0,50402.1,0.0240704,0.023732,-1.55221,26,0.00268538,10,-3.68371e-05,-2.80905,0.439663,0.134194,-8.14974,0.023732,
2,0,0,1,0,50402.4,0.0165785,0.0162385,-1.50453,26,0.00210673,10,-2.44313e-05,-2.8226,0.721645,0.0817577,-4.80794,0.0162385,
2,0,0,1,0,50402.8,0.00908846,0.00876235,-1.47007,26,0.00154394,10,-1.28813e-05,-2.83266,1.30111,0.045346,-2.60412,0.00876235,
2,0,0,1,0,50403.2,0.0015984,0.00122424,-1.46862,26,0.000990152,10,-1.79795e-06,-2.83309, , , ,0.00122424,
2,0,0,1,0,50403.3,0.000199195,-0.000137991,-1.45679,26,0.000886572,10,2.01023e-07,-2.8366, , , ,-0.000137991,