File: Figure_codes/Fig_3-5/rawdata_trumpetplot_data/after 10th/20221101_1-115_003_TrumpetPlot_ParaChange_from10_every3_06_CV_C01_10.csv
mode,ox/red,error,control changes,counter inc.,time/s,control/V,Ewe/V,<I>/mA,cycle number,(Q-Qo)/C,I Range,P/W,log(|I|),Tafel slope mV/dec,alpha_eff,dI/d(E-IR),E-IR/V,
2,0,0,0,0,20851.3,2.44065e-05,-0.000363498,-1.42806,11,0.0000000E+000,10,5.19099e-07,-2.84525, , , ,-0.000363498,
2,1,0,1,0,20851.5,0.00729063,0.00698716,1.20873,11,9.21802e-05,10,8.44562e-06,-2.91767,0.0314596,1.87542,85.5845,0.00698716,
2,1,0,1,0,20851.7,0.014778,0.0144713,1.57584,11,0.000361902,10,2.28043e-05,-2.80249,0.106388,0.554572,34.1186,0.0144713,
2,1,0,1,0,20851.9,0.0222743,0.021969,1.79705,11,0.000681809,10,3.94794e-05,-2.74544,0.15995,0.368866,25.763,0.021969,
2,1,0,1,0,20852.1,0.0297626,0.0294451,1.97903,11,0.0010381,10,5.82727e-05,-2.70355,0.186227,0.316817,24.5158,0.0294451,
2,1,0,1,0,20852.3,0.0372544,0.0369186,2.16447,11,0.00142932,10,7.9909e-05,-2.66465,0.21566,0.273579,23.0892,0.0369186,
2,1,0,1,0,20852.4,0.0447472,0.044462,2.34266,11,0.00185468,10,0.000104159,-2.63029,0.22101,0.266956,24.427,0.044462,
2,1,0,1,0,20852.6,0.0522345,0.051887,2.51345,11,0.00231291,10,0.000130415,-2.59973,0.241808,0.243995,23.9755,0.051887,
2,1,0,1,0,20852.8,0.0597309,0.0594064,2.67871,11,0.00280276,10,0.000159132,-2.57207,0.29838,0.197734,20.6237,0.0594064,
2,1,0,1,0,20853,0.0672182,0.0669207,2.82468,11,0.00332068,10,0.000189029,-2.54903,0.330122,0.178722,19.678,0.06692066,
2,1,0,1,0,20853.2,0.0747074,0.074387,2.94798,11,0.00386432,10,0.000219292,-2.53048,0.464823,0.12693,14.6116,0.074387,
2,1,0,1,0,20853.4,0.0822019,0.0818962,3.05746,11,0.00443054,10,0.000250395,-2.51464,0.573891,0.102807,12.2572,0.0818962,
2,1,0,1,0,20853.6,0.0896911,0.0893333,3.16696,11,0.00501616,10,0.000282915,-2.49936,0.43242,0.136441,16.9155,0.0893333,
2,1,0,1,0,20853.8,0.097182,0.0968688,3.33315,11,0.00562758,10,0.000322878,-2.47715,0.276259,0.213568,27.817,0.0968688,
2,1,0,1,0,20853.9,0.104675,0.104355,3.58633,11,0.0062773,10,0.000374253,-2.44535,0.203653,0.289708,40.5089,0.104355,
2,1,0,1,0,20854.1,0.112162,0.11184,3.88579,11,0.00697991,10,0.000434588,-2.41052,0.235439,0.250596,38.0046,0.11184,
2,1,0,1,0,20854.3,0.119655,0.119338,4.14457,11,0.0077363,10,0.000494605,-2.38252,0.370861,0.159089,25.6983,0.119338,
2,1,0,1,0,20854.5,0.127146,0.126814,4.30751,11,0.00853156,10,0.000546253,-2.36577,0.54537,0.108184,18.1783,0.126814,
2,1,0,1,0,20854.7,0.134635,0.134291,4.43425,11,0.00935363,10,0.00059548,-2.35318,0.815626,0.072337,12.5269,0.134291,
2,1,0,1,0,20854.9,0.14213,0.141825,4.44226,11,0.0101922,10,0.000630023,-2.3524,-0.57398,-0.102791,-17.728,0.141825,
2,1,0,1,0,20855.1,0.149619,0.149287,4.03675,11,0.0109967,10,0.000602633,-2.39397,-0.110336,-0.534728,-83.9944,0.149287,
2,1,0,1,0,20855.2,0.157106,0.156757,3.29104,11,0.0116873,10,0.000515895,-2.48267,-0.0731409,-0.806662,-103.517,0.156757,
2,1,0,1,0,20855.4,0.164602,0.164262,2.66617,11,0.0122432,10,0.000437951,-2.57411,-0.0947136,-0.62293,-64.8691,0.164262,
2,1,0,1,0,20855.6,0.172091,0.171792,2.29356,11,0.0127075,10,0.000394013,-2.63949,-0.149225,-0.395377,-35.6552,0.171792,
2,1,0,1,0,20855.8,0.179582,0.179281,2.10056,11,0.013121,10,0.00037659,-2.67767,-0.235228,-0.25082,-20.5849,0.179281,
2,1,0,1,0,20856,0.187074,0.18678,1.98652,11,0.0135056,10,0.000371041,-2.70191,-0.457267,-0.129027,-10.0038,0.18678,
2,1,0,1,0,20856.2,0.194563,0.194233,1.91199,11,0.0138728,10,0.000371372,-2.71851,-0.5977,-0.0987117,-7.37967,0.194233,
2,1,0,1,0,20856.4,0.202059,0.201783,1.86654,11,0.0142293,10,0.000376636,-2.72896,-0.67119,-0.0879035,-6.37389,0.201783,
2,1,0,1,0,20856.6,0.209546,0.20923,1.82758,11,0.0145777,10,0.000382385,-2.73812,-0.912306,-0.0646713,-4.61936,0.20923,
2,1,0,1,0,20856.7,0.217035,0.216722,1.79511,11,0.0149199,10,0.00038904,-2.74591,-1.37109,-0.0430313,-3.0236,0.216722,
2,1,0,1,0,20856.9,0.22453,0.224237,1.77761,11,0.0152577,10,0.000398607,-2.75016,-2.2035,-0.0267756,-1.85141,0.224237,
2,1,0,1,0,20857.1,0.232019,0.231708,1.75562,11,0.0155912,10,0.000406791,-2.75557,-2.07484,-0.028436,-1.94999,0.231708,
2,1,0,1,0,20857.3,0.23951,0.239241,1.73761,11,0.0159213,10,0.000415708,-2.76005,-1.55905,-0.0378436,-2.56771,0.239241,
2,1,0,1,0,20857.5,0.247003,0.24675,1.72504,11,0.0162483,10,0.000425653,-2.7632,-1.90698,-0.030939,-2.07545,0.24675,
2,1,0,1,0,20857.7,0.25449,0.25417,1.70464,11,0.0165722,10,0.000433269,-2.76837,-1.15031,-0.0512906,-3.41921,0.25417,
2,1,0,1,0,20857.9,0.261983,0.261663,1.69148,11,0.0168933,10,0.000442598,-2.77173,-1.6743,-0.0352386,-2.32359,0.2616635,
2,1,0,1,0,20858.1,0.269474,0.26917,1.67562,11,0.0172117,10,0.000451026,-2.77583,-2.64215,-0.0223303,-1.46326,0.26917,
2,1,0,1,0,20858.2,0.276963,0.276692,1.66098,11,0.0175272,10,0.000459579,-2.77964,-1.53718,-0.0383819,-2.49056,0.276692,
2,1,0,1,0,20858.4,0.284458,0.284132,1.64915,11,0.01784,10,0.000468578,-2.78274,-2.31628,-0.0254719,-1.63322,0.284132,
2,1,0,1,0,20858.6,0.291947,0.291628,1.62654,11,0.0181496,10,0.000474343,-2.78874,-1.27754,-0.0461827,-2.93789,0.291628,
2,1,0,1,0,20858.8,0.299434,0.299145,1.61186,11,0.0184561,10,0.000482181,-2.79267,-0.014147,-4.1705,-220.62,0.299145,
2,0,0,1,0,20859,0.294196,0.293876,-0.338042,11,0.0184907,10,-9.93426e-05,-3.47103,-0.0118309,-4.98694,57.601,0.293876,
2,0,0,1,0,20859.2,0.286701,0.286419,-0.56746,11,0.0183984,10,-0.000162531,-3.24607,-0.0615839,-0.958043,21.4255,0.286419,
2,0,0,1,0,20859.3,0.279212,0.278904,-0.705088,11,0.0182749,10,-0.000196652,-3.15176,-0.113137,-0.521492,14.1727,0.278904,
2,0,0,1,0,20859.5,0.271725,0.271419,-0.792567,11,0.0181312,10,-0.000215118,-3.10096,-0.144147,-0.409305,12.7222,0.271419,
2,0,0,1,0,20859.7,0.264228,0.263917,-0.870703,11,0.0179712,10,-0.000229793,-3.06013,-0.220544,-0.26752,9.12552,0.263917,
2,0,0,1,0,20859.9,0.256741,0.256437,-0.937935,11,0.0177986,10,-0.000240521,-3.02783,-0.227833,-0.258961,9.43315,0.256437,
2,0,0,1,0,20860.1,0.249248,0.248926,-0.991209,11,0.0176144,10,-0.000246738,-3.00383,-0.314583,-0.18755,7.27858,0.248926,
2,0,0,1,0,20860.3,0.241756,0.24145,-1.04396,11,0.0174198,10,-0.000252064,-2.98132,-0.365188,-0.161561,6.59486,0.24145,
2,0,0,1,0,20860.5,0.234268,0.233969,-1.09651,11,0.0172158,10,-0.00025655,-2.95999,-0.424929,-0.138847,5.94087,0.233969,
2,0,0,1,0,20860.7,0.226772,0.226495,-1.1434,11,0.0170025,10,-0.000258975,-2.9418,-0.339117,-0.173981,7.78597,0.226495,
2,0,0,1,0,20860.8,0.219284,0.218981,-1.1978,11,0.0167806,10,-0.000262295,-2.92162,-0.405891,-0.145359,6.74419,0.218981,
2,0,0,1,0,20861,0.211796,0.211478,-1.23668,11,0.0165501,10,-0.000261529,-2.90774,-0.542675,-0.108721,5.24609,0.211478,
2,0,0,1,0,20861.2,0.204301,0.203991,-1.28381,11,0.0163104,10,-0.000261885,-2.8915,-0.885633,-0.066619,3.35605,0.2039911,
2,0,0,1,0,20861.4,0.196812,0.196478,-1.33279,11,0.0160623,10,-0.000261864,-2.87524,-0.416675,-0.141597,7.36534,0.1964782,
2,0,0,1,0,20861.6,0.189321,0.188963,-1.38618,11,0.0158043,10,-0.000261938,-2.85818,-0.437838,-0.134753,7.30632,0.188963,
2,0,0,1,0,20861.8,0.181828,0.181483,-1.44865,11,0.0155354,10,-0.000262905,-2.83904,-0.358835,-0.164421,9.29688,0.181483,
2,0,0,1,0,20862,0.174341,0.174056,-1.52416,11,0.0152538,10,-0.00026529,-2.81697,-0.305755,-0.192965,11.4834,0.174056,
2,0,0,1,0,20862.1,0.166848,0.166534,-1.62911,11,0.0149556,10,-0.000271303,-2.78805,-0.244088,-0.241716,15.3778,0.166534,
2,0,0,1,0,20862.3,0.159357,0.159028,-1.76726,11,0.0146351,10,-0.000281042,-2.7527,-0.181386,-0.325272,22.4704,0.159028,
2,0,0,1,0,20862.5,0.151868,0.151553,-1.98848,11,0.0142813,10,-0.000301359,-2.70148,-0.123746,-0.476784,37.1097,0.151553,
2,0,0,1,0,20862.7,0.144373,0.144103,-2.34998,11,0.0138734,10,-0.000338639,-2.62894,-0.0882607,-0.668474,61.7737,0.144103,
2,0,0,1,0,20862.9,0.136884,0.13659,-2.91656,11,0.0133789,10,-0.000398372,-2.53513,-0.0800147,-0.737365,83.7892,0.13659,
2,0,0,1,0,20863.1,0.129393,0.129076,-3.54829,11,0.0127702,10,-0.000458,-2.44998,-0.101755,-0.579825,80.0685,0.129076,
2,0,0,1,0,20863.3,0.1219,0.121563,-4.06705,11,0.0120515,10,-0.000494403,-2.39072,-0.16198,-0.364242,57.6861,0.121563,
2,0,0,1,0,20863.5,0.114413,0.114089,-4.39829,11,0.0112527,10,-0.000501796,-2.35672,-0.348017,-0.169532,29.0126,0.114089,
2,0,0,1,0,20863.6,0.10692,0.106612,-4.51543,11,0.0104119,10,-0.000481398,-2.3453,-3.65668,-0.0161348,2.84209,0.1066117,
2,0,0,1,0,20863.8,0.0994284,0.099076,-4.45188,11,0.00956582,10,-0.000441074,-2.35146,0.57709,0.102237,-17.7459,0.099076,
2,0,0,1,0,20864,0.0919401,0.0916151,-4.26083,11,0.00874597,10,-0.000390357,-2.37051,0.349882,0.168628,-28.027,0.0916151,
2,0,0,1,0,20864.2,0.0844447,0.0841371,-4.05593,11,0.00796366,10,-0.000341254,-2.39191,0.410001,0.143902,-22.8204,0.08413709,
2,0,0,1,0,20864.4,0.0769565,0.0766506,-3.91329,11,0.00721549,10,-0.000299956,-2.40746,0.516093,0.11432,-17.4443,0.0766506,
2,0,0,1,0,20864.6,0.0694682,0.0691363,-3.80214,11,0.00649066,10,-0.000262866,-2.41997,0.646618,0.091244,-13.5415,0.0691363,
2,0,0,1,0,20864.8,0.0619728,0.0616936,-3.70069,11,0.00578376,10,-0.000228309,-2.43172,0.593592,0.0993949,-14.3903,0.0616936,
2,0,0,1,0,20865,0.0544836,0.0541662,-3.60495,11,0.00509623,10,-0.000195267,-2.4431,0.720482,0.0818896,-11.5115,0.0541662,
2,0,0,1,0,20865.1,0.0469927,0.0466526,-3.49566,11,0.00442757,10,-0.000163082,-2.45647,0.538548,0.109554,-14.9399,0.0466526,
2,0,0,1,0,20865.3,0.0394999,0.0391767,-3.38777,11,0.00377987,10,-0.000132722,-2.47009,0.495763,0.119008,-15.7003,0.0391767,
2,0,0,1,0,20865.5,0.0320125,0.0316959,-3.24898,11,0.00315576,10,-0.000102979,-2.48825,0.408195,0.144539,-18.3116,0.0316959,
2,0,0,1,0,20865.7,0.0245198,0.02419,-3.10693,11,0.00255678,10,-7.51567e-05,-2.50767,0.394648,0.1495,-18.179,0.02419,
2,0,0,1,0,20865.9,0.0170289,0.0167183,-2.9869,11,0.00198279,10,-4.99358e-05,-2.52478,0.471715,0.125076,-14.5956,0.0167183,
2,0,0,1,0,20866.1,0.0095397,0.00921561,-2.8879,11,0.00143013,10,-2.66137e-05,-2.53942,0.7344,0.0803377,-9.04456,0.00921561,
2,0,0,1,0,20866.3,0.00204518,0.00167441,-2.85563,11,0.000892161,10,-4.78151e-06,-2.5443,1.83945,0.0320748,-3.54605,0.00167441,
2,0,0,1,0,20866.3,0.000177222,-0.00016499,-2.82592,11,0.000758729,10,4.66248e-07,-2.54884, , , ,-0.00016499,