File: Figure_codes/Fig_3-5/rawdata_trumpetplot_data/after 10th/20221101_1-115_003_TrumpetPlot_ParaChange_from10_every3_07_CV_C01_4.csv
mode,ox/red,error,control changes,counter inc.,time/s,control/V,Ewe/V,<I>/mA,cycle number,(Q-Qo)/C,I Range,P/W,log(|I|),Tafel slope mV/dec,alpha_eff,dI/d(E-IR),E-IR/V,
2,0,0,0,0,9045.54,2.44065e-05,-0.000306236,-2.71539,5,0.0000000E+000,10,8.31552e-07,-2.56617, , , ,-0.000306236,
2,1,0,1,0,9045.66,0.007288,0.00700622,1.7259,5,5.7544e-05,10,1.20921e-05,-2.76298,0.0247924,2.37976,153.089,0.00700622,
2,1,0,1,0,9045.79,0.0147816,0.0145055,2.33997,5,0.000321031,10,3.39425e-05,-2.63079,0.100976,0.584296,53.2658,0.0145055,
2,1,0,1,0,9045.91,0.0222712,0.0220138,2.66128,5,0.00063632,10,5.8585e-05,-2.57491,0.1564,0.377237,39.1058,0.0220138,
2,1,0,1,0,9046.04,0.0297648,0.0294795,2.94321,5,0.000988113,10,8.67646e-05,-2.53118,0.182854,0.322663,36.9099,0.0294795,
2,1,0,1,0,9046.16,0.0372518,0.0369437,3.20557,5,0.00137371,10,0.000118425,-2.4941,0.205288,0.287402,36.0503,0.0369437,
2,1,0,1,0,9046.29,0.0447467,0.0444458,3.47438,5,0.0017939,10,0.000154422,-2.45912,0.235902,0.250104,33.9945,0.0444458,
2,1,0,1,0,9046.41,0.052235,0.0519332,3.75091,5,0.00224736,10,0.000194797,-2.42586,0.239575,0.246269,36.0159,0.0519332,
2,1,0,1,0,9046.53,0.0597299,0.0594408,4.0024,5,0.00273358,10,0.000237906,-2.39768,0.259082,0.227727,35.5222,0.0594408,
2,1,0,1,0,9046.66,0.0672156,0.0668879,4.23768,5,0.00324983,10,0.00028345,-2.37287,0.31362,0.188126,31.1001,0.0668879,
2,1,0,1,0,9046.78,0.0747105,0.0743719,4.45444,5,0.00379495,10,0.000331285,-2.35121,0.417962,0.141161,24.5369,0.0743719,
2,1,0,1,0,9046.91,0.0821988,0.0818866,4.64685,5,0.00436518,10,0.000380514,-2.33284,0.440871,0.133826,24.2729,0.08188659,
2,1,0,1,0,9047.03,0.0896937,0.0893388,4.84753,5,0.00496029,10,0.000433073,-2.31448,0.372645,0.158327,29.9935,0.0893388,
2,1,0,1,0,9047.16,0.0971794,0.0969067,5.10845,5,0.00558292,10,0.000495043,-2.29171,0.264221,0.223298,44.6073,0.0969067,
2,1,0,1,0,9047.28,0.104674,0.104381,5.49254,5,0.00624608,10,0.000573315,-2.26023,0.214962,0.274467,58.9055,0.104381,
2,1,0,1,0,9047.41,0.112163,0.111833,5.96499,5,0.00696245,10,0.000667083,-2.22439,0.22535,0.261815,60.8298,0.111833,
2,1,0,1,0,9047.53,0.119657,0.119367,6.39868,5,0.00773694,10,0.000763794,-2.19391,0.307049,0.192152,47.8776,0.119367,
2,1,0,1,0,9047.66,0.127143,0.126818,6.69693,5,0.00855741,10,0.00084929,-2.17412,0.418826,0.14087,36.9004,0.126818,
2,1,0,1,0,9047.78,0.134638,0.134346,6.96283,5,0.009414,10,0.000935431,-2.15721,0.545888,0.108081,29.4101,0.134346,
2,1,0,1,0,9047.91,0.142126,0.141863,7.11337,5,0.0102973,10,0.00100912,-2.14792,-4.40913,-0.0133813,-3.70327,0.141863,
2,1,0,1,0,9048.03,0.149621,0.149303,6.76071,5,0.0111731,10,0.00100939,-2.17001,-0.156919,-0.37599,-98.5964,0.149303,
2,1,0,1,0,9048.16,0.157107,0.156851,5.67904,5,0.0119564,10,0.000890763,-2.24573,-0.0768383,-0.767846,-169.919,0.156851,
2,1,0,1,0,9048.28,0.164602,0.164335,4.52942,5,0.0125924,10,0.000744344,-2.34396,-0.0809982,-0.728411,-129.223,0.164335,
2,1,0,1,0,9048.41,0.17209,0.171819,3.8064,5,0.0131109,10,0.000654011,-2.41949,-0.11493,-0.513357,-76.4819,0.171819,
2,1,0,1,0,9048.53,0.179585,0.179285,3.37713,5,0.0135597,10,0.000605468,-2.47145,-0.174351,-0.338397,-44.6816,0.179285,
2,1,0,1,0,9048.66,0.187072,0.186772,3.09886,5,0.0139647,10,0.000578779,-2.5088,-0.27351,-0.215714,-26.1304,0.186772,
2,1,0,1,0,9048.78,0.194566,0.194217,2.91439,5,0.0143417,10,0.000566024,-2.53545,-0.343227,-0.171898,-19.6052,0.194217,
2,1,0,1,0,9048.91,0.202055,0.201777,2.79431,5,0.0146994,10,0.000563827,-2.55373,-0.410918,-0.143581,-15.6236,0.201777,
2,1,0,1,0,9049.03,0.209549,0.209262,2.70815,5,0.0150445,10,0.000566712,-2.56733,-0.513355,-0.11493,-12.1215,0.209262,
2,1,0,1,0,9049.16,0.217036,0.216705,2.63533,5,0.0153797,10,0.000571088,-2.57917,-1.01165,-0.0583208,-6.01285,0.216705,
2,1,0,1,0,9049.28,0.224529,0.224229,2.58358,5,0.0157083,10,0.000579313,-2.58778,-1.15458,-0.0511007,-5.17716,0.224229,
2,1,0,1,0,9049.41,0.232019,0.231732,2.55179,5,0.0160313,10,0.000591332,-2.59316,-0.977816,-0.0603386,-6.0088,0.231732,
2,1,0,1,0,9049.53,0.239513,0.239227,2.52905,5,0.0163502,10,0.000605018,-2.59704,-1.11307,-0.0530065,-5.21121,0.239227,
2,1,0,1,0,9049.66,0.247001,0.24669,2.49813,5,0.0166652,10,0.000616265,-2.60238,-1.63307,-0.0361282,-3.51084,0.24669,
2,1,0,1,0,9049.78,0.254493,0.254204,2.46041,5,0.0169772,10,0.000625446,-2.60899,-1.44959,-0.0407011,-3.92649,0.2542035,
2,1,0,1,0,9049.91,0.261983,0.261699,2.44007,5,0.0172858,10,0.000638565,-2.6126,-0.961869,-0.0613389,-5.85378,0.2616989,
2,1,0,1,0,9050.03,0.269477,0.2692,2.42164,5,0.0175917,10,0.000651907,-2.61589,-2.40578,-0.0245243,-2.31448,0.2692,
2,1,0,1,0,9050.16,0.276965,0.276688,2.39807,5,0.0178945,10,0.000663517,-2.62014,-4.59248,-0.0128471,-1.20151,0.276688,
2,1,0,1,0,9050.28,0.284457,0.284166,2.37082,5,0.0181945,10,0.000673708,-2.6251,-1.8162,-0.0324853,-3.01502,0.284166,
2,1,0,1,0,9050.41,0.291947,0.291613,2.34426,5,0.0184911,10,0.000683617,-2.62999,-0.661749,-0.0891577,-8.1722,0.291613,
2,1,0,1,0,9050.53,0.29944,0.299164,2.32776,5,0.018785,10,0.000696382,-2.63306,-0.00482497,-12.228,-742.378,0.299164,
2,0,0,1,0,9050.64,0.293742,0.293416,-0.688996,5,0.0188024,10,-0.000202162,-3.16178,-0.0199886,-2.95168,73.1547,0.293416,
2,0,0,1,0,9050.77,0.286254,0.285939,-0.976306,5,0.0186935,10,-0.000279164,-3.01041,-0.0784807,-0.751778,28.7398,0.285939,
2,0,0,1,0,9050.89,0.278761,0.278455,-1.14644,5,0.0185574,10,-0.000319233,-2.94065,-0.146685,-0.402222,18.0889,0.278455,
2,0,0,1,0,9051.02,0.271272,0.270952,-1.27892,5,0.0184033,10,-0.000346525,-2.89316,-0.212497,-0.277651,13.8265,0.270952,
2,0,0,1,0,9051.14,0.263778,0.263487,-1.38463,5,0.0182348,10,-0.000364832,-2.85867,-0.258541,-0.228204,12.2476,0.263487,
2,0,0,1,0,9051.27,0.25629,0.255939,-1.47079,5,0.0180548,10,-0.000376434,-2.83245,-0.279134,-0.211368,12.0766,0.255939,
2,0,0,1,0,9051.39,0.248797,0.248482,-1.53827,5,0.0178642,10,-0.000382232,-2.81297,-0.397032,-0.148603,8.97734,0.248482,
2,0,0,1,0,9051.52,0.241308,0.241005,-1.61682,5,0.0176644,10,-0.000389662,-2.79134,-0.565751,-0.104286,6.59829,0.241005,
2,0,0,1,0,9051.64,0.233814,0.233505,-1.6951,5,0.0174556,10,-0.000395814,-2.77081,-0.409388,-0.144118,9.49417,0.233505,
2,0,0,1,0,9051.77,0.226326,0.226064,-1.75734,5,0.0172385,10,-0.000397271,-2.75514,-0.379722,-0.155377,10.6243,0.226064,
2,0,0,1,0,9051.89,0.218834,0.218557,-1.81609,5,0.0170129,10,-0.000396918,-2.74086,-0.395632,-0.149129,10.6312,0.218557,
2,0,0,1,0,9052.02,0.211344,0.21106,-1.88653,5,0.0167793,10,-0.000398171,-2.72434,-0.671523,-0.08786,6.47857,0.21106,
2,0,0,1,0,9052.14,0.203856,0.203517,-1.9646,5,0.0165368,10,-0.00039983,-2.70672,-0.544042,-0.108447,8.29281,0.203517,
2,0,0,1,0,9052.27,0.196362,0.196062,-2.03676,5,0.0162852,10,-0.000399331,-2.69106,-0.394323,-0.149624,11.8879,0.196062,
2,0,0,1,0,9052.39,0.18887,0.188545,-2.11922,5,0.0160232,10,-0.000399568,-2.67382,-0.322022,-0.183217,15.2148,0.188545,
2,0,0,1,0,9052.52,0.18138,0.18113,-2.23109,5,0.0157493,10,-0.000404117,-2.65148,-0.32943,-0.179097,15.6348,0.18113,
2,0,0,1,0,9052.64,0.173892,0.17354,-2.375,5,0.0154602,10,-0.000412157,-2.62434,-0.282318,-0.208984,19.3141,0.17354,
2,0,0,1,0,9052.77,0.166398,0.166105,-2.56208,5,0.0151509,10,-0.000425574,-2.59141,-0.193432,-0.305017,30.4745,0.166105,
2,0,0,1,0,9052.89,0.158905,0.158625,-2.82809,5,0.0148129,10,-0.000448606,-2.54851,-0.138819,-0.425013,47.1151,0.158625,
2,0,0,1,0,9053.02,0.151417,0.151067,-3.26709,5,0.0144317,10,-0.000493549,-2.48584,-0.108762,-0.54247,69.4223,0.151067,
2,0,0,1,0,9053.14,0.143927,0.143611,-3.95616,5,0.0139817,10,-0.000568149,-2.40273,-0.0802811,-0.734917,113.558,0.143611,
2,0,0,1,0,9053.27,0.136435,0.13616,-4.90867,5,0.0134278,10,-0.000668362,-2.30904,-0.0811781,-0.726797,139.017,0.13616,
2,0,0,1,0,9053.39,0.128941,0.128656,-5.91046,5,0.012749,10,-0.000760416,-2.22838,-0.105444,-0.559539,128.83,0.128656,
2,0,0,1,0,9053.52,0.121453,0.121167,-6.69442,5,0.0119565,10,-0.000811144,-2.17429,-0.190343,-0.309967,80.8427,0.121167,
2,0,0,1,0,9053.64,0.113963,0.113681,-7.14526,5,0.0110869,10,-0.000812281,-2.14598,-0.4655,-0.126745,35.2791,0.113681,
2,0,0,1,0,9053.76,0.106471,0.106175,-7.26794,5,0.0101815,10,-0.000771671,-2.13859,4.47133,0.0131952,-3.73526,0.106175,
2,0,0,1,0,9053.89,0.0989825,0.0986816,-7.09985,5,0.00927997,10,-0.000700624,-2.14875,0.451392,0.130707,-36.1731,0.0986816,
2,0,0,1,0,9054.01,0.0914889,0.0911911,-6.71655,5,0.00841327,10,-0.00061249,-2.17285,0.287585,0.205157,-53.8422,0.0911911,
2,0,0,1,0,9054.14,0.0839993,0.0836496,-6.3045,5,0.00759891,10,-0.000527368,-2.20035,0.276455,0.213416,-52.4777,0.0836496,
2,0,0,1,0,9054.26,0.076507,0.0761807,-5.99707,5,0.00683041,10,-0.000456861,-2.22206,0.387414,0.152292,-35.6035,0.0761807,
2,0,0,1,0,9054.39,0.0690187,0.0687178,-5.77309,5,0.00609478,10,-0.000396714,-2.23859,0.53653,0.109966,-24.8005,0.06871777,
2,0,0,1,0,9054.51,0.0615251,0.0612006,-5.59766,5,0.00538163,10,-0.00034258,-2.25199,0.54035,0.109188,-23.9147,0.0612006,
2,0,0,1,0,9054.64,0.0540355,0.0537294,-5.43689,5,0.00469013,10,-0.000292121,-2.26465,0.558466,0.105646,-22.4148,0.0537294,
2,0,0,1,0,9054.76,0.0465432,0.0462962,-5.2654,5,0.00401959,10,-0.000243768,-2.27857,0.488497,0.120779,-24.7656,0.0462962,
2,0,0,1,0,9054.89,0.0390549,0.0387404,-5.06469,5,0.00337286,10,-0.000196208,-2.29545,0.412302,0.143099,-28.2574,0.0387404,
2,0,0,1,0,9055.01,0.0315613,0.0312361,-4.8306,5,0.0027522,10,-0.000150889,-2.316,0.355551,0.16594,-31.322,0.0312361,
2,0,0,1,0,9055.14,0.0240717,0.0237595,-4.58567,5,0.00216148,10,-0.000108953,-2.3386,0.330342,0.178603,-32.0572,0.0237595,
2,0,0,1,0,9055.26,0.0165781,0.0162729,-4.38376,5,0.00159923,10,-7.13363e-05,-2.35815,0.378575,0.155848,-26.631,0.0162729,
2,0,0,1,0,9055.39,0.00909108,0.00879741,-4.22183,5,0.00106099,10,-3.71412e-05,-2.3745,0.615615,0.0958391,-15.7733,0.00879741,
2,0,0,1,0,9055.51,0.00159616,0.001237,-4.15637,5,0.000538486,10,-5.14142e-06,-2.38129, , , ,0.001237,
2,0,0,1,0,9055.54,0.000199195,-0.000168808,-4.11705,5,0.000441599,10,6.94989e-07,-2.38541, , , ,-0.000168808,