File: Figure_codes/Fig_3-5/rawdata_trumpetplot_data/after 10th/20221101_1-115_003_TrumpetPlot_ParaChange_from10_every3_12_CV_C01_32.csv
mode,ox/red,error,control changes,counter inc.,time/s,control/V,Ewe/V,<I>/mA,cycle number,(Q-Qo)/C,I Range,P/W,log(|I|),Tafel slope mV/dec,alpha_eff,dI/d(E-IR),E-IR/V,
2,1,0,1,0,64240.7,2.44065e-05,-0.000248974,13.7852,33,0.0000000E+000,10,-3.43216e-06,-1.86059, , , ,-0.000248974,
2,1,0,1,0,64240.7,0.0104008,0.010038,16.7997,33,0.000266377,10,0.000168636,-1.7747,0.181468,0.325127,212.055,0.010038,
2,1,0,1,0,64240.7,0.0212099,0.0208499,18.7761,33,0.000587469,10,0.000391481,-1.72639,0.264764,0.22284,162.885,0.0208499,
2,1,0,1,0,64240.7,0.0320052,0.0316724,20.3828,33,0.000940471,10,0.000645573,-1.69074,0.34038,0.173336,137.725,0.03167244,
2,1,0,1,0,64240.8,0.0428033,0.0424409,21.7926,33,0.00132042,10,0.000924897,-1.66169,0.406261,0.145227,123.417,0.0424409,
2,1,0,1,0,64240.8,0.0535986,0.0532411,23.0723,33,0.0017245,10,0.00122839,-1.63691,0.460532,0.128113,115.336,0.0532411,
2,1,0,1,0,64240.8,0.0644077,0.0640795,24.311,33,0.00215122,10,0.00155784,-1.6142,0.49731,0.118638,112.53,0.0640795,
2,1,0,1,0,64240.8,0.075203,0.0748617,25.5411,33,0.00259999,10,0.00191205,-1.59276,0.514827,0.114602,114.197,0.0748617,
2,1,0,1,0,64240.8,0.0860011,0.0856132,26.7709,33,0.00307079,10,0.00229194,-1.57234,0.535715,0.110133,115.034,0.0856132,
2,1,0,1,0,64240.9,0.0968075,0.0963997,28.0258,33,0.00356402,10,0.00270168,-1.55244,0.55878,0.105587,115.439,0.0963997,
2,1,0,1,0,64240.9,0.107606,0.107208,29.2939,33,0.00407991,10,0.00314056,-1.53322,0.56076,0.105214,120.27,0.107208,
2,1,0,1,0,64240.9,0.118401,0.118063,30.61,33,0.004619,10,0.0036139,-1.51414,0.563878,0.104633,125.005,0.1180627,
2,1,0,1,0,64240.9,0.129207,0.128788,31.9749,33,0.00518232,10,0.00411797,-1.49519,0.544603,0.108336,135.299,0.128788,
2,1,0,1,0,64240.9,0.140005,0.139637,33.5251,33,0.00577173,10,0.00468133,-1.47463,0.526662,0.112026,146.576,0.139637,
2,1,0,1,0,64240.9,0.150803,0.150414,35.089,33,0.00638958,10,0.00527786,-1.45483,0.573868,0.102811,140.763,0.150414,
2,1,0,1,0,64241,0.161604,0.161213,36.5502,33,0.00703472,10,0.00589237,-1.43711,0.662589,0.0890447,126.95,0.161213,
2,1,0,1,0,64241,0.172405,0.172079,37.8241,33,0.00770462,10,0.00650873,-1.42223,0.841164,0.0701409,103.424,0.172079,
2,1,0,1,0,64241,0.183203,0.18285,38.7403,33,0.00839448,10,0.00708367,-1.41184,1.49805,0.0393846,59.459,0.18285,
2,1,0,1,0,64241,0.194001,0.193578,39.093,33,0.00909585,10,0.00756755,-1.4079,26.3473,0.00223932,3.41024,0.193578,
2,1,0,1,0,64241,0.204808,0.204455,38.8079,33,0.00979787,10,0.00793447,-1.41108,-1.61803,-0.036464,-55.1346,0.204455,
2,1,0,1,0,64241.1,0.215603,0.21525,37.9046,33,0.0104891,10,0.00815897,-1.42131,-0.796584,-0.0740662,-109.395,0.21525,
2,1,0,1,0,64241.1,0.226401,0.226046,36.4416,33,0.0111587,10,0.00823748,-1.4384,-0.541508,-0.108955,-154.788,0.226046,
2,1,0,1,0,64241.1,0.237207,0.236908,34.6044,33,0.0117984,10,0.00819805,-1.46087,-0.441925,-0.133507,-180.192,0.236908,
2,1,0,1,0,64241.1,0.248005,0.247705,32.6207,33,0.0124033,10,0.00808031,-1.48651,-0.411395,-0.143414,-182.566,0.247705,
2,1,0,1,0,64241.1,0.258801,0.258445,30.6631,33,0.0129725,10,0.0079247,-1.51338,-0.406532,-0.14513,-173.76,0.258445,
2,1,0,1,0,64241.1,0.26961,0.269225,28.871,33,0.0135079,10,0.00777279,-1.53954,-0.418236,-0.141069,-159.012,0.269225,
2,1,0,1,0,64241.2,0.280405,0.280066,27.2736,33,0.0140127,10,0.00763841,-1.56426,-0.455121,-0.129636,-138.066,0.280066,
2,1,0,1,0,64241.2,0.291203,0.290867,25.8981,33,0.0144909,10,0.0075329,-1.58673,-0.49925,-0.118177,-119.518,0.290867,
2,1,0,0,0,64241.2,0.300012,0.29967,24.8992,33,0.0148641,10,0.00746155,-1.60381,0.00299653,19.6895,17409.6,0.29967,
2,1,0,1,0,64241.2,0.290842,0.290576,14.7644,33,0.0151548,10,0.00429018,-1.83078,0.0434327,1.35842,788.797,0.290576,
2,1,0,1,0,64241.2,0.280047,0.27973,7.93549,33,0.0153545,10,0.0022198,-2.10043,0.0345116,1.70957,523.866,0.27973,
2,1,0,1,0,64241.2,0.269244,0.268951,3.08395,33,0.015451,10,0.000829431,-2.51089,0.016819,3.50794,384.97,0.268951,
2,0,0,1,0,64241.3,0.258443,0.258132,-0.551789,33,0.015472,10,-0.000142434,-3.25823,-0.0320978,-1.83813,295.885,0.258132,
2,0,0,1,0,64241.3,0.247645,0.247318,-3.37849,33,0.0154354,10,-0.000835561,-2.47128,-0.0315102,-1.87241,234.077,0.247318,
2,0,0,1,0,64241.3,0.236849,0.236518,-5.64489,33,0.0153531,10,-0.00133511,-2.24834,-0.0675743,-0.873113,189.601,0.236518,
2,0,0,1,0,64241.3,0.22604,0.225737,-7.51425,33,0.0152339,10,-0.00169625,-2.12411,-0.10978,-0.537437,156.471,0.225737,
2,0,0,1,0,64241.3,0.215245,0.214922,-9.07667,33,0.015084,10,-0.00195078,-2.04207,-0.154162,-0.382715,135.077,0.214922,
2,0,0,1,0,64241.4,0.204447,0.204067,-10.4282,33,0.014908,10,-0.00212804,-1.98179,-0.203649,-0.289715,117.624,0.204067,
2,0,0,1,0,64241.4,0.19364,0.193285,-11.6233,33,0.0147094,10,-0.00224661,-1.93467,-0.257675,-0.228971,103.608,0.193285,
2,0,0,1,0,64241.4,0.182842,0.182492,-12.6922,33,0.0144904,10,-0.00231622,-1.89646,-0.299662,-0.196888,97.4039,0.182492,
2,0,0,1,0,64241.4,0.172047,0.171677,-13.709,33,0.0142527,10,-0.00235352,-1.86299,-0.335999,-0.175596,93.8977,0.171677,
2,0,0,1,0,64241.4,0.161241,0.160916,-14.7405,33,0.0139967,10,-0.00237198,-1.83149,-0.349898,-0.168621,96.9459,0.160916,
2,0,0,1,0,64241.4,0.150443,0.150067,-15.8498,33,0.0137216,10,-0.00237852,-1.79998,-0.329371,-0.179129,110.874,0.150067,
2,0,0,1,0,64241.5,0.139645,0.139307,-17.1881,33,0.0134246,10,-0.00239442,-1.76477,-0.277848,-0.212346,142.805,0.139307,
2,0,0,1,0,64241.5,0.128849,0.128546,-18.958,33,0.0130997,10,-0.00243697,-1.72221,-0.231365,-0.255008,189.209,0.128546,
2,0,0,1,0,64241.5,0.118043,0.117759,-21.2865,33,0.012738,10,-0.00250669,-1.6719,-0.207405,-0.284468,236.546,0.117759,
2,0,0,1,0,64241.5,0.107245,0.106928,-23.982,33,0.0123305,10,-0.00256436,-1.62011,-0.214753,-0.274734,257.054,0.106928,
2,0,0,1,0,64241.5,0.0964468,0.0961695,-26.7356,33,0.0118736,10,-0.00257115,-1.57291,-0.250362,-0.235659,245.428,0.0961695,
2,0,0,1,0,64241.6,0.0856404,0.0853757,-29.3008,33,0.011369,10,-0.00250158,-1.53312,-0.297145,-0.198557,226.501,0.0853757,
2,0,0,1,0,64241.6,0.0748451,0.0745606,-31.5489,33,0.0108206,10,-0.00235231,-1.50102,-0.384902,-0.153286,188.343,0.0745606,
2,0,0,1,0,64241.6,0.0640471,0.0637975,-33.3451,33,0.0102357,10,-0.00212733,-1.47697,-0.522096,-0.113006,146.851,0.0637975,
2,0,0,1,0,64241.6,0.0532407,0.0529453,-34.7446,33,0.00962239,10,-0.00183956,-1.45911,-0.715378,-0.0824739,111.661,0.0529453,
2,0,0,1,0,64241.6,0.0424426,0.0421323,-35.757,33,0.00898731,10,-0.00150652,-1.44664,-1.04422,-0.0565013,78.7703,0.0421323,
2,0,0,1,0,64241.6,0.0316473,0.0313586,-36.4495,33,0.00833692,10,-0.00114301,-1.43831,-1.56659,-0.0376614,53.5454,0.0313586,
2,0,0,1,0,64241.7,0.0208437,0.0205276,-36.8832,33,0.00767654,10,-0.000757122,-1.43317,-2.9828,-0.0197801,28.4566,0.0205276,
2,0,0,1,0,64241.7,0.0100429,0.00967749,-37.0806,33,0.00701048,10,-0.000358847,-1.43085,-10.7448,-0.00549102,7.94239,0.00967749,
2,0,0,1,0,64241.7,-0.000755207,-0.00115562,-37.1025,33,0.00634254,10,4.28764e-05,-1.4306,11.1786,0.00527795,-7.63564,-0.00115562,
2,0,0,1,0,64241.7,-0.0115505,-0.0119145,-36.8669,33,0.00567651,10,0.000439251,-1.43336,2.71195,0.0217556,-31.2949,-0.0119145,
2,0,0,1,0,64241.7,-0.0223597,-0.022736,-36.4631,33,0.00501628,10,0.000829023,-1.43815,1.85619,0.0317855,-45.2135,-0.022736,
2,0,0,1,0,64241.7,-0.033155,-0.0335245,-35.944,33,0.00436459,10,0.00120501,-1.44437,1.6634,0.0354696,-49.7485,-0.0335245,
2,0,0,1,0,64241.8,-0.043953,-0.0443566,-35.3903,33,0.0037227,10,0.00156979,-1.45112,1.6,0.036875,-50.9308,-0.0443566,
2,0,0,1,0,64241.8,-0.0547594,-0.0550964,-34.8902,33,0.00309041,10,0.00192232,-1.4573,1.84777,0.0319304,-43.4754,-0.0550964,
2,0,0,1,0,64241.8,-0.0655575,-0.0659518,-34.4777,33,0.0024664,10,0.00227387,-1.46246,2.64491,0.022307,-30.0232,-0.0659518,
2,0,0,1,0,64241.8,-0.0763528,-0.0767372,-34.1942,33,0.00184861,10,0.00262397,-1.46605,4.32307,0.0136477,-18.2219,-0.0767372,
2,0,0,1,0,64241.8,-0.0871592,-0.0875162,-34.0566,33,0.00123458,10,0.0029805,-1.4678,11.0881,0.00532102,-7.07549,-0.0875162,
2,0,0,1,0,64241.9,-0.0979573,-0.0982847,-34.0435,33,0.000621765,10,0.00334596,-1.46797,14.8671,0.0039685,-5.26884,-0.0982847,
2,0,0,1,1,64241.9,-0.0955546,-0.0959889,-26.7866,33,0.000278355,10,0.00257122,-1.57208,-0.0476467,-1.23828,1319.84,-0.0959889,
2,0,0,1,1,64241.9,-0.0847538,-0.0851462,-16.5786,33,-0.000103876,10,0.0014116,-1.78045,-0.0492828,-1.19717,774.039,-0.0851462,
2,0,0,1,1,64241.9,-0.0739557,-0.0743746,-9.35355,33,-0.000333738,10,0.000695667,-2.02902,-0.0359111,-1.64294,590.126,-0.0743746,
2,0,0,1,1,64241.9,-0.0631604,-0.0635479,-3.64492,33,-0.000448323,10,0.000231627,-2.43831,-0.015531,-3.79885,475.628,-0.06354785,
2,1,0,1,1,64241.9,-0.0523512,-0.0527667,1.05924,33,-0.000469807,10,-5.58928e-05,-2.975,0.0195655,3.01551,396.911,-0.0527667,
2,1,0,1,1,64242,-0.0415559,-0.0420248,4.99345,33,-0.000414017,10,-0.000209849,-2.3016,0.0324171,1.82003,337.601,-0.0420248,
2,1,0,1,1,64242,-0.0307579,-0.0311991,8.34718,33,-0.000292915,10,-0.000260424,-2.07846,0.0664942,0.887295,284.461,-0.0311991,
2,1,0,1,1,64242,-0.0199515,-0.0203882,11.2059,33,-0.000116046,10,-0.000228469,-1.95055,0.105165,0.561021,243.313,-0.0203882,
2,1,0,1,1,64242,-0.0091534,-0.00954662,13.6296,33,0.000108249,10,-0.000130116,-1.86552,0.151035,0.390638,206.794,-0.00954662,
2,1,0,0,1,64242,-7.54729e-05,-0.000382585,15.3326,33,0.000327663,10,-5.86605e-06,-1.81438, , , ,-0.000382585,