File: Figure_codes/Fig_3-5/rawdata_trumpetplot_data/after 10th/20221101_1-115_003_TrumpetPlot_ParaChange_from10_every3_06_CV_C01_11.csv
mode,ox/red,error,control changes,counter inc.,time/s,control/V,Ewe/V,<I>/mA,cycle number,(Q-Qo)/C,I Range,P/W,log(|I|),Tafel slope mV/dec,alpha_eff,dI/d(E-IR),E-IR/V,
2,0,0,0,0,22821.5,2.44065e-05,-0.000268062,-1.41598,12,0.0000000E+000,10,3.7957e-07,-2.84894, , , ,-0.000268062,
2,1,0,1,0,22821.6,0.00729063,0.00698648,1.31694,12,0.000111357,10,9.20077e-06,-2.88043,0.0353405,1.66947,82.6913,0.00698648,
2,1,0,1,0,22821.8,0.014778,0.0144881,1.66133,12,0.000398537,10,2.40696e-05,-2.77954,0.116251,0.507524,32.8885,0.0144881,
2,1,0,1,0,22822,0.0222743,0.0219678,1.86387,12,0.000733448,10,4.09451e-05,-2.72958,0.162918,0.362146,26.368,0.0219678,
2,1,0,1,0,22822.2,0.0297626,0.0294879,2.05352,12,0.00110322,10,6.0554e-05,-2.6875,0.203802,0.289497,23.0626,0.0294879,
2,1,0,1,0,22822.4,0.0372544,0.0369145,2.22594,12,0.00150704,10,8.21694e-05,-2.65249,0.212554,0.277576,24.1918,0.0369145,
2,1,0,1,0,22822.6,0.0447472,0.0444196,2.40734,12,0.0019447,10,0.000106933,-2.61846,0.243389,0.24241,22.7764,0.0444196,
2,1,0,1,0,22822.8,0.0522345,0.0519352,2.57925,12,0.00241486,10,0.000133954,-2.58851,0.255908,0.230552,23.1975,0.0519352,
2,1,0,1,0,22822.9,0.0597309,0.0594052,2.73874,12,0.00291693,10,0.000162696,-2.56245,0.291126,0.202661,21.6875,0.0594052,
2,1,0,1,0,22823.1,0.0672182,0.0669263,2.89026,12,0.00344709,10,0.000193434,-2.53906,0.365129,0.161587,18.1711,0.0669263,
2,1,0,1,0,22823.3,0.0747074,0.0743746,3.01244,12,0.00400274,10,0.000224049,-2.52108,0.471977,0.125006,14.6857,0.0743746,
2,1,0,1,0,22823.5,0.0822019,0.0819092,3.11441,12,0.00458128,10,0.000255098,-2.50662,0.546061,0.108046,13.1747,0.08190915,
2,1,0,1,0,22823.7,0.0896911,0.0893796,3.24364,12,0.00517927,10,0.000289915,-2.48897,0.45458,0.12979,16.3958,0.0893796,
2,1,0,1,0,22823.9,0.097182,0.0968727,3.39897,12,0.00580326,10,0.000329267,-2.46865,0.265834,0.221943,29.5336,0.09687265,
2,1,0,1,0,22824.1,0.104675,0.104385,3.66509,12,0.00646659,10,0.000382583,-2.43591,0.206136,0.286219,40.9402,0.104385,
2,1,0,1,0,22824.3,0.112162,0.111826,3.97514,12,0.00718476,10,0.000444524,-2.40065,0.22969,0.256868,39.7735,0.111826,
2,1,0,1,0,22824.4,0.119655,0.11936,4.23556,12,0.00795832,10,0.000505555,-2.37309,0.383594,0.153808,25.4043,0.11936,
2,1,0,1,0,22824.6,0.127146,0.126839,4.39495,12,0.00877137,10,0.000557453,-2.35705,0.542551,0.108745,18.662,0.126839,
2,1,0,1,0,22824.8,0.134635,0.134314,4.52567,12,0.00961064,10,0.00060786,-2.34432,0.998252,0.0591033,10.4263,0.1343139,
2,1,0,1,0,22825,0.14213,0.14186,4.50386,12,0.0104645,10,0.000638919,-2.34641,-0.465537,-0.126735,-22.2373,0.14186,
2,1,0,1,0,22825.2,0.149619,0.149336,4.07659,12,0.0112792,10,0.000608781,-2.3897,-0.106986,-0.551475,-87.3133,0.149336,
2,1,0,1,0,22825.4,0.157106,0.1568,3.30404,12,0.011974,10,0.000518074,-2.48096,-0.0747723,-0.789063,-101.722,0.1568,
2,1,0,1,0,22825.6,0.164602,0.164304,2.67738,12,0.012533,10,0.000439906,-2.57229,-0.0940029,-0.62764,-65.7679,0.164304,
2,1,0,1,0,22825.8,0.172091,0.171758,2.31087,12,0.0129999,10,0.000396912,-2.63622,-0.141236,-0.41774,-37.7515,0.171758,
2,1,0,1,0,22825.9,0.179582,0.179278,2.1014,12,0.0134149,10,0.000376733,-2.67749,-0.224621,-0.262665,-21.6441,0.179278,
2,1,0,1,0,22826.1,0.187074,0.186772,1.98136,12,0.0137997,10,0.000370062,-2.70304,-0.415665,-0.141941,-10.9743,0.186772,
2,1,0,1,0,22826.3,0.194563,0.194272,1.90999,12,0.0141663,10,0.000371057,-2.71897,-0.547542,-0.107754,-8.01348,0.194272,
2,1,0,1,0,22826.5,0.202059,0.201753,1.85766,12,0.0145217,10,0.000374789,-2.73103,-0.639837,-0.092211,-6.67519,0.201753,
2,1,0,1,0,22826.7,0.209546,0.209291,1.81811,12,0.0148688,10,0.000380513,-2.74038,-0.719267,-0.082028,-5.81534,0.209291,
2,1,0,1,0,22826.9,0.217035,0.216725,1.78658,12,0.0152097,10,0.000387197,-2.74798,-1.08263,-0.0544969,-3.8125,0.216725,
2,1,0,1,0,22827.1,0.22453,0.224238,1.76868,12,0.0155464,10,0.000396604,-2.75235,-1.1308,-0.0521754,-3.60386,0.224238,
2,1,0,1,0,22827.3,0.232019,0.231684,1.75499,12,0.0158788,10,0.000406605,-2.75572,-2.23473,-0.0264013,-1.80029,0.231684,
2,1,0,1,0,22827.4,0.23951,0.239225,1.73134,12,0.0162082,10,0.000414181,-2.76162,-2.40938,-0.0244876,-1.6567,0.239225,
2,1,0,1,0,22827.6,0.247003,0.246688,1.72245,12,0.0165346,10,0.000424907,-2.76385,-1.34192,-0.0439669,-2.94736,0.246688,
2,1,0,1,0,22827.8,0.25449,0.254179,1.7052,12,0.016858,10,0.000433424,-2.76823,-1.62842,-0.0362314,-2.40216,0.254179,
2,1,0,1,0,22828,0.261983,0.261715,1.6861,12,0.0171787,10,0.000441277,-2.77312,-1.71617,-0.0343789,-2.27017,0.261715,
2,1,0,1,0,22828.2,0.269474,0.269208,1.67561,12,0.0174967,10,0.000451088,-2.77583,-5.1934,-0.0113606,-0.742802,0.269208,
2,1,0,1,0,22828.4,0.276963,0.276642,1.6593,12,0.017812,10,0.000459033,-2.78007,-2.51992,-0.0234135,-1.51412,0.276642,
2,1,0,1,0,22828.6,0.284458,0.284137,1.64247,12,0.0181246,10,0.000466687,-2.7845,-1.85478,-0.0318096,-2.0426,0.284137,
2,1,0,1,0,22828.8,0.291947,0.291652,1.62811,12,0.018434,10,0.000474841,-2.78832,-1.61479,-0.0365373,-2.31335,0.291652,
2,1,0,1,0,22828.9,0.299434,0.29918,1.61172,12,0.0187402,10,0.000482195,-2.79271,-0.0131099,-4.5004,-233.872,0.29918,
2,0,0,1,0,22829.1,0.294196,0.293879,-0.400125,12,0.0187648,10,-0.000117588,-3.3978,-0.0150975,-3.90794,55.6156,0.293879,
2,0,0,1,0,22829.3,0.286701,0.286398,-0.627332,12,0.018661,10,-0.000179667,-3.2025,-0.0753134,-0.783393,19.1012,0.286398,
2,0,0,1,0,22829.5,0.279212,0.278932,-0.75063,12,0.0185272,10,-0.000209375,-3.12457,-0.124833,-0.472632,13.9736,0.278932,
2,0,0,1,0,22829.7,0.271725,0.2714,-0.845473,12,0.0183739,10,-0.000229461,-3.0729,-0.146203,-0.40355,13.2071,0.2714,
2,0,0,1,0,22829.8,0.264228,0.263921,-0.916451,12,0.0182053,10,-0.00024187,-3.03789,-0.233472,-0.252707,9.02491,0.263921,
2,0,0,1,0,22830,0.256741,0.256404,-0.974449,12,0.0180242,10,-0.000249853,-3.01124,-0.276477,-0.213399,8.15157,0.256404,
2,0,0,1,0,22830.2,0.249248,0.248928,-1.03742,12,0.017832,10,-0.000258243,-2.98404,-0.33781,-0.174655,7.0267,0.248928,
2,0,0,1,0,22830.4,0.241756,0.241416,-1.08433,12,0.0176297,10,-0.000261776,-2.96484,-0.501827,-0.11757,4.99613,0.241416,
2,0,0,1,0,22830.6,0.234268,0.233947,-1.12967,12,0.0174183,10,-0.000264283,-2.94705,-0.384957,-0.153264,6.8174,0.233947,
2,0,0,1,0,22830.8,0.226772,0.226434,-1.18362,12,0.0171977,10,-0.000268013,-2.92679,-0.311366,-0.189488,8.69025,0.226434,
2,0,0,1,0,22831,0.219284,0.218936,-1.228,12,0.0169688,10,-0.000268852,-2.9108,-0.479273,-0.123103,5.89406,0.218936,
2,0,0,1,0,22831.2,0.211796,0.211498,-1.27263,12,0.0167314,10,-0.000269159,-2.8953,-0.646535,-0.0912557,4.52847,0.211498,
2,0,0,1,0,22831.3,0.204301,0.203948,-1.32569,12,0.0164849,10,-0.000270372,-2.87756,-0.631669,-0.0934033,4.80995,0.203948,
2,0,0,1,0,22831.5,0.196812,0.196504,-1.36391,12,0.01623,10,-0.000268013,-2.86521,-0.433715,-0.136034,7.27872,0.196504,
2,0,0,1,0,22831.7,0.189321,0.189004,-1.41837,12,0.0159651,10,-0.000268079,-2.84821,-0.510954,-0.11547,6.40312,0.189004,
2,0,0,1,0,22831.9,0.181828,0.181463,-1.48851,12,0.0156895,10,-0.000270109,-2.82725,-0.336469,-0.17535,10.1565,0.181463,
2,0,0,1,0,22832.1,0.174341,0.174049,-1.56447,12,0.0154006,10,-0.000272294,-2.80563,-0.287028,-0.205555,12.5733,0.174049,
2,0,0,1,0,22832.3,0.166848,0.166541,-1.67119,12,0.0150948,10,-0.00027832,-2.77697,-0.24551,-0.240316,15.6219,0.166541,
2,0,0,1,0,22832.5,0.159357,0.159045,-1.81788,12,0.0147657,10,-0.000289124,-2.74044,-0.175484,-0.336212,23.8788,0.159045,
2,0,0,1,0,22832.7,0.151868,0.151552,-2.04627,12,0.0144019,10,-0.000310116,-2.68904,-0.118517,-0.497819,39.9513,0.151552,
2,0,0,1,0,22832.8,0.144373,0.144017,-2.43583,12,0.0139808,10,-0.000350801,-2.61335,-0.084964,-0.694412,66.0762,0.144017,
2,0,0,1,0,22833,0.136884,0.136585,-3.01136,12,0.0134692,10,-0.000411306,-2.52124,-0.0792638,-0.74435,87.6453,0.136585,
2,0,0,1,0,22833.2,0.129393,0.129032,-3.658,12,0.0128396,10,-0.000471998,-2.43676,-0.101463,-0.581494,82.8721,0.1290316,
2,0,0,1,0,22833.4,0.1219,0.121593,-4.18984,12,0.0120985,10,-0.000509455,-2.3778,-0.170991,-0.345048,56.1895,0.121593,
2,0,0,1,0,22833.6,0.114413,0.114062,-4.50474,12,0.0112777,10,-0.000513821,-2.34633,-0.368623,-0.160055,28.1263,0.114062,
2,0,0,1,0,22833.8,0.10692,0.106598,-4.61348,12,0.0104168,10,-0.000491786,-2.33597,-27.4743,-0.00214746,0.385978,0.106598,
2,0,0,1,0,22834,0.0994284,0.0991007,-4.52074,12,0.00955491,10,-0.000448009,-2.34479,0.477867,0.123465,-21.7606,0.0991007,
2,0,0,1,0,22834.2,0.0919401,0.0916467,-4.31117,12,0.00872353,10,-0.000395104,-2.36541,0.338096,0.174507,-29.3826,0.0916467,
2,0,0,1,0,22834.3,0.0844447,0.0841217,-4.10709,12,0.00793168,10,-0.000345495,-2.38647,0.410356,0.143777,-23.0287,0.0841217,
2,0,0,1,0,22834.5,0.0769565,0.0766385,-3.95624,12,0.00717462,10,-0.0003032,-2.40272,0.513806,0.114829,-17.738,0.0766385,
2,0,0,1,0,22834.7,0.0694682,0.0691499,-3.83791,12,0.0064416,10,-0.000265392,-2.4159,0.630162,0.0936267,-14.0491,0.0691499,
2,0,0,1,0,22834.9,0.0619728,0.0616297,-3.73836,12,0.00572773,10,-0.000230394,-2.42732,0.545084,0.10824,-15.7707,0.0616297,
2,0,0,1,0,22835.1,0.0544836,0.0541656,-3.62639,12,0.00503475,10,-0.000196425,-2.44053,0.605826,0.0973876,-13.7903,0.0541656,
2,0,0,1,0,22835.3,0.0469927,0.0466519,-3.51544,12,0.00436218,10,-0.000164002,-2.45402,0.551086,0.107061,-14.6667,0.0466519,
2,0,0,1,0,22835.5,0.0394999,0.0391704,-3.38957,12,0.00371237,10,-0.000132771,-2.46986,0.468001,0.126068,-16.6371,0.0391704,
2,0,0,1,0,22835.7,0.0320125,0.031708,-3.24369,12,0.00308775,10,-0.000102851,-2.48896,0.358906,0.164388,-20.849,0.031708,
2,0,0,1,0,22835.8,0.0245198,0.0242153,-3.10307,12,0.00248971,10,-7.51417e-05,-2.50821,0.364161,0.162016,-19.6062,0.0242153,
2,0,0,1,0,22836,0.0170289,0.0166834,-2.97373,12,0.00191737,10,-4.96119e-05,-2.5267,0.453104,0.130213,-15.1348,0.0166834,
2,0,0,1,0,22836.2,0.0095397,0.00921868,-2.87449,12,0.00136629,10,-2.6499e-05,-2.54144,0.703391,0.0838794,-9.42079,0.00921868,
2,0,0,1,0,22836.4,0.00204518,0.00165464,-2.86261,12,0.000829278,10,-4.73661e-06,-2.54324,2.34392,0.0251715,-2.77203,0.001654645,
2,0,0,1,0,22836.4,0.000177222,-0.000203546,-2.81633,12,0.000695839,10,5.73254e-07,-2.55032, , , ,-0.000203546,