File: Figure_codes/Fig_3-5/rawdata_trumpetplot_data/after 10th/20221101_1-115_003_TrumpetPlot_ParaChange_from10_every3_11_CV_C01_12.csv
mode,ox/red,error,control changes,counter inc.,time/s,control/V,Ewe/V,<I>/mA,cycle number,(Q-Qo)/C,I Range,P/W,log(|I|),Tafel slope mV/dec,alpha_eff,dI/d(E-IR),E-IR/V,
2,1,0,1,0,24836.1,2.44065e-05,-0.000344411,9.92065,13,0.0000000E+000,10,-3.41678e-06,-2.00346, , , ,-0.000344411,
2,1,0,1,0,24836.1,0.0101427,0.00976869,13.8067,13,0.000307332,10,0.000134874,-1.85991,0.124501,0.473893,253.793,0.00976869,
2,1,0,1,0,24836.1,0.0205441,0.0201798,15.9056,13,0.000695645,10,0.000320971,-1.79845,0.22148,0.266389,165.093,0.0201798,
2,1,0,1,0,24836.2,0.0309482,0.0305866,17.4108,13,0.00112978,10,0.000532538,-1.75918,0.304973,0.19346,131.366,0.0305866,
2,1,0,1,0,24836.2,0.0413439,0.0410083,18.6755,13,0.00159924,10,0.000765849,-1.72873,0.38196,0.154467,112.442,0.04100826,
2,1,0,1,0,24836.2,0.0517425,0.0513727,19.8333,13,0.0021,10,0.00101889,-1.7026,0.406862,0.145012,112.333,0.0513727,
2,1,0,1,0,24836.2,0.0621438,0.0617562,21.0231,13,0.00263133,10,0.00129831,-1.6773,0.416416,0.141685,116.281,0.0617562,
2,1,0,1,0,24836.3,0.0725479,0.0721524,22.2573,13,0.00319388,10,0.00160592,-1.65253,0.421179,0.140083,121.587,0.0721524,
2,1,0,1,0,24836.3,0.0829437,0.0825645,23.4873,13,0.00378875,10,0.00193922,-1.62917,0.468515,0.12593,115.432,0.0825645,
2,1,0,1,0,24836.3,0.0933422,0.093,24.7325,13,0.00441545,10,0.00230012,-1.60673,0.460787,0.128042,123.585,0.093,
2,1,0,1,0,24836.3,0.103749,0.103395,25.9639,13,0.00507473,10,0.00268454,-1.58563,0.511724,0.115297,116.82,0.103395,
2,1,0,1,0,24836.4,0.114148,0.113791,27.2102,13,0.00576576,10,0.00309628,-1.56527,0.489559,0.120517,127.944,0.113791,
2,1,0,1,0,24836.4,0.124543,0.124161,28.6142,13,0.00649117,10,0.00355277,-1.54342,0.448405,0.131578,147.021,0.124161,
2,1,0,1,0,24836.4,0.134942,0.134577,30.254,13,0.00725647,10,0.00407151,-1.51922,0.417857,0.141197,166.822,0.134577,
2,1,0,1,0,24836.4,0.145349,0.145032,31.9846,13,0.00806588,10,0.00463879,-1.49506,0.462696,0.127514,158.993,0.145032,
2,1,0,1,0,24836.5,0.155747,0.155402,33.4996,13,0.00891763,10,0.0052059,-1.47496,0.589781,0.100037,130.647,0.155402,
2,1,0,1,0,24836.5,0.166143,0.165815,34.5944,13,0.00980419,10,0.00573627,-1.46099,1.0856,0.0543478,73.3235,0.165815,
2,1,0,1,0,24836.5,0.176542,0.176221,34.8424,13,0.0107097,10,0.00613996,-1.45789,-1.91323,-0.0308378,-41.8405,0.176221,
2,1,0,1,0,24836.6,0.186949,0.186654,33.6035,13,0.0116029,10,0.00627224,-1.47361,-0.385432,-0.153075,-200.235,0.186654,
2,1,0,1,0,24836.6,0.197347,0.197009,30.7867,13,0.0124425,10,0.00606525,-1.51164,-0.218406,-0.27014,-324.122,0.197009,
2,1,0,1,0,24836.6,0.207743,0.207427,27.2053,13,0.0131964,10,0.00564312,-1.56535,-0.182652,-0.323018,-342.764,0.2074274,
2,1,0,1,0,24836.6,0.218141,0.217829,23.8624,13,0.0138586,10,0.00519792,-1.62229,-0.1915,-0.308094,-287.245,0.217829,
2,1,0,1,0,24836.7,0.228548,0.22823,21.2727,13,0.0144434,10,0.00485507,-1.67218,-0.229279,-0.257328,-213.87,0.22823,
2,1,0,1,0,24836.7,0.238947,0.238616,19.3955,13,0.0149705,10,0.00462807,-1.7123,-0.29052,-0.203084,-153.834,0.238616,
2,1,0,1,0,24836.7,0.249343,0.249047,18.0456,13,0.0154562,10,0.00449421,-1.74363,-0.377248,-0.156396,-110.234,0.249047,
2,1,0,1,0,24836.7,0.259741,0.259423,17.0573,13,0.0159118,10,0.00442507,-1.76809,-0.47814,-0.123395,-82.1926,0.259423,
2,1,0,1,0,24836.8,0.270148,0.269849,16.3041,13,0.016345,10,0.00439966,-1.7877,-0.613364,-0.0961908,-61.2604,0.2698493,
2,1,0,1,0,24836.8,0.280547,0.28023,15.7177,13,0.016761,10,0.00440457,-1.80361,-0.712894,-0.0827612,-50.7608,0.2802296,
2,1,0,1,0,24836.8,0.290942,0.290619,15.2232,13,0.017163,10,0.00442417,-1.81749,-0.810166,-0.0728245,-43.2766,0.290619,
2,1,0,0,0,24836.8,0.300012,0.299689,14.855,13,0.0175044,10,0.00445188,-1.82813,0.000991383,59.5128,29631,0.2996892,
2,1,0,1,0,24836.9,0.290704,0.290399,3.57221,13,0.0176915,10,0.00103736,-2.44706,0.0108908,5.4174,711.864,0.2903989,
2,0,0,1,0,24836.9,0.280305,0.279999,-1.54873,13,0.0177094,10,-0.000433645,-2.81002,-0.00738487,-7.9893,344.268,0.279999,
2,0,0,1,0,24836.9,0.269909,0.269596,-4.28812,13,0.0176299,10,-0.00115606,-2.36773,-0.0480292,-1.22842,201.943,0.269596,
2,0,0,1,0,24836.9,0.2595,0.259203,-5.99124,13,0.0174947,10,-0.00155295,-2.22248,-0.102798,-0.573943,133.249,0.259203,
2,0,0,1,0,24837,0.249104,0.248758,-7.15811,13,0.0173229,10,-0.00178064,-2.1452,-0.175777,-0.335653,93.5099,0.248758,
2,0,0,1,0,24837,0.238705,0.238415,-8.03856,13,0.0171248,10,-0.00191651,-2.09482,-0.243394,-0.242405,76.0702,0.2384146,
2,0,0,1,0,24837,0.22831,0.228013,-8.75922,13,0.016906,10,-0.00199722,-2.05753,-0.31328,-0.18833,64.3899,0.228013,
2,0,0,1,0,24837,0.2179,0.217619,-9.39857,13,0.0166697,10,-0.00204531,-2.02694,-0.384272,-0.153537,56.2052,0.217619,
2,0,0,1,0,24837.1,0.207504,0.207178,-9.94545,13,0.0164181,10,-0.00206048,-2.00238,-0.437455,-0.134871,52.4171,0.207178,
2,0,0,1,0,24837.1,0.197106,0.196765,-10.493,13,0.0161522,10,-0.00206466,-1.9791,-0.441808,-0.133542,54.7284,0.196765,
2,0,0,1,0,24837.1,0.18671,0.186373,-11.0436,13,0.0158721,10,-0.00205823,-1.95689,-0.465664,-0.126701,54.5728,0.186373,
2,0,0,1,0,24837.1,0.1763,0.175967,-11.6422,13,0.0155773,10,-0.00204865,-1.93396,-0.441317,-0.133691,60.7528,0.175967,
2,0,0,1,0,24837.2,0.165905,0.165531,-12.3457,13,0.0152658,10,-0.00204359,-1.90848,-0.379536,-0.155453,74.9625,0.165531,
2,0,0,1,0,24837.2,0.155506,0.155189,-13.2767,13,0.0149333,10,-0.0020604,-1.87691,-0.284077,-0.20769,107.714,0.155189,
2,0,0,1,0,24837.2,0.145105,0.144832,-14.6202,13,0.0145716,10,-0.00211747,-1.83505,-0.214052,-0.275634,157.625,0.1448316,
2,0,0,1,0,24837.2,0.134701,0.134401,-16.657,13,0.0141665,10,-0.00223872,-1.7784,-0.162142,-0.363879,237.018,0.134401,
2,0,0,1,0,24837.3,0.124305,0.124019,-19.4995,13,0.0136977,10,-0.00241831,-1.70998,-0.149741,-0.394013,299.923,0.124019,
2,0,0,1,0,24837.3,0.113906,0.113614,-22.7314,13,0.0131487,10,-0.00258261,-1.64337,-0.170582,-0.345874,306.237,0.113614,
2,0,0,1,0,24837.3,0.103505,0.103206,-25.8032,13,0.0125173,10,-0.00266305,-1.58833,-0.210379,-0.280446,281.957,0.1032064,
2,0,0,1,0,24837.4,0.0931008,0.0928271,-28.445,13,0.0118105,10,-0.00264046,-1.54599,-0.288789,-0.204301,226.536,0.0928271,
2,0,0,1,0,24837.4,0.0827051,0.0824246,-30.4703,13,0.0110431,10,-0.0025115,-1.51612,-0.434452,-0.135803,161.234,0.0824246,
2,0,0,1,0,24837.4,0.0723065,0.0719636,-31.7447,13,0.0102323,10,-0.00228446,-1.49833,-0.916514,-0.0643743,79.6738,0.0719636,
2,0,0,1,0,24837.4,0.0618997,0.0615992,-32.2025,13,0.00939916,10,-0.00198365,-1.49211,-6.87631,-0.00858018,10.7775,0.0615992,
2,0,0,1,0,24837.5,0.0515011,0.0511988,-32.0852,13,0.00856258,10,-0.00164272,-1.4937,2.46292,0.0239553,-29.9647,0.0511988,
2,0,0,1,0,24837.5,0.0411053,0.0407697,-31.6693,13,0.00773361,10,-0.00129115,-1.49936,1.5303,0.0385545,-47.6525,0.04076967,
2,0,0,1,0,24837.5,0.0307068,0.0303862,-31.1574,13,0.00691668,10,-0.000946753,-1.50644,1.39449,0.0423093,-51.4699,0.03038617,
2,0,0,1,0,24837.5,0.0202999,0.0199793,-30.602,13,0.00611379,10,-0.000611407,-1.51425,1.18665,0.0497197,-59.3219,0.0199793,
2,0,0,1,0,24837.6,0.00990136,0.00958736,-29.886,13,0.00532742,10,-0.000286527,-1.52453,0.868976,0.067896,-79.1244,0.00958736,
2,0,0,1,0,24837.6,-0.000494411,-0.000906427,-28.9721,13,0.00456215,10,2.62611e-05,-1.53802,0.682344,0.0864667,-97.6567,-0.000906427,
2,0,0,1,0,24837.6,-0.010893,-0.0112655,-27.8167,13,0.00382383,10,0.00031337,-1.55569,0.567912,0.103889,-112.778,-0.0112655,
2,0,0,1,0,24837.6,-0.0212998,-0.0216543,-26.6592,13,0.00311608,10,0.000577288,-1.57415,0.581012,0.101547,-105.628,-0.0216543,
2,0,0,1,0,24837.7,-0.0316984,-0.0320898,-25.6808,13,0.00243642,10,0.000824093,-1.59039,0.747446,0.0789354,-79.1428,-0.0320898,
2,0,0,1,0,24837.7,-0.0420942,-0.0424956,-25.0138,13,0.00177803,10,0.00106297,-1.60182,1.1542,0.0511176,-49.9584,-0.04249559,
2,0,0,1,0,24837.7,-0.0524927,-0.0528876,-24.6706,13,0.00113264,10,0.00130477,-1.60782,2.87879,0.0204947,-19.7476,-0.0528876,
2,0,0,1,0,24837.7,-0.0628996,-0.0632435,-24.5946,13,0.000492785,10,0.00155545,-1.60916,-21.216,-0.00278092,2.66854,-0.0632435,
2,0,0,1,0,24837.8,-0.0732982,-0.0736811,-24.7149,13,-0.000147734,10,0.00182102,-1.60704,-2.54009,-0.0232275,22.4154,-0.0736811,
2,0,0,1,0,24837.8,-0.0836939,-0.0840582,-25.0329,13,-0.000794096,10,0.00210422,-1.60149,-1.50513,-0.0391994,38.3023,-0.0840582,
2,0,0,1,0,24837.8,-0.0940925,-0.0944396,-25.515,13,-0.00145074,10,0.00240962,-1.5932,-1.10668,-0.0533128,53.0712,-0.0944396,
2,0,0,1,1,24837.8,-0.0978574,-0.0982285,-21.0796,13,-0.00196059,10,0.00207062,-1.67614,-0.0267999,-2.2015,1776.25,-0.0982285,
2,0,0,1,1,24837.9,-0.0874588,-0.0878439,-8.62918,13,-0.00232776,10,0.000758021,-2.06403,-0.0219622,-2.68644,891.859,-0.0878439,
2,0,0,1,1,24837.9,-0.0770519,-0.0774445,-1.03302,13,-0.00244618,10,8.00016e-05,-2.98589,-0.0109824,-5.37222,608.778,-0.0774445,
2,1,0,1,1,24837.9,-0.0666562,-0.0670917,4.32763,13,-0.00239897,10,-0.000290348,-2.36375,0.0214226,2.7541,443.083,-0.0670917,
2,1,0,1,1,24837.9,-0.0562576,-0.0567072,8.34481,13,-0.00223134,10,-0.000473211,-2.07858,0.0570316,1.03451,333.381,-0.0567072,
2,1,0,1,1,24838,-0.0458563,-0.0462335,11.3711,13,-0.00197297,10,-0.000525725,-1.9442,0.10498,0.562012,247.998,-0.04623352,
2,1,0,1,1,24838,-0.0354522,-0.0358426,13.6219,13,-0.00164654,10,-0.000488243,-1.86576,0.167828,0.35155,186.258,-0.0358426,
2,1,0,1,1,24838,-0.0250564,-0.025493,15.2883,13,-0.0012695,10,-0.000389745,-1.81564,0.257259,0.229341,136.643,-0.02549302,
2,1,0,1,1,24838,-0.0146579,-0.0150257,16.5069,13,-0.000855138,10,-0.000248028,-1.78234,0.382561,0.154224,99.2161,-0.0150257,
2,1,0,1,1,24838.1,-0.00425653,-0.004638,17.3802,13,-0.000413918,10,-8.06092e-05,-1.75995,0.565926,0.104254,70.6675,-0.004637999,
2,1,0,0,1,24838.1,-7.54729e-05,-0.000363498,17.6402,13,-0.000229895,10,-6.41217e-06,-1.7535, , , ,-0.000363498,