File: Figure_codes/Fig_3-5/rawdata_trumpetplot_data/after 10th/20221101_1-115_003_TrumpetPlot_ParaChange_from10_every3_03_CV_C01_24.csv
mode,ox/red,error,control changes,counter inc.,time/s,control/V,Ewe/V,<I>/mA,cycle number,(Q-Qo)/C,I Range,P/W,log(|I|),Tafel slope mV/dec,alpha_eff,dI/d(E-IR),E-IR/V,
2,0,0,1,0,48223.1,2.44065e-05,-0.00042076,-0.101938,25,0.0000000E+000,10,4.28915e-08,-3.99166, , , ,-0.00042076,
2,1,0,1,0,48224.6,0.00729041,0.00695632,0.199564,25,0.000248009,10,1.38823e-06,-3.69992,0.0816238,0.722828,5.5926,0.00695632,
2,1,0,1,0,48226.1,0.0147815,0.0144748,0.230829,25,0.000591912,10,3.3412e-06,-3.63671,0.147272,0.400619,3.61247,0.0144748,
2,1,0,1,0,48227.6,0.0222725,0.0219388,0.257153,25,0.000977454,10,5.64163e-06,-3.58981,0.177129,0.333091,3.32695,0.02193884,
2,1,0,1,0,48229.1,0.0297635,0.0294605,0.282175,25,0.0014012,10,8.313e-06,-3.54948,0.185767,0.317603,3.50015,0.0294605,
2,1,0,1,0,48230.6,0.0372545,0.0369235,0.308947,25,0.00186417,10,1.14074e-05,-3.51012,0.194357,0.303566,3.66306,0.0369235,
2,1,0,1,0,48232.1,0.0447456,0.0443871,0.334422,25,0.00236626,10,1.4844e-05,-3.4757,0.233604,0.252564,3.28726,0.0443871,
2,1,0,1,0,48233.6,0.0522367,0.0519001,0.357764,25,0.00290523,10,1.8568e-05,-3.4464,0.220589,0.267466,3.73548,0.0519001,
2,1,0,1,0,48235.1,0.0597277,0.05941,0.38022,25,0.00347911,10,2.25888e-05,-3.41997,0.312178,0.188995,2.80168,0.05941,
2,1,0,1,0,48236.6,0.0672187,0.0669313,0.400346,25,0.00408382,10,2.67957e-05,-3.39756,0.420823,0.140202,2.18063,0.0669313,
2,1,0,1,0,48238.1,0.0747092,0.0743899,0.415623,25,0.00471482,10,3.09181e-05,-3.3813,0.580071,0.101712,1.64747,0.0743899,
2,1,0,0,0,48239.6,0.0822001,0.081871,0.428769,25,0.00536828,10,3.51037e-05,-3.36778,0.498949,0.118249,1.98719,0.081871,
2,1,0,1,0,48241.1,0.0896911,0.0893935,0.449144,25,0.00604607,10,4.01505e-05,-3.34761,0.313389,0.188264,3.31332,0.0893935,
2,1,0,0,0,48242.6,0.097182,0.0968068,0.479862,25,0.00676135,10,4.64539e-05,-3.31888,0.204691,0.288239,5.3918,0.0968068,
2,1,0,1,0,48244.1,0.104673,0.104371,0.521329,25,0.00752993,10,5.44115e-05,-3.28289,0.217545,0.271208,5.49125,0.104371,
2,1,0,0,0,48245.6,0.112164,0.111815,0.556642,25,0.00835696,10,6.22408e-05,-3.25442,0.33712,0.175012,3.7892,0.111815,
2,1,0,1,0,48247.1,0.119655,0.119326,0.581329,25,0.00923005,10,6.93675e-05,-3.23558,0.634394,0.0930021,2.11241,0.119326,
2,1,0,0,0,48248.6,0.127146,0.126816,0.595957,25,0.0101345,10,7.5577e-05,-3.22479,0.831509,0.0709553,1.65459,0.126816,
2,1,0,1,0,48250.1,0.134637,0.134281,0.593555,25,0.0110525,10,7.97029e-05,-3.22654,-0.348025,-0.169528,-3.91814,0.134281,
2,1,0,1,0,48251.6,0.142127,0.141801,0.531738,25,0.011923,10,7.54007e-05,-3.2743,-0.10159,-0.580766,-11.9808,0.1418006,
2,1,0,1,0,48253.1,0.149618,0.149297,0.428471,25,0.0126616,10,6.39693e-05,-3.36808,-0.0805726,-0.732259,-12.2846,0.149297,
2,1,0,1,0,48254.6,0.157109,0.156832,0.360922,25,0.013266,10,5.6604e-05,-3.44259,-0.126847,-0.465129,-6.55617,0.1568318,
2,1,0,1,0,48256.1,0.1646,0.164293,0.330246,25,0.0137996,10,5.4257e-05,-3.48116,-0.285891,-0.206373,-2.66347,0.164293,
2,1,0,1,0,48257.6,0.172091,0.171753,0.315016,25,0.0143009,10,5.41049e-05,-3.50167,-0.480872,-0.122694,-1.50807,0.171753,
2,1,0,1,0,48259.1,0.179582,0.179239,0.306768,25,0.0147844,10,5.49847e-05,-3.51319,-0.739114,-0.0798253,-0.953248,0.179239,
2,1,0,1,0,48260.6,0.187074,0.186773,0.300513,25,0.0152575,10,5.61276e-05,-3.52214,-0.999664,-0.0590198,-0.691464,0.1867729,
2,1,0,1,0,48262.1,0.194564,0.194257,0.296703,25,0.0157241,10,5.76367e-05,-3.52768,-3.12046,-0.0189075,-0.219537,0.194257,
2,1,0,1,0,48263.6,0.202056,0.201737,0.293884,25,0.0161852,10,5.92872e-05,-3.53182,-1.37698,-0.0428474,-0.489947,0.201737,
2,1,0,1,0,48265,0.209547,0.209262,0.2929,25,0.0166424,10,6.12928e-05,-3.53328,-0.933655,-0.0631925,-0.718482,0.209262,
2,1,0,1,0,48266.5,0.217038,0.216686,0.288454,25,0.0170953,10,6.25039e-05,-3.53992,-1.65046,-0.0357477,-0.404484,0.216686,
2,1,0,1,0,48268,0.224529,0.224214,0.287311,25,0.0175452,10,6.44192e-05,-3.54165,-1.83862,-0.0320893,-0.359235,0.224214,
2,1,0,1,0,48269.5,0.232019,0.231734,0.28467,25,0.0179918,10,6.59677e-05,-3.54566,-3.19907,-0.0184428,-0.205314,0.231734,
2,1,0,0,0,48271,0.23951,0.239179,0.283022,25,0.0184351,10,6.76929e-05,-3.54818,-1.73078,-0.0340887,-0.3765,0.239179,
2,1,0,1,0,48272.5,0.247001,0.246678,0.280745,25,0.0188755,10,6.92538e-05,-3.55169,-1.74762,-0.0337602,-0.370266,0.246678,
2,1,0,0,0,48274,0.254492,0.254214,0.279372,25,0.019313,10,7.10201e-05,-3.55382,-1.93737,-0.0304537,-0.332237,0.254214,
2,1,0,1,0,48275.5,0.261983,0.261715,0.277481,25,0.0197478,10,7.2621e-05,-3.55677,-5.78737,-0.0101946,-0.110504,0.261715,
2,1,0,0,0,48277,0.269474,0.269179,0.275881,25,0.0201803,10,7.42614e-05,-3.55928,-16.1918,-0.00364382,-0.0392484,0.269179,
2,1,0,1,0,48278.5,0.276965,0.276706,0.274275,25,0.0206106,10,7.58934e-05,-3.56181,-4.41569,-0.0133614,-0.143153,0.276706,
2,1,0,0,0,48280,0.284456,0.284114,0.272738,25,0.021038,10,7.74885e-05,-3.56426,-1.85255,-0.031848,-0.338524,0.284114,
2,1,0,1,0,48281.5,0.291947,0.29164,0.270927,25,0.0214625,10,7.90129e-05,-3.56715,-4.51906,-0.0130558,-0.137954,0.2916396,
2,1,0,1,0,48283,0.299437,0.299185,0.268623,25,0.021884,10,8.03681e-05,-3.57086,-0.0028086,-21.0069,-115.986,0.299185,
2,0,0,1,0,48284.4,0.293744,0.293419,-0.0156246,25,0.0219291,10,-4.58455e-06,-4.80619,-0.00358191,-16.4716,5.76872,0.293419,
2,0,0,1,0,48285.9,0.286253,0.285962,-0.0456041,25,0.0218645,10,-1.3041e-05,-4.341,-0.0317436,-1.85864,3.28688,0.285962,
2,0,0,0,0,48287.4,0.278763,0.278461,-0.0668297,25,0.0217614,10,-1.86094e-05,-4.17503,-0.0631797,-0.933844,2.42243,0.278461,
2,0,0,1,0,48288.9,0.271272,0.270989,-0.0834079,25,0.0216303,10,-2.26026e-05,-4.07879,-0.0844748,-0.698433,2.26507,0.270989,
2,0,0,0,0,48290.4,0.263781,0.263468,-0.0970148,25,0.0214762,10,-2.55603e-05,-4.01316,-0.136533,-0.43213,1.64365,0.263468,
2,0,0,1,0,48291.9,0.25629,0.255985,-0.109416,25,0.0213026,10,-2.80089e-05,-3.96092,-0.189103,-0.311999,1.325,0.2559855,
2,0,0,0,0,48293.4,0.248799,0.248512,-0.120711,25,0.0211124,10,-2.99982e-05,-3.91825,-0.274817,-0.214688,1.00986,0.248512,
2,0,0,1,0,48294.9,0.241308,0.241023,-0.129611,25,0.0209067,10,-3.12394e-05,-3.88736,-0.218505,-0.270017,1.37077,0.241023,
2,0,0,0,0,48296.4,0.233817,0.233538,-0.139786,25,0.0206869,10,-3.26454e-05,-3.85453,-0.291836,-0.202168,1.10252,0.233538,
2,0,0,1,0,48297.9,0.226326,0.226049,-0.148613,25,0.0204529,10,-3.35938e-05,-3.82794,-0.286682,-0.205803,1.19535,0.226049,
2,0,0,0,0,48299.4,0.218835,0.21851,-0.157709,25,0.0202059,10,-3.44609e-05,-3.80214,-0.212384,-0.277799,1.71009,0.2185097,
2,0,0,1,0,48300.9,0.211344,0.211068,-0.165368,25,0.0199451,10,-3.49038e-05,-3.78155,-0.336345,-0.175415,1.13359,0.211068,
2,0,0,1,0,48302.4,0.203854,0.203497,-0.174283,25,0.019671,10,-3.5466e-05,-3.75875,-0.352334,-0.167455,1.14556,0.2034969,
2,0,0,1,0,48303.9,0.196363,0.196066,-0.184084,25,0.0193835,10,-3.60927e-05,-3.73498,-0.288393,-0.204582,1.46975,0.196066,
2,0,0,1,0,48305.4,0.188871,0.188547,-0.193936,25,0.0190807,10,-3.6566e-05,-3.71234,-0.255494,-0.230925,1.75273,0.188547,
2,0,0,1,0,48306.9,0.181381,0.181105,-0.205468,25,0.0187618,10,-3.72113e-05,-3.68726,-0.333168,-0.177088,1.42449,0.181105,
2,0,0,1,0,48308.4,0.173889,0.173533,-0.218319,25,0.0184245,10,-3.78855e-05,-3.66091,-0.284569,-0.207331,1.76463,0.173533,
2,0,0,1,0,48309.9,0.166398,0.16609,-0.235825,25,0.0180651,10,-3.91681e-05,-3.62741,-0.256818,-0.229735,2.11719,0.16609,
2,0,0,1,0,48311.4,0.158907,0.158559,-0.255675,25,0.0176772,10,-4.05398e-05,-3.59231,-0.193786,-0.30446,3.05826,0.158559,
2,0,0,1,0,48312.9,0.151416,0.151101,-0.29036,25,0.0172491,10,-4.38735e-05,-3.53706,-0.124164,-0.475177,5.38506,0.151101,
2,0,0,1,0,48314.4,0.143925,0.143619,-0.343417,25,0.0167571,10,-4.93212e-05,-3.46418,-0.078886,-0.747915,10.0587,0.143619,
2,0,0,1,0,48315.9,0.136434,0.136082,-0.425875,25,0.0161617,10,-5.79539e-05,-3.37072,-0.0815255,-0.7237,12.0123,0.136082,
2,0,0,1,0,48317.4,0.128943,0.12867,-0.516346,25,0.0154338,10,-6.64385e-05,-3.28706,-0.111219,-0.530484,10.6165,0.12867,
2,0,0,0,0,48318.9,0.121453,0.12115,-0.580046,25,0.0145866,10,-7.02723e-05,-3.23654,-0.239433,-0.246416,5.54989,0.12115,
2,0,0,1,0,48320.4,0.113962,0.113636,-0.599752,25,0.0136745,10,-6.81532e-05,-3.22203,-1.55621,-0.0379126,0.890527,0.1136355,
2,0,0,0,0,48321.9,0.106471,0.106148,-0.597205,25,0.0127515,10,-6.33921e-05,-3.22388,2.61909,0.0225269,-0.52665,0.106148,
2,0,0,1,0,48323.3,0.0989798,0.0986816,-0.589159,25,0.0118397,10,-5.81392e-05,-3.22977,1.75498,0.0336186,-0.770026,0.0986816,
2,0,0,0,0,48324.8,0.0914889,0.0911432,-0.577749,25,0.0109453,10,-5.26579e-05,-3.23826,0.682567,0.0864383,-1.93917,0.0911432,
2,0,0,1,0,48326.3,0.083998,0.0836992,-0.556844,25,0.010075,10,-4.66074e-05,-3.25427,0.431879,0.136612,-2.96879,0.0836992,
2,0,0,0,0,48327.8,0.076507,0.0761925,-0.53967,25,0.00923192,10,-4.11188e-05,-3.26787,0.553113,0.106669,-2.24879,0.07619255,
2,0,0,1,0,48329.3,0.069016,0.0686838,-0.520309,25,0.0084161,10,-3.57368e-05,-3.28374,0.506655,0.11645,-2.37686,0.0686838,
2,0,0,0,0,48330.8,0.0615251,0.0612292,-0.505612,25,0.00762488,10,-3.09582e-05,-3.29618,0.486236,0.12134,-2.39734,0.0612292,
2,0,0,1,0,48332.3,0.0540342,0.0537268,-0.48966,25,0.00685879,10,-2.63078e-05,-3.31011,0.618224,0.0954347,-1.82085,0.0537268,
2,0,0,1,0,48333.8,0.0465436,0.0462313,-0.471073,25,0.00611767,10,-2.17783e-05,-3.32691,0.576623,0.10232,-1.88482,0.0462313,
2,0,0,1,0,48335.3,0.0390526,0.0387659,-0.454456,25,0.0054027,10,-1.76174e-05,-3.34251,0.429073,0.137506,-2.43718,0.0387659,
2,0,0,1,0,48336.8,0.0315615,0.0312558,-0.438442,25,0.00471363,10,-1.37039e-05,-3.35809,0.499693,0.118072,-2.0187,0.0312558,
2,0,0,1,0,48338.3,0.0240706,0.0237131,-0.422569,25,0.00404842,10,-1.00204e-05,-3.3741,0.672909,0.087679,-1.44986,0.0237131,
2,0,0,1,0,48339.8,0.0165795,0.0162786,-0.414582,25,0.00340135,10,-6.74882e-06,-3.38239,2.68717,0.0219562,-0.354838,0.0162786,
2,0,0,1,0,48341.3,0.00908846,0.00876222,-0.410868,25,0.00276468,10,-3.60011e-06,-3.3863,-8.02626,-0.00735087,0.117688,0.00876222,
2,0,0,1,0,48342.8,0.00159739,0.00122509,-0.41601,25,0.0021281,10,-5.09647e-07,-3.3809, , , ,0.00122509,
2,0,0,0,0,48343.1,0.000199195,-0.000168808,-0.414285,25,0.00200845,10,6.99345e-08,-3.3827, , , ,-0.000168808,