File: Figure_codes/Fig_3-5/rawdata_trumpetplot_data/after 10th/20221101_1-115_003_TrumpetPlot_ParaChange_from10_every3_03_CV_C01_4.csv
mode,ox/red,error,control changes,counter inc.,time/s,control/V,Ewe/V,<I>/mA,cycle number,(Q-Qo)/C,I Range,P/W,log(|I|),Tafel slope mV/dec,alpha_eff,dI/d(E-IR),E-IR/V,
2,0,0,1,0,8820.54,2.44065e-05,-0.000363498,-0.0834932,5,0.0000000E+000,10,3.03496e-08,-4.07835, , , ,-0.000363498,
2,1,0,1,0,8821.99,0.00729041,0.00696799,0.211066,5,0.000282205,10,1.47071e-06,-3.67558,0.0859408,0.686519,5.6056,0.00696799,
2,1,0,1,0,8823.49,0.0147815,0.0144471,0.242015,5,0.000651645,10,3.49641e-06,-3.61616,0.144964,0.406999,3.85303,0.0144471,
2,1,0,1,0,8824.99,0.0222725,0.0219729,0.268198,5,0.0010638,10,5.89308e-06,-3.57154,0.171928,0.343167,3.59727,0.02197287,
2,1,0,1,0,8826.48,0.0297635,0.0294509,0.295733,5,0.00151592,10,8.7096e-06,-3.5291,0.18066,0.32658,3.77177,0.0294509,
2,1,0,1,0,8827.98,0.0372545,0.0368696,0.322196,5,0.00200902,10,1.18792e-05,-3.49188,0.194963,0.302621,3.82587,0.0368696,
2,1,0,1,0,8829.48,0.0447456,0.0444251,0.351666,5,0.00254337,10,1.56228e-05,-3.45387,0.231923,0.254395,3.4818,0.0444251,
2,1,0,1,0,8830.98,0.0522367,0.0519172,0.376297,5,0.00311814,10,1.95363e-05,-3.42447,0.213518,0.276323,4.05539,0.0519172,
2,1,0,1,0,8832.48,0.0597277,0.05941,0.403954,5,0.0037312,10,2.39989e-05,-3.39367,0.297487,0.198328,3.11389,0.05941,
2,1,0,1,0,8833.98,0.0672187,0.0669166,0.425281,5,0.00437973,10,2.84584e-05,-3.37132,0.368837,0.159962,2.64633,0.06691657,
2,1,0,1,0,8835.47,0.0747092,0.0743994,0.443276,5,0.0050594,10,3.29795e-05,-3.35333,0.429522,0.137362,2.38628,0.0743994,
2,1,0,0,0,8836.97,0.0822001,0.0819156,0.461911,5,0.00576765,10,3.78377e-05,-3.33544,0.390281,0.151173,2.73396,0.0819156,
2,1,0,1,0,8838.47,0.0896911,0.089401,0.486478,5,0.00650726,10,4.34916e-05,-3.31294,0.255805,0.230644,4.39016,0.089401,
2,1,0,0,0,8839.97,0.097182,0.0969055,0.523512,5,0.00729194,10,5.07312e-05,-3.28107,0.179434,0.328811,6.70604,0.0969055,
2,1,0,1,0,8841.47,0.104673,0.104348,0.572973,5,0.00814,10,5.97888e-05,-3.24187,0.191422,0.308219,6.86086,0.104348,
2,1,0,0,0,8842.96,0.112164,0.11185,0.615772,5,0.00906067,10,6.8874e-05,-3.21058,0.312088,0.18905,4.5334,0.11185,
2,1,0,1,0,8844.46,0.119655,0.119359,0.651364,5,0.0100415,10,7.77458e-05,-3.18618,0.391712,0.150621,3.83537,0.119359,
2,1,0,0,0,8845.96,0.127146,0.126825,0.68366,5,0.0110745,10,8.6705e-05,-3.16516,0.375268,0.157221,4.21258,0.126825,
2,1,0,1,0,8847.46,0.134637,0.134345,0.703271,5,0.0121514,10,9.44811e-05,-3.15288,-0.748929,-0.0787791,-2.15448,0.134345,
2,1,0,1,0,8848.96,0.142127,0.141825,0.6482,5,0.0132029,10,9.19309e-05,-3.18829,-0.117027,-0.504157,-12.6553,0.141825,
2,1,0,1,0,8850.46,0.149618,0.149329,0.526566,5,0.0141137,10,7.86317e-05,-3.27855,-0.0741253,-0.795949,-16.3571,0.149329,
2,1,0,1,0,8851.95,0.157109,0.156784,0.425175,5,0.0148493,10,6.66607e-05,-3.37143,-0.0925816,-0.637276,-10.5864,0.156784,
2,1,0,1,0,8853.45,0.1646,0.164292,0.36883,5,0.0154691,10,6.05957e-05,-3.43317,-0.160762,-0.367002,-5.28529,0.164292,
2,1,0,1,0,8854.95,0.172091,0.171795,0.337596,5,0.0160251,10,5.79975e-05,-3.4716,-0.249428,-0.236542,-3.14365,0.171795,
2,1,0,1,0,8856.45,0.179582,0.179299,0.320737,5,0.0165454,10,5.75079e-05,-3.49385,-0.437489,-0.134861,-1.69433,0.179299,
2,1,0,1,0,8857.95,0.187074,0.186763,0.311487,5,0.0170446,10,5.81743e-05,-3.50656,-0.563407,-0.10472,-1.26201,0.186763,
2,1,0,1,0,8859.44,0.194564,0.194262,0.301006,5,0.0175292,10,5.84743e-05,-3.52142,-0.689116,-0.0856169,-1.00657,0.194262,
2,1,0,1,0,8860.94,0.202056,0.201801,0.295066,5,0.0180028,10,5.95446e-05,-3.53008,-0.676885,-0.0871641,-1.00169,0.201801,
2,1,0,1,0,8862.44,0.209547,0.209284,0.290905,5,0.0184687,10,6.08819e-05,-3.53625,-0.842916,-0.0699951,-0.793425,0.209284,
2,1,0,1,0,8863.94,0.217038,0.216782,0.284546,5,0.018927,10,6.16844e-05,-3.54585,-1.95404,-0.0301938,-0.337674,0.216782,
2,1,0,1,0,8865.44,0.224529,0.224247,0.28167,5,0.0193799,10,6.31638e-05,-3.55026,-1.18707,-0.0497022,-0.5467,0.224247,
2,1,0,1,0,8866.94,0.232019,0.23172,0.278078,5,0.0198279,10,6.44363e-05,-3.55583,-1.42099,-0.0415203,-0.451856,0.23172,
2,1,0,0,0,8868.43,0.23951,0.239236,0.275931,5,0.0202713,10,6.60127e-05,-3.5592,-0.918063,-0.0642658,-0.690937,0.239236,
2,1,0,1,0,8869.93,0.247001,0.246704,0.274881,5,0.020711,10,6.78142e-05,-3.56085,-1.32432,-0.0445511,-0.476077,0.246704,
2,1,0,0,0,8871.43,0.254492,0.254211,0.271167,5,0.0211477,10,6.89337e-05,-3.56676,-2.38973,-0.0246889,-0.262699,0.254211,
2,1,0,1,0,8872.93,0.261983,0.261728,0.270962,5,0.0215813,10,7.09182e-05,-3.56709,-1.56923,-0.0375981,-0.396128,0.261728,
2,1,0,0,0,8874.43,0.269474,0.269155,0.267221,5,0.022012,10,7.19238e-05,-3.57313,6.15176,0.00959076,0.100292,0.269155,
2,1,0,1,0,8875.92,0.276965,0.276651,0.265233,5,0.0224398,10,7.3377e-05,-3.57637,-1.81248,-0.0325521,-0.338857,0.276651,
2,1,0,0,0,8877.42,0.284456,0.284174,0.263871,5,0.0228647,10,7.49855e-05,-3.57861,-2.37022,-0.0248922,-0.256672,0.284174,
2,1,0,1,0,8878.92,0.291947,0.291641,0.261801,5,0.0232862,10,7.63519e-05,-3.58203,-3.41572,-0.0172731,-0.177121,0.291641,
2,1,0,1,0,8880.42,0.299437,0.299158,0.258578,5,0.0237045,10,7.73557e-05,-3.58741,-0.00232993,-25.3227,-117.181,0.299158,
2,1,0,1,0,8881.79,0.293744,0.293402,-0.0190907,5,0.0237283,10,-5.60127e-06,-4.71918,-0.00656704,-8.98426,5.40266,0.293402,
2,0,0,1,0,8883.29,0.286253,0.285966,-0.046795,5,0.02365,10,-1.33818e-05,-4.3298,-0.0311402,-1.89465,3.45245,0.285966,
2,0,0,0,0,8884.78,0.278763,0.278488,-0.0677989,5,0.0235364,10,-1.88812e-05,-4.16878,-0.0679057,-0.868852,2.26376,0.278488,
2,0,0,1,0,8886.28,0.271272,0.27098,-0.0832989,5,0.0233964,10,-2.25723e-05,-4.07936,-0.102132,-0.577684,1.86409,0.27098,
2,0,0,0,0,8887.78,0.263781,0.263471,-0.0954056,5,0.023235,10,-2.51366e-05,-4.02043,-0.141148,-0.418,1.56861,0.263471,
2,0,0,1,0,8889.28,0.25629,0.255971,-0.107907,5,0.0230549,10,-2.7621e-05,-3.96695,-0.168885,-0.349351,1.46627,0.255971,
2,0,0,0,0,8890.78,0.248799,0.248547,-0.117199,5,0.022858,10,-2.91293e-05,-3.93108,-0.219213,-0.269145,1.24738,0.248547,
2,0,0,1,0,8892.28,0.241308,0.241016,-0.127964,5,0.0226468,10,-3.08413e-05,-3.89291,-0.230405,-0.256071,1.27285,0.241016,
2,0,0,0,0,8893.77,0.233817,0.233481,-0.136365,5,0.0224213,10,-3.18385e-05,-3.8653,-0.254716,-0.23163,1.23403,0.233481,
2,0,0,1,0,8895.27,0.226326,0.225996,-0.145537,5,0.0221821,10,-3.28909e-05,-3.83703,-0.292903,-0.201432,1.14846,0.225996,
2,0,0,0,0,8896.77,0.218835,0.218555,-0.154879,5,0.0219293,10,-3.38496e-05,-3.81001,-0.324657,-0.18173,1.09432,0.218555,
2,0,0,1,0,8898.27,0.211344,0.211065,-0.164169,5,0.0216629,10,-3.46503e-05,-3.78471,-0.467903,-0.126094,0.806184,0.211065,
2,0,0,1,0,8899.77,0.203854,0.203503,-0.172835,5,0.0213818,10,-3.51726e-05,-3.76237,-0.437758,-0.134778,0.915083,0.2035033,
2,0,0,1,0,8901.26,0.196363,0.196036,-0.185234,5,0.0210851,10,-3.63125e-05,-3.73228,-0.283229,-0.208312,1.4979,0.196036,
2,0,0,1,0,8902.76,0.188871,0.188558,-0.197471,5,0.0207705,10,-3.72347e-05,-3.7045,-0.220839,-0.267163,2.04589,0.188558,
2,0,0,1,0,8904.26,0.181381,0.181101,-0.213016,5,0.0204355,10,-3.85775e-05,-3.67159,-0.207299,-0.284613,2.36518,0.181101,
2,0,0,1,0,8905.76,0.173889,0.173585,-0.232246,5,0.0200748,10,-4.03143e-05,-3.63405,-0.181999,-0.324177,2.92969,0.173585,
2,0,0,1,0,8907.26,0.166398,0.166105,-0.257854,5,0.0196804,10,-4.2831e-05,-3.58863,-0.153399,-0.384618,3.88346,0.166105,
2,0,0,1,0,8908.76,0.158907,0.158584,-0.295942,5,0.019238,10,-4.69316e-05,-3.52879,-0.106371,-0.554662,6.42916,0.1585838,
2,0,0,1,0,8910.25,0.151416,0.151078,-0.360624,5,0.0187205,10,-5.44824e-05,-3.44295,-0.0809287,-0.729037,10.256,0.151078,
2,0,0,1,0,8911.75,0.143925,0.14363,-0.457931,5,0.018083,10,-6.57725e-05,-3.3392,-0.0639275,-0.922921,16.5359,0.14363,
2,0,0,1,0,8913.25,0.136434,0.136119,-0.586977,5,0.017271,10,-7.98988e-05,-3.23138,-0.0819008,-0.720384,16.3592,0.136119,
2,0,0,1,0,8914.75,0.128943,0.128628,-0.6808,5,0.0162858,10,-8.75701e-05,-3.16698,-0.199647,-0.295522,7.80213,0.128628,
2,0,0,0,0,8916.25,0.121453,0.121163,-0.713692,5,0.0152051,10,-8.64733e-05,-3.14649,8.94231,0.00659785,-0.183029,0.121163,
2,0,0,1,0,8917.74,0.113962,0.113628,-0.694948,5,0.0141152,10,-7.89656e-05,-3.15805,0.449621,0.131222,-3.57282,0.113628,
2,0,0,0,0,8919.24,0.106471,0.106179,-0.669947,5,0.0130591,10,-7.11341e-05,-3.17396,0.430057,0.137191,-3.59536,0.106179,
2,0,0,1,0,8920.74,0.0989799,0.0986456,-0.639123,5,0.012048,10,-6.30467e-05,-3.19442,0.402069,0.146741,-3.6504,0.0986456,
2,0,0,0,0,8922.24,0.0914889,0.0911687,-0.606722,5,0.0110878,10,-5.53141e-05,-3.21701,0.324369,0.181891,-4.28885,0.0911687,
2,0,0,1,0,8923.74,0.083998,0.0836631,-0.573453,5,0.0101754,10,-4.79769e-05,-3.2415,0.284465,0.207407,-4.63526,0.0836631,
2,0,0,0,0,8925.24,0.076507,0.0761926,-0.550726,5,0.0093037,10,-4.19613e-05,-3.25906,0.447117,0.131957,-2.83144,0.0761926,
2,0,0,1,0,8926.73,0.0690161,0.0686923,-0.529107,5,0.00846433,10,-3.63456e-05,-3.27646,0.654517,0.0901428,-1.87241,0.0686923,
2,0,0,0,0,8928.23,0.0615251,0.0612196,-0.51411,5,0.00765221,10,-3.14736e-05,-3.28894,0.459115,0.128508,-2.57619,0.06121961,
2,0,0,1,0,8929.73,0.0540342,0.0536907,-0.494669,5,0.0068676,10,-2.65591e-05,-3.30569,0.524199,0.112553,-2.17247,0.05369072,
2,0,0,1,0,8931.23,0.0465436,0.0461856,-0.474819,5,0.00611055,10,-2.19298e-05,-3.32347,0.474177,0.124426,-2.31533,0.0461856,
2,0,0,1,0,8932.73,0.0390526,0.0386779,-0.458518,5,0.00538133,10,-1.77345e-05,-3.33864,0.386359,0.152708,-2.72353,0.0386779,
2,0,0,1,0,8934.22,0.0315615,0.0312177,-0.440786,5,0.00467984,10,-1.37603e-05,-3.35577,0.422536,0.139633,-2.39788,0.0312177,
2,0,0,1,0,8935.72,0.0240706,0.0237821,-0.423996,5,0.00400381,10,-1.00835e-05,-3.37264,0.608201,0.0970074,-1.61358,0.0237821,
2,0,0,1,0,8937.22,0.0165795,0.0162562,-0.415372,5,0.00334734,10,-6.75237e-06,-3.38156,1.27751,0.0461835,-0.747757,0.0162562,
2,0,0,1,0,8938.72,0.00908846,0.00878145,-0.410484,5,0.00270186,10,-3.60464e-06,-3.3867,-5.40008,-0.0109258,0.175268,0.00878145,
2,0,0,1,0,8940.22,0.00159739,0.00126201,-0.414454,5,0.00205652,10,-5.23043e-07,-3.38252, , , ,0.001262006,
2,0,0,0,0,8940.5,0.000199195,-0.000176442,-0.41393,5,0.00193544,10,7.30349e-08,-3.38307, , , ,-0.000176442,