File: Figure_codes/Fig_3-5/rawdata_trumpetplot_data/after 10th/20221101_1-115_003_TrumpetPlot_ParaChange_from10_every3_14_CV_C01_12.csv
mode,ox/red,error,control changes,counter inc.,time/s,control/V,Ewe/V,<I>/mA,cycle number,(Q-Qo)/C,I Range,P/W,log(|I|),Tafel slope mV/dec,alpha_eff,dI/d(E-IR),E-IR/V,
2,1,0,1,0,24840.7,2.44065e-05,-0.000306236,38.8296,13,0.0000000E+000,10,-1.1891e-05,-1.41084, , , ,-0.000306236,
2,1,0,1,0,24840.7,0.0133084,0.0129213,42.764,13,0.000539312,10,0.000552565,-1.36892,0.444172,0.132832,220.759,0.0129213,
2,1,0,1,0,24840.7,0.0273414,0.0269939,45.4071,13,0.00115756,10,0.00122572,-1.34288,0.621785,0.0948881,167.69,0.0269939,
2,1,0,1,0,24840.7,0.0413245,0.0409457,47.4823,13,0.00180843,10,0.00194419,-1.32347,0.799886,0.0737605,136.529,0.0409457,
2,1,0,1,0,24840.7,0.0553076,0.0549293,49.2705,13,0.00248605,10,0.00270639,-1.30741,0.906323,0.0650982,125.163,0.0549293,
2,1,0,1,0,24840.7,0.0693407,0.0689171,50.9684,13,0.0031879,10,0.0035126,-1.2927,0.961475,0.0613641,122.013,0.0689171,
2,1,0,1,0,24840.8,0.0833238,0.0828964,52.6652,13,0.00391354,10,0.00436576,-1.27848,0.990099,0.05959,122.498,0.0828964,
2,1,0,1,0,24840.8,0.0973069,0.0968885,54.4805,13,0.00466332,10,0.00527853,-1.26376,0.865435,0.0681738,145.18,0.0968885,
2,1,0,1,0,24840.8,0.11134,0.111013,56.6237,13,0.00544131,10,0.00628597,-1.247,0.84995,0.0694158,153.383,0.111013,
2,1,0,1,0,24840.8,0.125323,0.124964,58.8311,13,0.00624942,10,0.00735176,-1.23039,0.814481,0.0724387,166.392,0.124964,
2,1,0,1,0,24840.8,0.139306,0.138947,61.2679,13,0.00709011,10,0.00851301,-1.21277,0.755696,0.0780737,186.909,0.1389474,
2,1,0,1,0,24840.8,0.153339,0.152971,64.0554,13,0.00796744,10,0.00979863,-1.19344,0.724302,0.0814577,203.669,0.152971,
2,1,0,1,0,24840.8,0.167322,0.166942,66.9591,13,0.0088848,10,0.0111783,-1.17419,0.744889,0.0792064,206.88,0.166942,
2,1,0,1,0,24840.9,0.181305,0.180926,69.718,13,0.00984234,10,0.0126138,-1.15665,0.865828,0.0681429,185.281,0.180926,
2,1,0,1,0,24840.9,0.195338,0.194979,72.0415,13,0.0108358,10,0.0140466,-1.14242,1.28041,0.046079,129.238,0.194979,
2,1,0,1,0,24840.9,0.209322,0.208966,73.286,13,0.0118546,10,0.0153143,-1.13498,4.73623,0.0124572,35.4914,0.208966,
2,1,0,1,0,24840.9,0.223305,0.222983,72.9103,13,0.01288,10,0.0162577,-1.13721,-1.88915,-0.0312309,-88.526,0.2229825,
2,1,0,1,0,24840.9,0.237338,0.237,70.7477,13,0.0138876,10,0.0167672,-1.15029,-0.73655,-0.0801032,-220.297,0.237,
2,1,0,1,0,24840.9,0.251321,0.251024,66.8992,13,0.0148524,10,0.0167933,-1.17458,-0.4812,-0.12261,-319.067,0.251024,
2,1,0,1,0,24840.9,0.265304,0.265027,61.9499,13,0.0157546,10,0.0164184,-1.20796,-0.391255,-0.150797,-364.212,0.265027,
2,1,0,1,0,24841,0.279337,0.279067,56.7599,13,0.0165853,10,0.0158398,-1.24596,-0.355755,-0.165844,-367.548,0.2790674,
2,1,0,1,0,24841,0.29332,0.292998,51.9032,13,0.0173448,10,0.0152075,-1.28481,-0.3677,-0.160457,-326.889,0.292998,
2,1,0,1,0,24841,0.298714,0.298613,46.4373,13,0.0177466,10,0.0138668,-1.33313,0.0418285,1.41052,2219.74,0.298613,
2,1,0,1,0,24841,0.28473,0.284533,24.1525,13,0.0182203,10,0.00687219,-1.61704,0.0468963,1.25809,1187.25,0.284533,
2,1,0,1,0,24841,0.270747,0.270497,10.8717,13,0.0184578,10,0.00294076,-1.9637,0.0302197,1.95237,781.877,0.270497,
2,1,0,1,0,24841,0.256714,0.256488,1.70174,13,0.0185411,10,0.000436477,-2.76911,0.0353824,1.6675,549.764,0.256488,
2,0,0,1,0,24841,0.242731,0.242473,-4.8884,13,0.0185159,10,-0.0011853,-2.31083,-0.0210804,-2.7988,405.811,0.242473,
2,0,0,1,0,24841,0.228748,0.228474,-9.8252,13,0.0184108,10,-0.00224481,-2.00766,-0.0697167,-0.846282,312.357,0.228474,
2,0,0,1,0,24841.1,0.214715,0.214401,-13.7226,13,0.0182443,10,-0.00294213,-1.86256,-0.125873,-0.468726,247.065,0.214401,
2,0,0,1,0,24841.1,0.200732,0.200445,-16.8369,13,0.0180294,10,-0.00337486,-1.77374,-0.18695,-0.315593,205.799,0.200445,
2,0,0,1,0,24841.1,0.186735,0.1864,-19.5112,13,0.0177744,10,-0.00363688,-1.70972,-0.245367,-0.240456,182.516,0.1864,
2,0,0,1,0,24841.1,0.172716,0.172375,-21.9668,13,0.0174834,10,-0.00378651,-1.65823,-0.296665,-0.198877,170.307,0.172375,
2,0,0,1,0,24841.1,0.158733,0.158429,-24.4197,13,0.0171587,10,-0.0038688,-1.61226,-0.303,-0.194719,185.807,0.158429,
2,0,0,1,0,24841.1,0.144719,0.144439,-27.3074,13,0.0167972,10,-0.00394426,-1.56372,-0.271144,-0.217596,232.687,0.144439,
2,0,0,1,0,24841.1,0.130717,0.130452,-31.0381,13,0.0163895,10,-0.00404899,-1.50811,-0.232876,-0.253353,308.321,0.130452,
2,0,0,1,0,24841.2,0.116733,0.116447,-35.9795,13,0.0159213,10,-0.00418969,-1.44395,-0.212494,-0.277655,390.289,0.116447,
2,0,0,1,0,24841.2,0.102703,0.102447,-41.8095,13,0.0153771,10,-0.00428327,-1.37872,-0.226258,-0.260764,424.388,0.102447,
2,0,0,1,0,24841.2,0.0887173,0.0884752,-47.6292,13,0.01475,10,-0.004214,-1.32213,-0.27357,-0.215667,399.605,0.0884752,
2,0,0,1,0,24841.2,0.0747342,0.0744853,-52.7942,13,0.0140451,10,-0.00393239,-1.27741,-0.352857,-0.167206,343.719,0.0744853,
2,0,0,1,0,24841.2,0.0607011,0.0604858,-57.2979,13,0.0132732,10,-0.00346571,-1.24186,-0.476163,-0.123907,275.776,0.06048581,
2,0,0,1,0,24841.2,0.046718,0.0465224,-60.5161,13,0.0124469,10,-0.00281535,-1.21813,-0.708867,-0.0832314,196.112,0.0465224,
2,0,0,1,0,24841.2,0.0327349,0.0324815,-62.8355,13,0.0115822,10,-0.00204099,-1.20179,-1.09747,-0.05376,131.482,0.0324815,
2,0,0,1,0,24841.3,0.0187018,0.0183696,-64.3073,13,0.0106916,10,-0.0011813,-1.19174,-1.88315,-0.0313305,78.4447,0.0183696,
2,0,0,1,0,24841.3,0.00471873,0.00441893,-65.0302,13,0.00978544,10,-0.000287364,-1.18688,-4.23797,-0.0139218,35.3048,0.00441893,
2,0,0,1,0,24841.3,-0.00926438,-0.00959222,-65.2738,13,0.00887231,10,0.000626121,-1.18526,32.5843,0.00181069,-4.60738,-0.00959222,
2,0,0,1,0,24841.3,-0.0232974,-0.0236638,-65.0122,13,0.0079599,10,0.00153844,-1.18701,3.77625,0.015624,-39.5627,-0.0236638,
2,0,0,1,0,24841.3,-0.0372805,-0.0376241,-64.1346,13,0.00705546,10,0.00241301,-1.19291,1.90229,0.0310152,-77.5544,-0.03762408,
2,0,0,1,0,24841.3,-0.0512637,-0.0516321,-62.879,13,0.00616616,10,0.00324657,-1.20149,1.48449,0.0397443,-97.4941,-0.0516321,
2,0,0,1,0,24841.3,-0.0652967,-0.065692,-61.5503,13,0.00529552,10,0.00404336,-1.21077,1.50327,0.0392478,-94.2446,-0.065692,
2,0,0,1,0,24841.4,-0.0792798,-0.0796363,-60.2626,13,0.00444332,10,0.0047991,-1.21995,1.7092,0.0345191,-81.2432,-0.0796363,
2,0,0,1,0,24841.4,-0.0932629,-0.0936337,-59.2886,13,0.00360699,10,0.00555141,-1.22703,2.43395,0.0242404,-56.1423,-0.0936337,
2,0,0,1,0,24841.4,-0.107296,-0.107658,-58.7219,13,0.00278152,10,0.00632185,-1.2312,4.80845,0.0122701,-28.1341,-0.1076576,
2,0,0,1,0,24841.4,-0.121279,-0.121645,-58.4637,13,0.00196172,10,0.00711184,-1.23311,18.1114,0.00325762,-7.43805,-0.121645,
2,0,0,1,0,24841.4,-0.135262,-0.135622,-58.506,13,0.00114331,10,0.00793467,-1.2328,-9.79602,-0.00602285,13.7638,-0.135622,
2,0,0,1,0,24841.4,-0.149295,-0.149647,-58.8681,13,0.000321916,10,0.00880941,-1.23012,-4.31362,-0.0136776,31.4257,-0.149647,
2,0,0,1,0,24841.4,-0.163278,-0.163633,-59.345,13,-0.000505435,10,0.00971082,-1.22662,-3.54513,-0.0166425,38.5515,-0.1636333,
2,0,0,1,0,24841.4,-0.177261,-0.177556,-59.9373,13,-0.00134031,10,0.0106423,-1.2223,-3.09407,-0.0190687,44.606,-0.177556,
2,0,0,1,0,24841.5,-0.191295,-0.19165,-60.6241,13,-0.00218413,10,0.0116186,-1.21735,-2.77325,-0.0212746,50.3155,-0.19165,
2,0,0,0,1,24841.5,-0.199984,-0.200456,-60.7069,13,-0.00274983,10,0.0121691,-1.21676,-0.0370764,-1.59131,3309.15,-0.200456,
2,0,0,1,1,24841.5,-0.186686,-0.187101,-38.2756,13,-0.00337297,10,0.00716141,-1.41708,-0.0723911,-0.815018,1232.42,-0.187101,
2,0,0,1,1,24841.5,-0.172667,-0.173075,-24.209,13,-0.00380348,10,0.00418997,-1.61602,-0.064195,-0.919075,863.364,-0.173075,
2,0,0,1,1,24841.5,-0.158684,-0.159151,-13.5159,13,-0.00406368,10,0.00215106,-1.86916,-0.0432977,-1.36266,692.968,-0.159151,
2,0,0,1,1,24841.5,-0.14467,-0.145119,-4.65706,13,-0.00418843,10,0.000675826,-2.33189,-0.00995078,-5.92919,580.452,-0.145119,
2,1,0,1,1,24841.5,-0.130668,-0.131127,2.85568,13,-0.00419906,10,-0.000374455,-2.54429,0.0223819,2.63605,503.395,-0.131127,
2,1,0,1,1,24841.6,-0.116685,-0.117212,9.41755,13,-0.00411158,10,-0.00110385,-2.02606,0.0457956,1.28833,445.536,-0.117212,
2,1,0,1,1,24841.6,-0.102654,-0.103137,15.4007,13,-0.00393682,10,-0.00158838,-1.81246,0.0862539,0.684027,401.54,-0.103137,
2,1,0,1,1,24841.6,-0.0886685,-0.08911,20.7256,13,-0.00368286,10,-0.00184685,-1.68349,0.130966,0.450498,360.273,-0.08911,
2,1,0,1,1,24841.6,-0.0746854,-0.0751063,25.5231,13,-0.00335807,10,-0.00191694,-1.59307,0.177962,0.331532,328.252,-0.0751063,
2,1,0,1,1,24841.6,-0.0606523,-0.0610697,29.9429,13,-0.0029692,10,-0.00182861,-1.52371,0.230756,0.255681,297.023,-0.0610697,
2,1,0,1,1,24841.6,-0.0466692,-0.0470946,33.8554,13,-0.00252192,10,-0.00159441,-1.47037,0.292686,0.201581,265.304,-0.0470946,
2,1,0,1,1,24841.6,-0.0326861,-0.0331173,37.3446,13,-0.00202281,10,-0.00123676,-1.42777,0.363324,0.162389,236.067,-0.03311735,
2,1,0,1,1,24841.7,-0.018653,-0.0190542,40.4898,13,-0.0014774,10,-0.000771501,-1.39265,0.445584,0.13241,208.614,-0.0190542,
2,1,0,1,1,24841.7,-0.00466992,-0.00506958,43.1651,13,-0.00089112,10,-0.000218829,-1.36487, , , ,-0.00506958,
2,1,0,0,1,24841.7,-0.000175352,-0.000554371,43.928,13,-0.00069512,10,-2.43524e-05,-1.35726, , , ,-0.000554371,