File: Figure_codes/Fig_3-5/rawdata_trumpetplot_data/after 10th/20221101_1-115_003_TrumpetPlot_ParaChange_from10_every3_13_CV_C01_33.csv
mode,ox/red,error,control changes,counter inc.,time/s,control/V,Ewe/V,<I>/mA,cycle number,(Q-Qo)/C,I Range,P/W,log(|I|),Tafel slope mV/dec,alpha_eff,dI/d(E-IR),E-IR/V,
2,1,0,1,0,66212.2,2.44065e-05,-0.000344411,14.7176,34,0.0000000E+000,10,-5.0689e-06,-1.83216, , , ,-0.000344411,
2,1,0,1,0,66212.2,0.0122624,0.0118937,18.6009,34,0.000256358,10,0.000221234,-1.73047,0.174222,0.338649,243.845,0.0118937,
2,1,0,1,0,66212.2,0.0250636,0.0247013,21.3998,34,0.00057739,10,0.000528603,-1.66959,0.244977,0.240839,200.342,0.0247013,
2,1,0,1,0,66212.2,0.0378704,0.0375004,23.7802,34,0.000939433,10,0.000891768,-1.62378,0.312893,0.188563,174.579,0.0375004,
2,1,0,1,0,66212.2,0.0506632,0.0503207,25.8941,34,0.00133734,10,0.00130301,-1.5868,0.371806,0.158685,160.195,0.0503207,
2,1,0,1,0,66212.2,0.0634672,0.0630965,27.8745,34,0.0017679,10,0.00175879,-1.55479,0.427117,0.138135,150.152,0.0630965,
2,1,0,1,0,66212.3,0.0762629,0.0759073,29.7677,34,0.00222934,10,0.00225958,-1.52626,0.46988,0.125564,145.802,0.0759073,
2,1,0,1,0,66212.3,0.0890668,0.0887011,31.6407,34,0.00272081,10,0.00280656,-1.49975,0.497054,0.118699,146.503,0.0887011,
2,1,0,1,0,66212.3,0.10186,0.101552,33.4968,34,0.0032421,10,0.00340167,-1.475,0.533261,0.11064,144.584,0.101552,
2,1,0,1,0,66212.3,0.114666,0.114288,35.3508,34,0.00379318,10,0.00404016,-1.4516,0.551331,0.107014,147.659,0.114288,
2,1,0,1,0,66212.3,0.127462,0.12707,37.2531,34,0.00437422,10,0.00473375,-1.42884,0.559483,0.105455,153.43,0.1270698,
2,1,0,1,0,66212.3,0.140263,0.139888,39.2947,34,0.00498675,10,0.00549685,-1.40567,0.558565,0.105628,161.986,0.139888,
2,1,0,1,0,66212.4,0.153064,0.152631,41.3705,34,0.00563228,10,0.00631441,-1.38331,0.571895,0.103166,166.669,0.152631,
2,1,0,1,0,66212.4,0.165866,0.165496,43.5124,34,0.00631199,10,0.00720111,-1.36139,0.641256,0.0920069,156.078,0.165496,
2,1,0,1,0,66212.4,0.178667,0.178309,45.3671,34,0.00702362,10,0.00808935,-1.34326,0.792062,0.0744891,131.735,0.178309,
2,1,0,1,0,66212.4,0.191463,0.191112,46.8382,34,0.00776219,10,0.00895134,-1.3294,1.16105,0.050816,92.7263,0.191112,
2,1,0,1,0,66212.4,0.204269,0.203916,47.6805,34,0.00851941,10,0.00972283,-1.32166,2.99495,0.0196998,36.5862,0.203916,
2,1,0,1,0,66212.4,0.217062,0.216676,47.7844,34,0.00928418,10,0.0103537,-1.32071,-5.23978,-0.01126,-20.9558,0.216676,
2,1,0,1,0,66212.4,0.229866,0.229522,47.1349,34,0.0100445,10,0.0108185,-1.32666,-1.37597,-0.0428789,-78.7283,0.229522,
2,1,0,1,0,66212.5,0.242662,0.242314,45.7725,34,0.0107886,10,0.0110913,-1.3394,-0.808172,-0.0730043,-130.219,0.242314,
2,1,0,1,0,66212.5,0.255466,0.255128,43.8576,34,0.0115062,10,0.0111893,-1.35795,-0.607939,-0.0970492,-165.927,0.255128,
2,1,0,1,0,66212.5,0.268259,0.267951,41.5989,34,0.01219,10,0.0111465,-1.38092,-0.527897,-0.111764,-181.381,0.267951,
2,1,0,1,0,66212.5,0.281065,0.28077,39.2757,34,0.0128368,10,0.0110275,-1.40588,-0.504612,-0.116921,-179.21,0.28077,
2,1,0,1,0,66212.5,0.293861,0.293538,37.0431,34,0.0134469,10,0.0108735,-1.43129,-0.514724,-0.114625,-166.019,0.293538,
2,1,0,1,0,66212.5,0.298983,0.2988,34.1233,34,0.013773,10,0.0101961,-1.46695,0.0516612,1.14206,1379.63,0.2988,
2,1,0,1,0,66212.6,0.286187,0.285947,20.6892,34,0.0141982,10,0.00591603,-1.68426,0.0595066,0.991486,803.239,0.285947,
2,1,0,1,0,66212.6,0.273386,0.273092,12.0915,34,0.0144559,10,0.00330209,-1.91752,0.047665,1.2378,578.534,0.273092,
2,1,0,1,0,66212.6,0.260585,0.260287,5.66072,34,0.014595,10,0.00147341,-2.24713,0.0280364,2.10441,439.635,0.260287,
2,1,0,1,0,66212.6,0.247783,0.247514,0.655823,34,0.0146435,10,0.000162325,-3.18321,0.0402405,1.46619,349.187,0.247514,
2,0,0,1,0,66212.6,0.234982,0.234688,-3.3528,34,0.0146204,10,-0.000786864,-2.47459,-0.0236928,-2.4902,280.812,0.234688,
2,0,0,1,0,66212.6,0.222187,0.221902,-6.61342,34,0.0145394,10,-0.00146753,-2.17957,-0.0635046,-0.929067,233.49,0.221902,
2,0,0,1,0,66212.6,0.20938,0.209057,-9.35716,34,0.0144106,10,-0.00195618,-2.02886,-0.107713,-0.547751,197.8,0.209057,
2,0,0,1,0,66212.7,0.196587,0.196268,-11.6897,34,0.0142414,10,-0.00229431,-1.9322,-0.158164,-0.373031,169.166,0.196268,
2,0,0,1,0,66212.7,0.183783,0.183506,-13.7336,34,0.0140375,10,-0.0025202,-1.86221,-0.2085,-0.282974,151.114,0.183506,
2,0,0,1,0,66212.7,0.170987,0.170722,-15.5789,34,0.0138026,10,-0.00265966,-1.80746,-0.255139,-0.231246,140.42,0.170722,
2,0,0,1,0,66212.7,0.158183,0.157894,-17.3485,34,0.0135389,10,-0.00273922,-1.76074,-0.287845,-0.204971,138.804,0.157894,
2,0,0,1,0,66212.7,0.145385,0.145086,-19.2005,34,0.0132465,10,-0.00278572,-1.71669,-0.285968,-0.206317,154.823,0.145086,
2,0,0,1,0,66212.7,0.132584,0.132317,-21.3756,34,0.0129222,10,-0.00282835,-1.67008,-0.260161,-0.226783,189.587,0.132317,
2,0,0,1,0,66212.8,0.119783,0.119443,-24.1189,34,0.0125589,10,-0.00288085,-1.61764,-0.232837,-0.253396,238.818,0.119443,
2,0,0,1,0,66212.8,0.106987,0.106732,-27.4528,34,0.0121467,10,-0.00293009,-1.56141,-0.229091,-0.25754,275.809,0.106732,
2,0,0,1,0,66212.8,0.0941801,0.0939045,-31.0415,34,0.0116783,10,-0.00291494,-1.50806,-0.256613,-0.229919,278.072,0.0939045,
2,0,0,1,0,66212.8,0.0813844,0.0810916,-34.4791,34,0.0111533,10,-0.00279597,-1.46244,-0.312223,-0.188968,253.603,0.0810916,
2,0,0,1,0,66212.8,0.0685832,0.0683169,-37.5422,34,0.0105766,10,-0.00256477,-1.42548,-0.386358,-0.152708,223.148,0.0683169,
2,0,0,1,0,66212.8,0.0557876,0.0555157,-40.0888,34,0.00995442,10,-0.00222556,-1.39698,-0.520655,-0.113319,176.958,0.0555157,
2,0,0,1,0,66212.9,0.0429808,0.0427145,-42.1158,34,0.00929593,10,-0.00179895,-1.37555,-0.680872,-0.0866536,142.244,0.0427145,
2,0,0,1,0,66212.9,0.030188,0.0298825,-43.724,34,0.0086084,10,-0.00130658,-1.35928,-0.92902,-0.0635078,108.237,0.0298825,
2,0,0,1,0,66212.9,0.017384,0.0171035,-44.9061,34,0.00789858,10,-0.000768052,-1.34769,-1.33859,-0.0440761,77.1672,0.0171035,
2,0,0,1,0,66212.9,0.00458834,0.00428532,-45.7125,34,0.00717302,10,-0.000195893,-1.33996,-2.0694,-0.0285107,50.8301,0.00428532,
2,0,0,1,0,66212.9,-0.00821564,-0.00856575,-46.1873,34,0.00643706,10,0.000395629,-1.33548,-5.00686,-0.0117838,21.2214,-0.00856575,
2,0,0,1,0,66212.9,-0.0210196,-0.021367,-46.2947,34,0.00569674,10,0.000989178,-1.33447,27.8048,0.00212194,-3.83064,-0.021367,
2,0,0,1,0,66213,-0.0338153,-0.0341905,-46.101,34,0.00495717,10,0.00157622,-1.33629,4.54217,0.0129894,-23.3609,-0.03419048,
2,0,0,1,0,66213,-0.0466193,-0.047015,-45.728,34,0.00422232,10,0.0021499,-1.33982,3.03534,0.0194377,-34.6762,-0.047015,
2,0,0,1,0,66213,-0.0594122,-0.0598046,-45.2544,34,0.00349445,10,0.00270642,-1.34434,2.83114,0.0208397,-36.8053,-0.0598046,
2,0,0,1,0,66213,-0.0722189,-0.0725634,-44.8091,34,0.00277404,10,0.0032515,-1.34863,3.22967,0.0182681,-31.9502,-0.0725634,
2,0,0,1,0,66213,-0.0850146,-0.0853922,-44.4416,34,0.00206019,10,0.00379497,-1.35221,4.46174,0.0132235,-22.9463,-0.0853922,
2,0,0,1,0,66213,-0.0978158,-0.0982221,-44.2208,34,0.00135103,10,0.00434346,-1.35437,9.52886,0.00619171,-10.6922,-0.0982221,
2,0,0,1,0,66213,-0.110611,-0.110938,-44.1602,34,0.000644057,10,0.00489907,-1.35497,-47.6554,-0.00123805,2.13529,-0.110938,
2,0,0,1,0,66213.1,-0.123418,-0.123778,-44.2899,34,-6.34591e-05,10,0.00548211,-1.35369,-6.18398,-0.00954079,16.4994,-0.1237779,
2,0,0,1,0,66213.1,-0.136214,-0.136553,-44.5813,34,-0.000774283,10,0.00608769,-1.35085,-3.65653,-0.0161355,28.0839,-0.136553,
2,0,0,1,0,66213.1,-0.149015,-0.149345,-45.0114,34,-0.001491,10,0.00672224,-1.34668,-2.72296,-0.0216676,38.0708,-0.149345,
2,0,0,1,0,66213.1,-0.161816,-0.162186,-45.5195,34,-0.00221533,10,0.00738262,-1.3418,-2.5589,-0.0230568,40.9663,-0.162186,
2,0,0,1,0,66213.1,-0.174615,-0.174944,-46.0292,34,-0.002948,10,0.00805251,-1.33697,-2.77416,-0.0212677,38.2076,-0.174944,
2,0,0,1,0,66213.1,-0.187419,-0.187755,-46.4895,34,-0.00368844,10,0.00872865,-1.33265,-3.4836,-0.0169365,30.7178,-0.187755,
2,0,0,1,0,66213.2,-0.199647,-0.199998,-46.8237,34,-0.00440252,10,0.00936464,-1.32953,0.252133,0.234004,-416.069,-0.199998,
2,0,0,1,1,66213.2,-0.192535,-0.192906,-36.1579,34,-0.00481714,10,0.00697507,-1.4418,-0.0778871,-0.757507,1093.43,-0.192906,
2,0,0,1,1,66213.2,-0.179739,-0.180117,-25.6924,34,-0.00530526,10,0.00462765,-1.5902,-0.0867724,-0.67994,683.741,-0.180117,
2,0,0,1,1,66213.2,-0.166932,-0.167336,-18.0344,34,-0.00565185,10,0.00301781,-1.7439,-0.077111,-0.765131,536.802,-0.167336,
2,0,0,1,1,66213.2,-0.154139,-0.154502,-11.7688,34,-0.00588817,10,0.0018183,-1.92927,-0.0590214,-0.999638,453.467,-0.154502,
2,0,0,1,1,66213.2,-0.141335,-0.141699,-6.35021,34,-0.00603156,10,0.000899817,-2.19721,-0.0352344,-1.6745,396.99,-0.141699,
2,0,0,1,1,66213.2,-0.12854,-0.128986,-1.54471,34,-0.00609356,10,0.000199245,-2.81115,-0.016819,-3.50794,356.632,-0.128986,
2,1,0,1,1,66213.3,-0.115736,-0.116197,2.81176,34,-0.00608245,10,-0.000326718,-2.55102,0.014936,3.95019,326.717,-0.116197,
2,1,0,1,1,66213.3,-0.102932,-0.103388,6.81936,34,-0.00600459,10,-0.000705043,-2.16626,0.0503663,1.17142,301.786,-0.1033884,
2,1,0,1,1,66213.3,-0.0901362,-0.090619,10.5491,34,-0.00586484,10,-0.000955948,-1.97679,0.0851129,0.693197,281.841,-0.09061899,
2,1,0,1,1,66213.3,-0.0773322,-0.0777987,14.0307,34,-0.00566754,10,-0.00109157,-1.85292,0.123174,0.478999,260.353,-0.0777987,
2,1,0,1,1,66213.3,-0.0645393,-0.0649412,17.2425,34,-0.00541667,10,-0.00111975,-1.7634,0.163929,0.359911,241.106,-0.06494122,
2,1,0,1,1,66213.3,-0.0517325,-0.0521368,20.2328,34,-0.00511628,10,-0.00105487,-1.69394,0.206495,0.285721,224.852,-0.0521368,
2,1,0,1,1,66213.4,-0.0389369,-0.0393122,22.9736,34,-0.00477003,10,-0.000903146,-1.63877,0.256501,0.230018,205.824,-0.0393122,
2,1,0,1,1,66213.4,-0.0261357,-0.0265184,25.492,34,-0.00438164,10,-0.000676008,-1.5936,0.312284,0.188931,187.655,-0.0265184,
2,1,0,1,1,66213.4,-0.01334,-0.0137384,27.7792,34,-0.00395487,10,-0.000381642,-1.55628,0.379506,0.155465,168.277,-0.0137384,
2,1,0,1,1,66213.4,-0.000774629,-0.00120493,29.7962,34,-0.00350243,10,-3.59023e-05,-1.52584, , , ,-0.00120493,
2,1,0,0,1,66213.4,-0.000125413,-0.000382585,29.9041,34,-0.00347857,10,-1.14409e-05,-1.52427, , , ,-0.000382585,