File: Figure_codes/Fig_3-5/rawdata_trumpetplot_data/after 10th/20221101_1-115_003_TrumpetPlot_ParaChange_from10_every3_07_CV_C01_16.csv
mode,ox/red,error,control changes,counter inc.,time/s,control/V,Ewe/V,<I>/mA,cycle number,(Q-Qo)/C,I Range,P/W,log(|I|),Tafel slope mV/dec,alpha_eff,dI/d(E-IR),E-IR/V,
2,0,0,0,0,32687.1,2.44065e-05,-0.000325324,-2.69758,17,0.0000000E+000,10,8.77588e-07,-2.56902, , , ,-0.000325324,
2,1,0,1,0,32687.2,0.007288,0.00696804,1.3441,17,8.60614e-06,10,9.36572e-06,-2.87157,0.0150586,3.91803,187.745,0.006968041,
2,1,0,1,0,32687.4,0.0147816,0.0144397,2.12847,17,0.000236323,10,3.07345e-05,-2.67193,0.071643,0.823528,68.1885,0.0144397,
2,1,0,1,0,32687.5,0.0222712,0.0219625,2.4919,17,0.000529148,10,5.47283e-05,-2.60347,0.147783,0.399235,38.8824,0.0219625,
2,1,0,1,0,32687.6,0.0297648,0.0294273,2.77606,17,0.000860693,10,8.16918e-05,-2.55657,0.188949,0.312253,33.7603,0.0294273,
2,1,0,1,0,32687.7,0.0372518,0.0369213,3.03625,17,0.00122501,10,0.000112102,-2.51766,0.199592,0.295603,34.913,0.0369213,
2,1,0,1,0,32687.8,0.0447467,0.0444231,3.2801,17,0.00162146,10,0.000145712,-2.48411,0.20581,0.286672,36.7463,0.0444231,
2,1,0,1,0,32688,0.052235,0.0519205,3.51724,17,0.00204868,10,0.000182617,-2.4538,0.25266,0.233516,32.13,0.0519205,
2,1,0,1,0,32688.1,0.0597299,0.059421,3.76068,17,0.0025062,10,0.000223463,-2.42473,0.294764,0.20016,29.3646,0.059421,
2,1,0,1,0,32688.2,0.0672156,0.0668924,3.98416,17,0.00299128,10,0.00026651,-2.39966,0.313903,0.187956,29.1172,0.0668924,
2,1,0,1,0,32688.3,0.0747105,0.0743935,4.16498,17,0.00350224,10,0.000309847,-2.38039,0.40143,0.146974,23.9125,0.0743935,
2,1,0,1,0,32688.5,0.0821988,0.0819253,4.32589,17,0.00403486,10,0.0003544,-2.36392,0.50983,0.115725,19.553,0.0819253,
2,1,0,1,0,32688.6,0.0896937,0.0893348,4.4827,17,0.0045871,10,0.000400461,-2.34846,0.538309,0.109602,19.1833,0.0893348,
2,1,0,1,0,32688.7,0.0971794,0.0968801,4.68462,17,0.00516028,10,0.000453846,-2.32933,0.31541,0.187058,34.1598,0.0968801,
2,1,0,1,0,32688.8,0.104674,0.104377,4.98344,17,0.00576445,10,0.000520157,-2.30247,0.223545,0.263929,51.3995,0.104377,
2,1,0,1,0,32689,0.112163,0.111817,5.38125,17,0.00641338,10,0.000601714,-2.26912,0.234122,0.252005,52.9824,0.111817,
2,1,0,1,0,32689.1,0.119657,0.119343,5.78554,17,0.00711361,10,0.000690465,-2.23766,0.307664,0.191768,43.2365,0.119343,
2,1,0,1,0,32689.2,0.127143,0.126786,6.06158,17,0.00785572,10,0.000768523,-2.21741,0.472886,0.124766,29.4798,0.126786,
2,1,0,1,0,32689.3,0.134638,0.134352,6.23189,17,0.00862652,10,0.000837265,-2.20538,0.745705,0.0791197,19.2634,0.134352,
2,1,0,1,0,32689.5,0.142126,0.141803,6.28971,17,0.00941274,10,0.000891898,-2.20137,-1.95616,-0.0301612,-7.3976,0.141803,
2,1,0,1,0,32689.6,0.149621,0.149301,5.97491,17,0.010187,10,0.000892061,-2.22367,-0.165468,-0.356565,-82.7741,0.149301,
2,1,0,1,0,32689.7,0.157107,0.156779,5.10788,17,0.0108847,10,0.000800808,-2.29176,-0.0849207,-0.694766,-138.095,0.156779,
2,1,0,1,0,32689.8,0.164602,0.164267,4.13225,17,0.0114614,10,0.000678794,-2.38381,-0.0864483,-0.682489,-110.346,0.164267,
2,1,0,1,0,32690,0.17209,0.171774,3.4736,17,0.011935,10,0.000596674,-2.45922,-0.11859,-0.497513,-67.8735,0.1717739,
2,1,0,1,0,32690.1,0.179585,0.179252,3.09859,17,0.0123459,10,0.000555428,-2.50884,-0.173006,-0.341029,-41.309,0.179252,
2,1,0,1,0,32690.2,0.187072,0.186763,2.8785,17,0.0127193,10,0.000537596,-2.54083,-0.298947,-0.197359,-22.1312,0.186763,
2,1,0,1,0,32690.3,0.194566,0.194273,2.72746,17,0.0130705,10,0.000529873,-2.56424,-0.480781,-0.122717,-13.0908,0.194273,
2,1,0,1,0,32690.5,0.202055,0.20175,2.63126,17,0.0134071,10,0.000530856,-2.57984,-0.578177,-0.102045,-10.5137,0.20175,
2,1,0,1,0,32690.6,0.209549,0.209239,2.57524,17,0.0137345,10,0.00053884,-2.58918,-0.652537,-0.0904163,-9.08656,0.2092386,
2,1,0,1,0,32690.7,0.217036,0.216703,2.531,17,0.0140547,10,0.000548475,-2.59671,-0.870966,-0.0677409,-6.67953,0.216703,
2,1,0,1,0,32690.8,0.224529,0.224227,2.49003,17,0.0143701,10,0.000558332,-2.60379,-1.7809,-0.0331293,-3.22453,0.224227,
2,1,0,1,0,32691,0.232019,0.231739,2.45923,17,0.0146813,10,0.000569899,-2.6092,-6.55388,-0.0090023,-0.86673,0.231739,
2,1,0,1,0,32691.1,0.239513,0.239211,2.44103,17,0.0149896,10,0.00058392,-2.61243,-1.42556,-0.0413873,-3.94256,0.239211,
2,1,0,1,0,32691.2,0.247001,0.246704,2.4244,17,0.0152949,10,0.000598107,-2.6154,-1.38408,-0.0426277,-4.01737,0.246704,
2,1,0,1,0,32691.3,0.254493,0.25416,2.39874,17,0.015598,10,0.000609664,-2.62002,-3.22159,-0.018314,-1.71731,0.25416,
2,1,0,1,0,32691.5,0.261983,0.261701,2.3761,17,0.0158985,10,0.000621827,-2.62414,-1.61354,-0.0365657,-3.40439,0.261701,
2,1,0,1,0,32691.6,0.269477,0.269169,2.36813,17,0.016197,10,0.000637427,-2.62559,-1.95683,-0.0301508,-2.78457,0.269169,
2,1,0,1,0,32691.7,0.276965,0.27667,2.3494,17,0.0164931,10,0.000650007,-2.62904,-2.41707,-0.0244097,-2.23283,0.2766698,
2,1,0,1,0,32691.8,0.284457,0.284091,2.32735,17,0.016787,10,0.000661178,-2.63314,-8.27471,-0.00713016,-0.647741,0.284091,
2,1,0,1,0,32692,0.291947,0.291661,2.30524,17,0.0170782,10,0.000672347,-2.63728,-2.03276,-0.0290246,-2.61328,0.291661,
2,1,0,1,0,32692.1,0.29944,0.299137,2.2829,17,0.017367,10,0.000682902,-2.64151,-0.00658855,-8.95493,-594.325,0.299137,
2,0,0,1,0,32692.2,0.293742,0.293397,-0.536486,17,0.01741,10,-0.000157404,-3.27044,-0.00955701,-6.17348,105.785,0.293397,
2,0,0,1,0,32692.3,0.286254,0.285915,-0.928462,17,0.0173117,10,-0.000265461,-3.03224,-0.0660492,-0.893274,32.2969,0.285915,
2,0,0,1,0,32692.5,0.278761,0.278422,-1.11197,17,0.0171805,10,-0.000309596,-2.95391,-0.123523,-0.477643,20.8278,0.278422,
2,0,0,1,0,32692.6,0.271272,0.270969,-1.24851,17,0.0170303,10,-0.000338309,-2.90361,-0.19608,-0.300897,14.6247,0.270969,
2,0,0,1,0,32692.7,0.263778,0.263427,-1.35699,17,0.0168656,10,-0.000357468,-2.86742,-0.264685,-0.222907,11.704,0.2634275,
2,0,0,1,0,32692.8,0.25629,0.256005,-1.44138,17,0.0166892,10,-0.000369,-2.84122,-0.285227,-0.206853,11.55,0.256005,
2,0,0,1,0,32693,0.248797,0.248468,-1.51393,17,0.0165025,10,-0.000376163,-2.81989,-0.34132,-0.172858,10.2184,0.248468,
2,0,0,1,0,32693.1,0.241308,0.240987,-1.5811,17,0.0163068,10,-0.000381026,-2.80104,-0.50111,-0.117739,7.3013,0.240987,
2,0,0,1,0,32693.2,0.233814,0.23352,-1.65552,17,0.0161025,10,-0.000386596,-2.78107,-0.501672,-0.117607,7.56239,0.23352,
2,0,0,1,0,32693.3,0.226326,0.226003,-1.71661,17,0.0158901,10,-0.000387958,-2.76533,-0.391234,-0.150805,10.0925,0.226003,
2,0,0,1,0,32693.5,0.218834,0.218534,-1.77597,17,0.0156697,10,-0.00038811,-2.75056,-0.375896,-0.156958,10.893,0.218534,
2,0,0,1,0,32693.6,0.211344,0.211042,-1.83868,17,0.0154419,10,-0.000388038,-2.73549,-0.783282,-0.0753241,5.40755,0.211042,
2,0,0,1,0,32693.7,0.203856,0.203524,-1.90364,17,0.0152061,10,-0.000387438,-2.72041,-0.606389,-0.0972973,7.21975,0.203524,
2,0,0,1,0,32693.8,0.196362,0.196002,-1.96792,17,0.0149623,10,-0.000385715,-2.70599,-0.512265,-0.115175,8.84235,0.196002,
2,0,0,1,0,32694,0.18887,0.188534,-2.03414,17,0.0147098,10,-0.000383505,-2.69162,-0.367804,-0.160411,12.7948,0.188534,
2,0,0,1,0,32694.1,0.18138,0.181066,-2.11866,17,0.0144478,10,-0.000383618,-2.67394,-0.433292,-0.136167,11.2994,0.181066,
2,0,0,1,0,32694.2,0.173892,0.173512,-2.22609,17,0.0141745,10,-0.000386254,-2.65246,-0.323678,-0.18228,15.8044,0.173512,
2,0,0,1,0,32694.3,0.166398,0.166068,-2.35527,17,0.0138868,10,-0.000391135,-2.62796,-0.283996,-0.207749,19.0888,0.166068,
2,0,0,1,0,32694.5,0.158905,0.15856,-2.52501,17,0.0135803,10,-0.000400364,-2.59774,-0.186946,-0.315599,31.2352,0.15856,
2,0,0,1,0,32694.6,0.151417,0.151057,-2.80519,17,0.0132461,10,-0.000423743,-2.55204,-0.140454,-0.420066,46.1709,0.151057,
2,0,0,1,0,32694.7,0.143927,0.143558,-3.26469,17,0.0128674,10,-0.000468673,-2.48616,-0.097143,-0.607352,77.3586,0.1435582,
2,0,0,1,0,32694.8,0.136435,0.136062,-3.94869,17,0.012417,10,-0.000537267,-2.40355,-0.0871645,-0.676881,104.15,0.136062,
2,0,0,1,0,32695,0.128941,0.128588,-4.75419,17,0.0118717,10,-0.000611333,-2.32292,-0.102084,-0.577954,107.066,0.128588,
2,0,0,1,0,32695.1,0.121453,0.121137,-5.47045,17,0.0112293,10,-0.000662675,-2.26198,-0.151253,-0.390075,83.3012,0.121137,
2,0,0,1,0,32695.2,0.113963,0.113627,-6.00759,17,0.0105084,10,-0.000682625,-2.2213,-0.26046,-0.226522,53.011,0.113627,
2,0,0,1,0,32695.3,0.106471,0.106153,-6.30714,17,0.00973471,10,-0.000669519,-2.20017,-0.609128,-0.0968597,23.8059,0.106153,
2,0,0,1,0,32695.5,0.0989825,0.0986047,-6.34215,17,0.00894044,10,-0.000625366,-2.19776,1.79991,0.0327794,-8.10622,0.0986047,
2,0,0,1,0,32695.6,0.0914889,0.0911429,-6.16111,17,0.00815564,10,-0.000561541,-2.21034,0.415868,0.141872,-34.1223,0.0911429,
2,0,0,1,0,32695.7,0.0839993,0.0836697,-5.89466,17,0.00740126,10,-0.000493205,-2.22954,0.35865,0.164506,-37.8069,0.0836697,
2,0,0,1,0,32695.8,0.076507,0.076194,-5.67404,17,0.00667768,10,-0.000432328,-2.24611,0.519858,0.113493,-25.1143,0.076194,
2,0,0,1,0,32696,0.0690187,0.0686824,-5.50818,17,0.00597795,10,-0.000378314,-2.25899,0.712541,0.0828023,-17.8225,0.0686824,
2,0,0,1,0,32696.1,0.0615251,0.0611756,-5.37616,17,0.00529534,10,-0.00032889,-2.26953,0.653556,0.0902754,-18.9602,0.0611756,
2,0,0,1,0,32696.2,0.0540355,0.0537073,-5.24157,17,0.00463045,10,-0.000281511,-2.28054,0.585991,0.100684,-20.5662,0.0537073,
2,0,0,1,0,32696.3,0.0465432,0.0462216,-5.08965,17,0.00398313,10,-0.000235252,-2.29331,0.622166,0.09483,-18.8124,0.04622161,
2,0,0,1,0,32696.5,0.0390549,0.0387225,-4.9182,17,0.00335624,10,-0.000190445,-2.30819,0.48992,0.120428,-23.1074,0.0387225,
2,0,0,1,0,32696.6,0.0315613,0.0311845,-4.72674,17,0.002751,10,-0.000147401,-2.32544,0.40516,0.145621,-26.8973,0.0311845,
2,0,0,1,0,32696.7,0.0240717,0.0237103,-4.52984,17,0.00217085,10,-0.000107404,-2.34392,0.361531,0.163195,-28.8515,0.0237103,
2,0,0,1,0,32696.8,0.0165781,0.0162191,-4.34514,17,0.00161479,10,-7.04743e-05,-2.362,0.480494,0.12279,-20.8133,0.0162191,
2,0,0,1,0,32697,0.00909108,0.0087306,-4.19922,17,0.00107987,10,-3.66617e-05,-2.37683,0.673364,0.0876198,-14.3604,0.0087306,
2,0,0,1,0,32697.1,0.00159616,0.00118206,-4.12641,17,0.00055979,10,-4.87766e-06,-2.38443, , , ,0.00118206,
2,0,0,1,0,32697.1,0.000199195,-0.000185986,-4.09654,17,0.000463509,10,7.61899e-07,-2.38758, , , ,-0.000185986,