File: Figure_codes/Fig_3-5/rawdata_trumpetplot_data/after 10th/20221101_1-115_003_TrumpetPlot_ParaChange_from10_every3_10_CV_C01_33.csv
mode,ox/red,error,control changes,counter inc.,time/s,control/V,Ewe/V,<I>/mA,cycle number,(Q-Qo)/C,I Range,P/W,log(|I|),Tafel slope mV/dec,alpha_eff,dI/d(E-IR),E-IR/V,
2,1,0,0,0,66204.8,-2.44065e-05,-0.000344411,5.14978,34,0.0000000E+000,10,-1.77364e-06,-2.28821, , , ,-0.000344411,
2,1,0,1,0,66204.9,0.00977853,0.00944912,7.2891,34,0.000313501,10,6.88756e-05,-2.13733,0.122031,0.483486,137.014,0.00944912,
2,1,0,1,0,66204.9,0.0197755,0.0194405,8.34017,34,0.00070628,10,0.000162137,-2.07883,0.233103,0.253108,82.336,0.0194405,
2,1,0,1,0,66205,0.0297726,0.0294413,9.05595,34,0.00114209,10,0.000266619,-2.04307,0.352089,0.167571,59.166,0.0294413,
2,1,0,1,0,66205,0.0397514,0.0394105,9.63012,34,0.00160878,10,0.000379528,-2.01637,0.378953,0.155692,58.5694,0.0394105,
2,1,0,1,0,66205.1,0.0497393,0.0494336,10.1902,34,0.00210332,10,0.000503738,-1.99182,0.434731,0.135716,53.9062,0.0494336,
2,1,0,1,0,66205.1,0.0597364,0.0593972,10.7351,34,0.00262629,10,0.000637637,-1.96919,0.437916,0.134729,56.4462,0.0593972,
2,1,0,1,0,66205.2,0.0697152,0.0693784,11.3048,34,0.00317611,10,0.00078431,-1.94674,0.446805,0.132049,58.2652,0.0693784,
2,1,0,1,0,66205.2,0.0796941,0.0793521,11.8834,34,0.0037548,10,0.000942973,-1.92506,0.478145,0.123394,57.228,0.0793521,
2,1,0,1,0,66205.3,0.0896911,0.0893486,12.4385,34,0.00436279,10,0.00111136,-1.90523,0.508362,0.116059,56.3311,0.0893486,
2,1,0,1,0,66205.3,0.099679,0.0993455,12.968,34,0.00499678,10,0.00128832,-1.88713,0.561915,0.104998,53.1244,0.0993455,
2,1,0,1,0,66205.4,0.109658,0.109324,13.5224,34,0.00565724,10,0.00147832,-1.86895,0.511293,0.115394,60.8876,0.109324,
2,1,0,1,0,66205.4,0.119655,0.119284,14.2122,34,0.00634995,10,0.0016953,-1.84734,0.426429,0.138358,76.7678,0.119284,
2,1,0,1,0,66205.5,0.129652,0.129324,15.037,34,0.00708094,10,0.00194466,-1.82284,0.403147,0.146349,85.8322,0.129324,
2,1,0,1,0,66205.5,0.139631,0.139337,15.8353,34,0.0078519,10,0.00220645,-1.80037,0.487905,0.120925,74.7894,0.139337,
2,1,0,1,0,66205.6,0.149619,0.149327,16.5087,34,0.0086599,10,0.00246519,-1.78229,0.678708,0.0869299,55.9555,0.149327,
2,1,0,1,0,66205.6,0.159616,0.159296,16.838,34,0.00949555,10,0.00268223,-1.77371,9.79556,0.00602313,3.95657,0.159296,
2,1,0,1,0,66205.7,0.169595,0.169279,16.5245,34,0.0103311,10,0.00279725,-1.78187,-0.520439,-0.113366,-72.9874,0.169279,
2,1,0,1,0,66205.7,0.179573,0.179251,15.3718,34,0.0111298,10,0.00275541,-1.81328,-0.244257,-0.241549,-144.953,0.179251,
2,1,0,1,0,66205.8,0.18957,0.189264,13.7691,34,0.011859,10,0.002606,-1.86109,-0.192452,-0.30657,-164.624,0.189264,
2,1,0,1,0,66205.8,0.199558,0.199252,12.2352,34,0.0125064,10,0.00243789,-1.91239,-0.205629,-0.286924,-137.05,0.199252,
2,1,0,1,0,66205.9,0.209537,0.209232,11.0354,34,0.0130852,10,0.00230896,-1.95721,-0.240219,-0.245609,-105.775,0.209232,
2,1,0,1,0,66205.9,0.219534,0.21926,10.128,34,0.0136129,10,0.00222065,-1.99448,-0.302368,-0.195126,-77.2155,0.21926,
2,1,0,1,0,66206,0.229531,0.229265,9.4598,34,0.0141019,10,0.0021688,-2.02412,-0.369686,-0.159595,-58.9219,0.229265,
2,1,0,1,0,66206,0.23951,0.239191,8.95346,34,0.0145608,10,0.00214159,-2.04801,-0.485194,-0.121601,-42.5176,0.2391911,
2,1,0,1,0,66206.1,0.249498,0.249181,8.56139,34,0.0149974,10,0.00213334,-2.06746,-0.545336,-0.10819,-36.1218,0.249181,
2,1,0,1,0,66206.1,0.259495,0.259193,8.24213,34,0.015417,10,0.0021363,-2.08396,-0.642592,-0.0918156,-29.5451,0.259193,
2,1,0,1,0,66206.2,0.269474,0.26912,7.98786,34,0.0158216,10,0.00214969,-2.09757,-0.789145,-0.0747645,-23.2949,0.26912,
2,1,0,1,0,66206.2,0.279453,0.27913,7.76231,34,0.0162146,10,0.0021667,-2.11001,-0.868221,-0.067955,-20.6179,0.27913,
2,1,0,1,0,66206.3,0.28945,0.289137,7.58328,34,0.0165982,10,0.00219261,-2.12014,-1.09005,-0.0541261,-16.007,0.289137,
2,1,0,1,0,66206.3,0.299438,0.299139,7.41629,34,0.0169724,10,0.0022185,-2.12981,-0.077777,-0.758579,-213.134,0.299139,
2,1,0,1,0,66206.4,0.291747,0.29143,1.72015,34,0.0171561,10,0.000501302,-2.76443,0.00992305,5.94575,388.385,0.29143,
2,0,0,1,0,66206.4,0.28175,0.281475,-0.922289,34,0.0171673,10,-0.000259602,-3.03513,-0.0108458,-5.43989,180.521,0.281475,
2,0,0,1,0,66206.5,0.27178,0.271469,-2.29852,34,0.0170838,10,-0.000623977,-2.63855,-0.0486544,-1.21264,107.723,0.271469,
2,0,0,1,0,66206.5,0.261783,0.26152,-3.14524,34,0.0169463,10,-0.000822541,-2.50235,-0.105488,-0.559305,68.6051,0.2615197,
2,0,0,1,0,66206.6,0.251786,0.251462,-3.74143,34,0.0167733,10,-0.000940825,-2.42696,-0.169636,-0.347803,50.67,0.251462,
2,0,0,1,0,66206.6,0.241807,0.241507,-4.1874,34,0.0165749,10,-0.00101129,-2.37806,-0.240126,-0.245705,40.2471,0.241507,
2,0,0,1,0,66206.7,0.231824,0.231502,-4.56732,34,0.0163563,10,-0.00105734,-2.34034,-0.301098,-0.195949,34.828,0.231502,
2,0,0,1,0,66206.7,0.221822,0.221497,-4.8714,34,0.0161203,10,-0.001079,-2.31235,-0.380073,-0.155233,29.4998,0.221497,
2,0,0,1,0,66206.8,0.211844,0.211542,-5.15901,34,0.01587,10,-0.00109135,-2.28743,-0.463355,-0.127332,25.5983,0.211542,
2,0,0,1,0,66206.8,0.201865,0.201545,-5.4108,34,0.0156062,10,-0.00109052,-2.26674,-0.51283,-0.115048,24.3422,0.201545,
2,0,0,1,0,66206.9,0.191868,0.191538,-5.67352,34,0.015329,10,-0.00108669,-2.24615,-0.511264,-0.1154,25.5301,0.1915378,
2,0,0,1,0,66206.9,0.18188,0.181559,-5.9325,34,0.0150396,10,-0.00107709,-2.22676,-0.465736,-0.126681,29.3361,0.1815585,
2,0,0,1,0,66207,0.171901,0.171565,-6.22143,34,0.0147366,10,-0.00106738,-2.20611,-0.471318,-0.125181,30.3409,0.171565,
2,0,0,1,0,66207,0.161904,0.161553,-6.54724,34,0.0144177,10,-0.00105773,-2.18394,-0.399159,-0.147811,37.8176,0.161553,
2,0,0,1,0,66207.1,0.151907,0.151559,-6.99985,34,0.0140794,10,-0.00106089,-2.15491,-0.307008,-0.192178,52.5148,0.151559,
2,0,0,1,0,66207.1,0.141928,0.141618,-7.68144,34,0.0137143,10,-0.00108783,-2.11456,-0.196126,-0.300828,90.3368,0.1416183,
2,0,0,1,0,66207.2,0.13194,0.131641,-8.79506,34,0.0133053,10,-0.00115779,-2.05576,-0.147991,-0.398674,136.787,0.131641,
2,0,0,1,0,66207.2,0.121943,0.12163,-10.3198,34,0.0128286,10,-0.00125521,-1.98633,-0.148206,-0.398094,160.321,0.12163,
2,0,0,1,0,66207.3,0.111964,0.111655,-11.9504,34,0.0122728,10,-0.00133433,-1.92262,-0.173999,-0.339082,157.956,0.1116552,
2,0,0,1,0,66207.3,0.101985,0.101676,-13.4166,34,0.0116388,10,-0.00136414,-1.87236,-0.234935,-0.251133,131.438,0.101676,
2,0,0,1,0,66207.4,0.0919883,0.0916695,-14.5851,34,0.0109371,10,-0.00133701,-1.83609,-0.327983,-0.179887,102.325,0.0916695,
2,0,0,1,0,66207.4,0.0820004,0.0816738,-15.3517,34,0.0101879,10,-0.00125383,-1.81384,-0.671784,-0.0878259,52.6116,0.0816738,
2,0,0,1,0,66207.5,0.0720215,0.0717163,-15.6492,34,0.00941268,10,-0.0011223,-1.80551,-3.88868,-0.0151723,9.26065,0.0717163,
2,0,0,1,0,66207.5,0.0620245,0.0616954,-15.6064,34,0.0086302,10,-0.000962845,-1.8067,2.51258,0.0234818,-14.3124,0.0616954,
2,0,0,1,0,66207.6,0.0520275,0.0516841,-15.4695,34,0.00785299,10,-0.000799525,-1.81053,1.86569,0.0316236,-19.0704,0.0516841,
2,0,0,1,0,66207.6,0.0420486,0.0417002,-15.2684,34,0.00708605,10,-0.000636694,-1.81621,1.70882,0.0345267,-20.5894,0.0417002,
2,0,0,1,0,66207.7,0.0320607,0.0317179,-15.0415,34,0.00632959,10,-0.000477086,-1.82271,1.2914,0.0456869,-26.7933,0.0317179,
2,0,0,1,0,66207.7,0.0220637,0.021737,-14.7145,34,0.00558529,10,-0.00031985,-1.83225,0.961149,0.0613848,-35.2658,0.021737,
2,0,0,1,0,66207.8,0.0120848,0.0117927,-14.3088,34,0.00486068,10,-0.000168739,-1.8444,0.66977,0.08809,-49.1744,0.0117927,
2,0,0,1,0,66207.8,0.00210598,0.00172743,-13.8394,34,0.00415924,10,-2.39065e-05,-1.85888,0.688928,0.0856403,-46.1768,0.00172743,
2,0,0,1,0,66207.9,-0.00789103,-0.00827693,-13.3107,34,0.00348084,10,0.000110171,-1.8758,0.654091,0.0902015,-46.8865,-0.00827693,
2,0,0,1,0,66207.9,-0.017879,-0.0182817,-12.9136,34,0.00282701,10,0.000236084,-1.88895,0.923591,0.0638811,-32.1851,-0.0182817,
2,0,0,1,0,66208,-0.0278578,-0.028211,-12.6397,34,0.00219027,10,0.00035658,-1.89826,1.37032,0.0430556,-21.2375,-0.028211,
2,0,0,1,0,66208,-0.0378548,-0.0382249,-12.5066,34,0.00156222,10,0.000478063,-1.90286,3.57227,0.0165161,-8.06336,-0.0382249,
2,0,0,1,0,66208.1,-0.0478519,-0.048225,-12.498,34,0.000937564,10,0.000602714,-1.90316,-3.08232,-0.0191414,9.33712,-0.048225,
2,0,0,1,0,66208.1,-0.0578126,-0.058192,-12.5928,34,0.000313055,10,0.000732799,-1.89988,-2.03592,-0.0289795,14.2504,-0.058192,
2,0,0,1,0,66208.2,-0.0678187,-0.0681981,-12.7849,34,-0.000321094,10,0.000871906,-1.8933,-1.17856,-0.0500611,24.9688,-0.0681981,
2,0,0,1,0,66208.2,-0.0778157,-0.0781608,-13.047,34,-0.000966762,10,0.00101976,-1.88449,-1.01975,-0.0578576,29.4867,-0.0781608,
2,0,0,1,0,66208.3,-0.0877945,-0.0881684,-13.418,34,-0.00162671,10,0.00118304,-1.87231,-0.745656,-0.079125,41.4136,-0.0881684,
2,0,0,1,0,66208.3,-0.0977734,-0.0981887,-13.8445,34,-0.00230659,10,0.00135937,-1.85872,-0.657508,-0.0897328,48.5081,-0.0981887,
2,0,0,1,1,66208.4,-0.0936874,-0.0940862,-7.61275,34,-0.00278437,10,0.000716255,-2.11846,-0.0253861,-2.3241,692.16,-0.0940862,
2,0,0,1,1,66208.4,-0.0837086,-0.0841135,-2.36847,34,-0.0030219,10,0.00019922,-2.62553,-0.0127174,-4.63932,413.167,-0.0841135,
2,1,0,1,1,66208.5,-0.0737025,-0.0741143,1.13932,34,-0.00304697,10,-8.444e-05,-2.94335,0.00782776,7.53728,291.606,-0.0741143,
2,1,0,1,1,66208.5,-0.0637236,-0.0641303,3.62651,34,-0.00292484,10,-0.000232569,-2.44051,0.0390734,1.50998,212.38,-0.0641303,
2,1,0,1,1,66208.6,-0.0537448,-0.0540761,5.48845,34,-0.00269494,10,-0.000296794,-2.26055,0.0799902,0.73759,157.155,-0.0540761,
2,1,0,1,1,66208.6,-0.0437477,-0.0441281,6.85288,34,-0.00238443,10,-0.000302405,-2.16413,0.136316,0.432817,115.718,-0.0441281,
2,1,0,1,1,66208.7,-0.0337507,-0.0341403,7.86699,34,-0.00201484,10,-0.000268581,-2.10419,0.210722,0.279989,85.7862,-0.0341403,
2,1,0,1,1,66208.7,-0.0237809,-0.0241229,8.57568,34,-0.00160437,10,-0.00020687,-2.06673,0.320568,0.184048,61.6156,-0.0241229,
2,1,0,1,1,66208.8,-0.0137839,-0.0141472,9.07461,34,-0.00116223,10,-0.00012838,-2.04217,0.545646,0.108129,38.2357,-0.01414715,
2,1,0,1,1,66208.8,-0.0037869,-0.00416274,9.38773,34,-0.000699976,10,-3.90787e-05,-2.02744,0.886686,0.0665399,24.3846,-0.00416274,
2,1,0,1,1,66208.8,-2.55332e-05,-0.000287149,9.45635,34,-0.000523529,10,-2.71538e-06,-2.02428, , , ,-0.0002871489,