File: Figure_codes/Fig_3-5/rawdata_trumpetplot_data/after 10th/20221101_1-115_003_TrumpetPlot_ParaChange_from10_every3_13_CV_C01_25.csv
mode,ox/red,error,control changes,counter inc.,time/s,control/V,Ewe/V,<I>/mA,cycle number,(Q-Qo)/C,I Range,P/W,log(|I|),Tafel slope mV/dec,alpha_eff,dI/d(E-IR),E-IR/V,
2,1,0,1,0,50451.1,2.44065e-05,-0.000363498,16.6562,26,0.0000000E+000,10,-6.05451e-06,-1.77842, , , ,-0.000363498,
2,1,0,1,0,50451.1,0.0122624,0.0118959,20.6711,26,0.000286852,10,0.000245901,-1.68464,0.188207,0.313485,250.916,0.0118959,
2,1,0,1,0,50451.1,0.0250636,0.0247119,23.4892,26,0.000641328,10,0.000580463,-1.62913,0.269327,0.219065,200.216,0.0247119,
2,1,0,1,0,50451.2,0.0378704,0.0375132,25.8714,26,0.00103695,10,0.00097052,-1.58718,0.342876,0.172074,173.429,0.0375132,
2,1,0,1,0,50451.2,0.0506632,0.050307,27.9832,26,0.00146825,10,0.00140775,-1.5531,0.405098,0.145644,158.906,0.050307,
2,1,0,1,0,50451.2,0.0634672,0.0631146,29.9727,26,0.00193223,10,0.00189171,-1.52327,0.45043,0.130986,153.118,0.0631146,
2,1,0,1,0,50451.2,0.0762628,0.0759094,31.9095,26,0.00242755,10,0.00242224,-1.49608,0.484865,0.121683,151.494,0.0759094,
2,1,0,1,0,50451.2,0.0890668,0.0886788,33.8571,26,0.00295391,10,0.00300241,-1.47035,0.507743,0.1162,153.524,0.0886788,
2,1,0,1,0,50451.2,0.10186,0.101475,35.8202,26,0.00351159,10,0.00363485,-1.44587,0.536117,0.110051,153.846,0.101475,
2,1,0,1,0,50451.3,0.114666,0.114258,37.8178,26,0.00410095,10,0.00432098,-1.4223,0.552017,0.106881,157.737,0.114258,
2,1,0,1,0,50451.3,0.127462,0.127033,39.894,26,0.0047226,10,0.00506784,-1.39909,0.549915,0.107289,167.036,0.127033,
2,1,0,1,0,50451.3,0.140263,0.139808,42.073,26,0.00537843,10,0.00588216,-1.376,0.548671,0.107533,176.619,0.139808,
2,1,0,1,0,50451.3,0.153064,0.152685,44.4293,26,0.00607027,10,0.00678368,-1.35233,0.554471,0.106408,184.354,0.152685,
2,1,0,1,0,50451.3,0.165866,0.165486,46.677,26,0.00679976,10,0.00772439,-1.3309,0.646052,0.0913239,166.248,0.1654862,
2,1,0,1,0,50451.3,0.178667,0.178235,48.6585,26,0.00756318,10,0.00867267,-1.31284,0.813364,0.0725383,137.565,0.178235,
2,1,0,1,0,50451.4,0.191463,0.191082,50.1383,26,0.00835462,10,0.00958053,-1.29983,1.32663,0.0444735,86.8372,0.191082,
2,1,0,1,0,50451.4,0.204269,0.203913,50.8164,26,0.00916353,10,0.0103621,-1.294,6.93005,0.00851365,16.845,0.2039132,
2,1,0,1,0,50451.4,0.217062,0.216753,50.5479,26,0.00997579,10,0.0109564,-1.2963,-2.01734,-0.0292464,-57.5654,0.216753,
2,1,0,1,0,50451.4,0.229866,0.229514,49.3593,26,0.0107762,10,0.0113286,-1.30663,-0.887293,-0.0664944,-127.796,0.229514,
2,1,0,1,0,50451.4,0.242662,0.242339,47.321,26,0.0115505,10,0.0114677,-1.32495,-0.591588,-0.0997316,-183.88,0.242339,
2,1,0,1,0,50451.4,0.255466,0.255138,44.7157,26,0.0122871,10,0.0114087,-1.34954,-0.47295,-0.124749,-217.471,0.255138,
2,1,0,1,0,50451.5,0.268259,0.267914,41.8598,26,0.0129795,10,0.0112148,-1.3782,-0.432759,-0.136335,-222.694,0.267914,
2,1,0,1,0,50451.5,0.281065,0.280728,39.0865,26,0.0136266,10,0.0109727,-1.40797,-0.436269,-0.135238,-206.411,0.280728,
2,1,0,1,0,50451.5,0.293861,0.293484,36.5712,26,0.0142314,10,0.0107331,-1.43686,-0.459742,-0.128333,-183.675,0.293484,
2,1,0,1,0,50451.5,0.298983,0.298776,33.3731,26,0.0145526,10,0.00997107,-1.4766,0.0440976,1.33794,1556.94,0.298776,
2,1,0,1,0,50451.5,0.286187,0.285921,18.6285,26,0.0149531,10,0.00532627,-1.72982,0.0497671,1.18552,864.156,0.2859208,
2,1,0,1,0,50451.5,0.273386,0.273081,9.58635,26,0.0151736,10,0.00261785,-2.01835,0.0365231,1.61542,591.36,0.273081,
2,1,0,1,0,50451.5,0.260585,0.260292,3.04373,26,0.0152715,10,0.000792259,-2.51659,0.011005,5.3612,442.504,0.260292,
2,0,0,1,0,50451.6,0.247783,0.247494,-1.88749,26,0.0152785,10,-0.000467142,-2.72411,-0.013196,-4.47106,339.295,0.2474938,
2,0,0,1,0,50451.6,0.234982,0.234654,-5.75146,26,0.0152157,10,-0.0013496,-2.24022,-0.0468512,-1.25931,269.425,0.2346544,
2,0,0,1,0,50451.6,0.222187,0.221856,-8.84497,26,0.0150977,10,-0.00196231,-2.0533,-0.0918141,-0.642603,218.231,0.221856,
2,0,0,1,0,50451.6,0.20938,0.209069,-11.3941,26,0.0149349,10,-0.00238216,-1.94332,-0.142502,-0.41403,182.591,0.209069,
2,0,0,1,0,50451.6,0.196587,0.196262,-13.5468,26,0.0147346,10,-0.00265873,-1.86816,-0.198136,-0.297775,156.777,0.196262,
2,0,0,1,0,50451.6,0.183783,0.18347,-15.4286,26,0.0145023,10,-0.00283067,-1.81167,-0.25234,-0.233812,140.547,0.18347,
2,0,0,1,0,50451.7,0.170987,0.170657,-17.1516,26,0.0142412,10,-0.00292703,-1.7657,-0.299326,-0.197109,131.92,0.170657,
2,0,0,1,0,50451.7,0.158183,0.157889,-18.8683,26,0.0139528,10,-0.0029791,-1.72427,-0.317622,-0.185755,136.806,0.157889,
2,0,0,1,0,50451.7,0.145385,0.145029,-20.7311,26,0.0136362,10,-0.0030066,-1.68338,-0.29792,-0.19804,160.531,0.145029,
2,0,0,1,0,50451.7,0.132584,0.132251,-23.0569,26,0.0132864,10,-0.0030493,-1.6372,-0.254659,-0.231682,209.078,0.132251,
2,0,0,1,0,50451.7,0.119783,0.119512,-26.0995,26,0.0128938,10,-0.00311921,-1.58337,-0.225063,-0.262149,267.628,0.119512,
2,0,0,1,0,50451.7,0.106987,0.106694,-29.8334,26,0.0124466,10,-0.00318304,-1.5253,-0.225113,-0.262091,304.995,0.106694,
2,0,0,1,0,50451.7,0.0941801,0.0938653,-33.7753,26,0.0119372,10,-0.00317033,-1.4714,-0.258073,-0.228618,300.706,0.09386529,
2,0,0,1,0,50451.8,0.0813844,0.0811574,-37.427,26,0.0113665,10,-0.00303748,-1.42682,-0.314344,-0.187692,273.841,0.0811574,
2,0,0,1,0,50451.8,0.0685832,0.0683286,-40.7166,26,0.0107401,10,-0.0027821,-1.39023,-0.406057,-0.1453,230.31,0.0683286,
2,0,0,1,0,50451.8,0.0557876,0.0555295,-43.3013,26,0.0100666,10,-0.0024045,-1.3635,-0.556259,-0.106066,178.984,0.0555295,
2,0,0,1,0,50451.8,0.0429808,0.0426678,-45.3414,26,0.00935646,10,-0.00193462,-1.34351,-0.762111,-0.0774165,136.764,0.0426678,
2,0,0,1,0,50451.8,0.030188,0.0298337,-46.8294,26,0.00861824,10,-0.00139709,-1.32948,-1.12838,-0.0522872,95.418,0.0298337,
2,0,0,1,0,50451.8,0.017384,0.0170484,-47.8306,26,0.00786026,10,-0.000815434,-1.32029,-1.72979,-0.0341082,63.5993,0.0170484,
2,0,0,1,0,50451.9,0.00458834,0.00426199,-48.4211,26,0.00708954,10,-0.00020637,-1.31497,-3.30575,-0.0178477,33.7146,0.00426199,
2,0,0,1,0,50451.9,-0.00821564,-0.00860604,-48.6619,26,0.00631195,10,0.000418786,-1.31281,-162.605,-0.000362843,0.688557,-0.00860604,
2,0,0,1,0,50451.9,-0.0210196,-0.0214041,-48.5053,26,0.00553409,10,0.00103821,-1.31421,4.1967,0.0140587,-26.5875,-0.0214041,
2,0,0,1,0,50451.9,-0.0338153,-0.0341862,-48.0255,26,0.0047615,10,0.00164181,-1.31853,2.41651,0.0244154,-45.7327,-0.0341862,
2,0,0,1,0,50451.9,-0.0466193,-0.0470182,-47.354,26,0.00399838,10,0.0022265,-1.32464,1.93871,0.0304327,-56.2288,-0.0470182,
2,0,0,1,0,50451.9,-0.0594121,-0.0597898,-46.6104,26,0.00324664,10,0.00278682,-1.33152,1.9616,0.0300774,-54.7377,-0.0597898,
2,0,0,1,0,50452,-0.0722189,-0.0726048,-45.96,26,0.00250615,10,0.00333692,-1.33762,2.28317,0.0258413,-46.3761,-0.0726048,
2,0,0,1,0,50452,-0.0850146,-0.0854505,-45.4639,26,0.001775,10,0.00388491,-1.34233,3.45125,0.0170953,-30.3532,-0.0854505,
2,0,0,1,0,50452,-0.0978158,-0.0982179,-45.1797,26,0.0010501,10,0.00443745,-1.34506,7.67772,0.00768457,-13.5598,-0.0982179,
2,0,0,1,0,50452,-0.110611,-0.110976,-45.1124,26,0.000327972,10,0.00500638,-1.3457,-27.4514,-0.00214925,3.7872,-0.110976,
2,0,0,1,0,50452,-0.123418,-0.123769,-45.2889,26,-0.000395084,10,0.00560538,-1.34401,-4.8322,-0.0122098,21.5922,-0.123769,
2,0,0,1,0,50452,-0.136214,-0.136618,-45.6524,26,-0.00112245,10,0.00623695,-1.34054,-3.03203,-0.0194589,34.6856,-0.136618,
2,0,0,1,0,50452.1,-0.149015,-0.149411,-46.1624,26,-0.001857,10,0.00689717,-1.33571,-2.39329,-0.0246523,44.4298,-0.149411,
2,0,0,1,0,50452.1,-0.161816,-0.162194,-46.7525,26,-0.00260047,10,0.007583,-1.33019,-2.38122,-0.0247772,45.2084,-0.162194,
2,0,0,1,0,50452.1,-0.174615,-0.174966,-47.3202,26,-0.00335321,10,0.00827943,-1.32495,-2.6569,-0.0222063,40.9952,-0.174966,
2,0,0,1,0,50452.1,-0.187419,-0.187735,-47.8127,26,-0.00411441,10,0.00897613,-1.32046,-3.10177,-0.0190214,35.4792,-0.187735,
2,0,0,1,0,50452.1,-0.199647,-0.199969,-48.1898,26,-0.00484912,10,0.00963646,-1.31705,0.241028,0.244784,-447.42,-0.199969,
2,0,0,1,1,50452.1,-0.192535,-0.192973,-36.6047,26,-0.00527272,10,0.0070637,-1.43646,-0.0725212,-0.813556,1189.77,-0.192973,
2,0,0,1,1,50452.1,-0.179739,-0.180157,-25.247,26,-0.00575994,10,0.00454841,-1.59779,-0.0788275,-0.74847,739.128,-0.180157,
2,0,0,1,1,50452.2,-0.166932,-0.167377,-17.0031,26,-0.00609442,10,0.00284591,-1.76947,-0.0676602,-0.872005,576.249,-0.167377,
2,0,0,1,1,50452.2,-0.154139,-0.15459,-10.3235,26,-0.00631093,10,0.00159591,-1.98617,-0.0487048,-1.21138,479.29,-0.15459,
2,0,0,1,1,50452.2,-0.141335,-0.141775,-4.59554,26,-0.00642868,10,0.000651533,-2.33766,-0.0224932,-2.62302,420.475,-0.141775,
2,1,0,1,1,50452.2,-0.12854,-0.128964,0.453176,26,-0.00646051,10,-5.84436e-05,-3.34373,0.0856734,0.688662,375.477,-0.128964,
2,1,0,1,1,50452.2,-0.115736,-0.116192,5.02285,26,-0.00641556,10,-0.000583614,-2.29905,0.0313382,1.88269,341.153,-0.116192,
2,1,0,1,1,50452.2,-0.102932,-0.103429,9.22391,26,-0.00630078,10,-0.000954017,-2.03508,0.0661128,0.892415,314.292,-0.1034287,
2,1,0,1,1,50452.3,-0.0901362,-0.0905776,13.1007,26,-0.00612147,10,-0.00118663,-1.8827,0.10238,0.576284,291.666,-0.0905776,
2,1,0,1,1,50452.3,-0.0773322,-0.0777605,16.6875,26,-0.00588245,10,-0.00129763,-1.77761,0.14232,0.41456,268.43,-0.0777605,
2,1,0,1,1,50452.3,-0.0645393,-0.0650017,19.9803,26,-0.00558836,10,-0.00129875,-1.6994,0.185244,0.318499,247.559,-0.0650017,
2,1,0,1,1,50452.3,-0.0517325,-0.0521601,23.0275,26,-0.00524354,10,-0.00120112,-1.63775,0.232141,0.254156,227.818,-0.0521601,
2,1,0,1,1,50452.3,-0.0389369,-0.0393738,25.8158,26,-0.00485217,10,-0.00101647,-1.58811,0.286385,0.206016,207.09,-0.0393738,
2,1,0,1,1,50452.3,-0.0261357,-0.0265396,28.3306,26,-0.00441842,10,-0.000751885,-1.54774,0.347829,0.169624,187.243,-0.0265396,
2,1,0,1,1,50452.3,-0.01334,-0.0137405,30.5796,26,-0.00394645,10,-0.00042018,-1.51457,0.42569,0.138599,165.242,-0.0137405,
2,1,0,1,1,50452.4,-0.000774628,-0.00117471,32.5468,26,-0.00345027,10,-3.82331e-05,-1.48749, , , ,-0.00117471,
2,1,0,0,1,50452.4,-0.000125413,-0.000516197,32.6562,26,-0.0034242,10,-1.68571e-05,-1.48603, , , ,-0.000516197,