File: Figure_codes/Fig_3-5/rawdata_trumpetplot_data/after 10th/20221101_1-115_003_TrumpetPlot_ParaChange_from10_every3_04_CV_C01_25.csv
mode,ox/red,error,control changes,counter inc.,time/s,control/V,Ewe/V,<I>/mA,cycle number,(Q-Qo)/C,I Range,P/W,log(|I|),Tafel slope mV/dec,alpha_eff,dI/d(E-IR),E-IR/V,
2,0,0,1,0,50313.3,2.44065e-05,-0.000363498,-0.395149,26,0.0000000E+000,10,1.43636e-07,-3.40324, , , ,-0.000363498,
2,1,0,1,0,50314,0.00729063,0.00694058,0.348799,26,0.000170713,10,2.42087e-06,-3.45742,0.0562358,1.04915,14.0466,0.00694058,
2,1,0,1,0,50314.8,0.0147814,0.0144375,0.42149,26,0.000472843,10,6.08526e-06,-3.37521,0.112227,0.52572,8.63765,0.0144375,
2,1,0,1,0,50315.5,0.0222725,0.0219718,0.473261,26,0.000820028,10,1.03984e-05,-3.3249,0.160968,0.366532,6.75936,0.0219718,
2,1,0,1,0,50316.2,0.0297635,0.0294791,0.525823,26,0.00120521,10,1.55008e-05,-3.27916,0.195292,0.302112,6.19103,0.0294791,
2,1,0,1,0,50317,0.0372544,0.0369427,0.574105,26,0.00162793,10,2.1209e-05,-3.24101,0.219072,0.269318,6.04243,0.0369427,
2,1,0,1,0,50317.7,0.0447458,0.0444135,0.62334,26,0.00208813,10,2.76847e-05,-3.20527,0.216167,0.272937,6.64829,0.0444135,
2,1,0,1,0,50318.5,0.0522363,0.0518902,0.669147,26,0.00258421,10,3.47222e-05,-3.17448,0.241033,0.244779,6.39623,0.05189015,
2,1,0,1,0,50319.2,0.0597282,0.0593659,0.710844,26,0.00311301,10,4.21999e-05,-3.14823,0.29151,0.202395,5.61764,0.0593659,
2,1,0,1,0,50320,0.0672182,0.0668663,0.748713,26,0.00367058,10,5.00637e-05,-3.12568,0.394289,0.149637,4.35994,0.0668663,
2,1,0,1,0,50320.7,0.0747092,0.0743846,0.77783,26,0.00425324,10,5.78585e-05,-3.10912,0.561205,0.105131,3.18938,0.0743846,
2,1,0,1,0,50321.5,0.0822001,0.0818795,0.80156,26,0.00485739,10,6.56313e-05,-3.09606,0.543557,0.108544,3.41096,0.0818795,
2,1,0,1,0,50322.2,0.0896911,0.0893395,0.837454,26,0.00548266,10,7.48177e-05,-3.07704,0.334126,0.17658,5.79137,0.0893395,
2,1,0,1,0,50323,0.097182,0.0968684,0.8922,26,0.00614081,10,8.6426e-05,-3.04954,0.207709,0.284052,9.89105,0.0968684,
2,1,0,1,0,50323.7,0.104673,0.104333,0.971654,26,0.00684793,10,0.000101375,-3.01249,0.199284,0.296059,11.1875,0.104333,
2,1,0,1,0,50324.5,0.112164,0.111844,1.04707,26,0.00761513,10,0.000117109,-2.98002,0.299791,0.196804,8.023,0.111844,
2,1,0,1,0,50325.2,0.119655,0.119265,1.0961,26,0.00843045,10,0.000130727,-2.96015,0.571467,0.103243,4.42145,0.119265,
2,1,0,1,0,50326,0.127146,0.126788,1.12231,26,0.00927555,10,0.000142295,-2.94989,0.865554,0.0681644,2.99364,0.126788,
2,1,0,1,0,50326.7,0.134637,0.134299,1.12646,26,0.0101346,10,0.000151282,-2.94828,-0.526815,-0.111994,-4.91671,0.134299,
2,1,0,1,0,50327.5,0.142127,0.141784,1.03659,26,0.0109636,10,0.000146973,-2.98439,-0.120187,-0.490901,-19.7234,0.1417841,
2,1,0,1,0,50328.2,0.149619,0.149305,0.844268,26,0.0116811,10,0.000126054,-3.07352,-0.0742138,-0.795001,-26.18,0.149305,
2,1,0,1,0,50329,0.157109,0.15677,0.686095,26,0.0122593,10,0.000107559,-3.16362,-0.104291,-0.565727,-15.2074,0.1567699,
2,1,0,1,0,50329.7,0.164601,0.164269,0.610141,26,0.0127519,10,0.000100227,-3.21457,-0.197672,-0.298474,-7.10079,0.164269,
2,1,0,1,0,50330.5,0.172091,0.171697,0.570806,26,0.0132034,10,9.80054e-05,-3.24351,-0.390273,-0.151176,-3.38712,0.171697,
2,1,0,1,0,50331.2,0.179582,0.179252,0.551417,26,0.0136341,10,9.88428e-05,-3.25852,-0.745341,-0.0791584,-1.7094,0.179252,
2,1,0,1,0,50332,0.187074,0.186717,0.542184,26,0.0140534,10,0.000101235,-3.26585,-1.53357,-0.0384724,-0.810773,0.186717,
2,1,0,1,0,50332.7,0.194564,0.194204,0.531994,26,0.0144653,10,0.000103315,-3.27409,-1.03677,-0.0569074,-1.18341,0.194204,
2,1,0,1,0,50333.5,0.202056,0.201744,0.525534,26,0.0148717,10,0.000106023,-3.2794,-1.71863,-0.0343297,-0.70395,0.201744,
2,1,0,1,0,50334.2,0.209546,0.209195,0.519438,26,0.0152739,10,0.000108664,-3.28447,-1.12759,-0.0523238,-1.06483,0.209195,
2,1,0,1,0,50335,0.217038,0.216687,0.514607,26,0.0156724,10,0.000111509,-3.28852,-3.23777,-0.0182224,-0.367908,0.216687,
2,1,0,1,0,50335.7,0.224528,0.224213,0.511735,26,0.0160684,10,0.000114737,-3.29095,-2.19278,-0.0269065,-0.538565,0.224213,
2,1,0,1,0,50336.5,0.232019,0.231702,0.510273,26,0.0164615,10,0.000118231,-3.2922,-11.9677,-0.00492995,-0.0981121,0.231702,
2,1,0,1,0,50337.2,0.23951,0.23919,0.506285,26,0.0168521,10,0.000121098,-3.29561,-1.19565,-0.0493456,-0.973941,0.23919,
2,1,0,1,0,50338,0.247001,0.246709,0.504185,26,0.0172401,10,0.000124387,-3.29741,-1.08067,-0.0545957,-1.07004,0.246709,
2,1,0,1,0,50338.7,0.254492,0.254198,0.499657,26,0.0176257,10,0.000127012,-3.30133,-1.80355,-0.0327132,-0.636758,0.254198,
2,1,0,1,0,50339.5,0.261983,0.261584,0.495611,26,0.0180087,10,0.000129644,-3.30486,-1.24828,-0.047265,-0.915827,0.261584,
2,1,0,1,0,50340.2,0.269474,0.269152,0.491783,26,0.0183891,10,0.000132364,-3.30823,-2.93877,-0.0200764,-0.385024,0.269152,
2,1,0,1,0,50341,0.276965,0.276657,0.488008,26,0.0187668,10,0.000135011,-3.31157,-2.43883,-0.024192,-0.461311,0.276657,
2,1,0,1,0,50341.7,0.284456,0.284136,0.485205,26,0.0191417,10,0.000137864,-3.31408,-2.27204,-0.0259679,-0.490954,0.284136,
2,1,0,1,0,50342.5,0.291947,0.291602,0.48082,26,0.0195132,10,0.000140208,-3.31802,-2.47123,-0.0238747,-0.448263,0.291602,
2,1,0,1,0,50343.2,0.299437,0.299101,0.475093,26,0.0198818,10,0.000142101,-3.32322,-0.00292396,-20.1781,-203.29,0.299101,
2,0,0,1,0,50343.9,0.293745,0.293381,-0.0706578,26,0.0199089,10,-2.07296e-05,-4.15084,-0.0133528,-4.41853,11.1942,0.2933808,
2,0,0,1,0,50344.7,0.286253,0.285913,-0.125637,26,0.0198227,10,-3.59212e-05,-3.90088,-0.0466242,-1.26544,6.20452,0.285913,
2,0,0,1,0,50345.4,0.278763,0.278398,-0.162918,26,0.0197033,10,-4.5356e-05,-3.78803,-0.0853435,-0.691324,4.38054,0.278398,
2,0,0,1,0,50346.1,0.271272,0.270931,-0.191292,26,0.0195602,10,-5.18269e-05,-3.7183,-0.11577,-0.50963,3.77172,0.270931,
2,0,0,1,0,50346.9,0.263781,0.263473,-0.214177,26,0.0193972,10,-5.64299e-05,-3.66923,-0.148156,-0.398229,3.33608,0.263473,
2,0,0,1,0,50347.6,0.25629,0.255939,-0.236689,26,0.0192174,10,-6.05778e-05,-3.62582,-0.238223,-0.247667,2.27329,0.255939,
2,0,0,1,0,50348.4,0.248799,0.248426,-0.255475,26,0.0190229,10,-6.34666e-05,-3.59265,-0.254026,-0.23226,2.31336,0.248426,
2,0,0,1,0,50349.1,0.241308,0.240984,-0.272309,26,0.0188154,10,-6.56222e-05,-3.56494,-0.327184,-0.180327,1.91125,0.240984,
2,0,0,1,0,50349.9,0.233817,0.233477,-0.287262,26,0.0185962,10,-6.70692e-05,-3.54172,-0.409513,-0.144073,1.60921,0.233477,
2,0,0,1,0,50350.6,0.226326,0.225972,-0.300854,26,0.0183656,10,-6.79846e-05,-3.52164,-0.391609,-0.150661,1.77352,0.225972,
2,0,0,1,0,50351.4,0.218835,0.218497,-0.315421,26,0.0181239,10,-6.89186e-05,-3.50111,-0.317512,-0.18582,2.29008,0.218497,
2,0,0,1,0,50352.1,0.211344,0.211001,-0.330321,26,0.0178712,10,-6.9698e-05,-3.48106,-0.464407,-0.127044,1.64054,0.211001,
2,0,0,1,0,50352.9,0.203854,0.203517,-0.34421,26,0.017607,10,-7.00527e-05,-3.46318,-0.433837,-0.135996,1.83753,0.203517,
2,0,0,1,0,50353.6,0.196362,0.196006,-0.362364,26,0.0173318,10,-7.10254e-05,-3.44086,-0.427124,-0.138133,1.94424,0.196006,
2,0,0,1,0,50354.4,0.188872,0.188545,-0.377084,26,0.0170446,10,-7.10973e-05,-3.42356,-0.283607,-0.208034,3.06259,0.188545,
2,0,0,1,0,50355.1,0.18138,0.181008,-0.397033,26,0.0167446,10,-7.18664e-05,-3.40117,-0.353892,-0.166717,2.57165,0.181008,
2,0,0,1,0,50355.9,0.17389,0.17353,-0.416592,26,0.01643,10,-7.22914e-05,-3.38029,-0.314925,-0.187346,3.03752,0.17353,
2,0,0,1,0,50356.6,0.166398,0.166031,-0.442377,26,0.0160976,10,-7.34484e-05,-3.35421,-0.274471,-0.214959,3.72589,0.166031,
2,0,0,1,0,50357.4,0.158907,0.15857,-0.478664,26,0.0157418,10,-7.59017e-05,-3.31997,-0.181135,-0.325724,6.11129,0.15857,
2,0,0,1,0,50358.1,0.151417,0.151075,-0.533916,26,0.015352,10,-8.06615e-05,-3.27253,-0.131666,-0.448104,9.39876,0.151075,
2,0,0,1,0,50358.9,0.143925,0.143564,-0.629516,26,0.014907,10,-9.03759e-05,-3.20099,-0.0880588,-0.670007,16.5041,0.143564,
2,0,0,1,0,50359.6,0.136435,0.136104,-0.774813,26,0.0143721,10,-0.000105455,-3.1108,-0.0835761,-0.705943,21.3334,0.136104,
2,0,0,1,0,50360.4,0.128943,0.128607,-0.937233,26,0.013719,10,-0.000120534,-3.02815,-0.106741,-0.552739,20.1638,0.1286068,
2,0,0,1,0,50361.1,0.121453,0.121127,-1.06725,26,0.0129534,10,-0.000129274,-2.97173,-0.184409,-0.319942,13.294,0.121127,
2,0,0,1,0,50361.9,0.113962,0.113624,-1.13409,26,0.0121114,10,-0.00012886,-2.94535,-0.625712,-0.0942926,4.17611,0.113624,
2,0,0,1,0,50362.6,0.106471,0.106108,-1.14007,26,0.011244,10,-0.000120971,-2.94307,2.04463,0.028856,-1.28493,0.106108,
2,0,0,1,0,50363.4,0.0989798,0.0986201,-1.11938,26,0.0103856,10,-0.000110393,-2.95102,0.774406,0.0761874,-3.32236,0.0986201,
2,0,0,1,0,50364.1,0.0914889,0.091174,-1.09278,26,0.00954705,10,-9.96332e-05,-2.96147,0.772089,0.0764161,-3.25025,0.091174,
2,0,0,1,0,50364.9,0.083998,0.0836684,-1.06062,26,0.00872975,10,-8.87405e-05,-2.97444,0.518884,0.113706,-4.70276,0.0836684,
2,0,0,1,0,50365.6,0.076507,0.0761724,-1.03219,26,0.00793438,10,-7.86244e-05,-2.98624,0.666232,0.0885578,-3.5678,0.0761724,
2,0,0,1,0,50366.4,0.069016,0.0687114,-0.999117,26,0.00716153,10,-6.86507e-05,-3.00038,0.580222,0.101685,-3.9794,0.0687114,
2,0,0,1,0,50367.1,0.0615251,0.0612101,-0.972215,26,0.00641083,10,-5.95094e-05,-3.01224,0.603802,0.0977141,-3.71083,0.0612101,
2,0,0,1,0,50367.9,0.0540342,0.0537172,-0.939654,26,0.00568321,10,-5.04756e-05,-3.02703,0.59285,0.0995193,-3.65156,0.0537172,
2,0,0,1,0,50368.6,0.0465441,0.046241,-0.907786,26,0.00497884,10,-4.1977e-05,-3.04202,0.534486,0.110386,-3.91947,0.046241,
2,0,0,1,0,50369.4,0.0390523,0.0387178,-0.878109,26,0.00429897,10,-3.39984e-05,-3.05645,0.399125,0.147823,-5.0464,0.03871778,
2,0,0,1,0,50370.1,0.0315618,0.0312223,-0.843803,26,0.00364418,10,-2.63454e-05,-3.07376,0.373217,0.158085,-5.19833,0.0312223,
2,0,0,1,0,50370.9,0.0240704,0.0237629,-0.809232,26,0.00301365,10,-1.92297e-05,-3.09193,0.476044,0.123938,-3.93118,0.0237629,
2,0,0,1,0,50371.6,0.0165796,0.0162595,-0.788326,26,0.00240396,10,-1.28178e-05,-3.10329,0.910345,0.0648106,-1.99428,0.0162595,
2,0,0,1,0,50372.4,0.00908846,0.00875918,-0.773028,26,0.00180847,10,-6.77109e-06,-3.1118,1.88325,0.0313288,-0.94657,0.00875918,
2,0,0,1,0,50373.1,0.00159728,0.00122041,-0.779092,26,0.00121854,10,-9.5081e-07,-3.10841, , , ,0.00122041,
2,0,0,1,0,50373.3,0.000199195,-0.000182169,-0.773302,26,0.00110793,10,1.40871e-07,-3.11165, , , ,-0.000182169,