File: Figure_codes/Fig_3-5/rawdata_trumpetplot_data/after 10th/20221101_1-115_003_TrumpetPlot_ParaChange_from10_every3_14_CV_C01_20.csv
mode,ox/red,error,control changes,counter inc.,time/s,control/V,Ewe/V,<I>/mA,cycle number,(Q-Qo)/C,I Range,P/W,log(|I|),Tafel slope mV/dec,alpha_eff,dI/d(E-IR),E-IR/V,
2,1,0,1,0,40601.7,2.44065e-05,-0.000401673,32.4998,21,0.0000000E+000,10,-1.30543e-05,-1.48812, , , ,-0.000401673,
2,1,0,1,0,40601.7,0.0133084,0.0129488,36.1329,21,0.00045357,10,0.00046788,-1.4421,0.383085,0.154013,216.413,0.0129488,
2,1,0,1,0,40601.7,0.0273414,0.0270077,38.8317,21,0.000979272,10,0.00104875,-1.41081,0.515674,0.114413,172.899,0.0270077,
2,1,0,1,0,40601.8,0.0413245,0.0409552,41.0507,21,0.00153896,10,0.00168124,-1.38668,0.63482,0.0929397,148.691,0.0409552,
2,1,0,1,0,40601.8,0.0553076,0.0549282,43.002,21,0.00212779,10,0.00236202,-1.36651,0.732188,0.0805804,135.211,0.0549282,
2,1,0,1,0,40601.8,0.0693407,0.0689871,44.8254,21,0.00274295,10,0.00309237,-1.34848,0.830925,0.0710052,124.087,0.0689871,
2,1,0,1,0,40601.8,0.0833238,0.0828858,46.5141,21,0.00338249,10,0.00385536,-1.33242,0.884578,0.0666984,121.059,0.0828858,
2,1,0,1,0,40601.8,0.0973069,0.0969214,48.2266,21,0.00404576,10,0.00467419,-1.31671,0.86331,0.0683416,128.715,0.0969214,
2,1,0,1,0,40601.8,0.11134,0.110927,50.0321,21,0.00473387,10,0.00554993,-1.30075,0.909788,0.0648503,126.559,0.110927,
2,1,0,1,0,40601.8,0.125323,0.12489,51.889,21,0.00544704,10,0.0064804,-1.28492,0.846656,0.0696859,141.131,0.12489,
2,1,0,1,0,40601.9,0.139306,0.138903,53.9004,21,0.00618775,10,0.00748692,-1.26841,0.825628,0.0714607,150.456,0.138903,
2,1,0,1,0,40601.9,0.153339,0.152924,56.1021,21,0.00695794,10,0.00857933,-1.25102,0.802822,0.0734908,160.987,0.152924,
2,1,0,1,0,40601.9,0.167322,0.166922,58.4415,21,0.00775986,10,0.00975517,-1.23328,0.800156,0.0737356,168.12,0.166922,
2,1,0,1,0,40601.9,0.181305,0.180961,60.7596,21,0.00859464,10,0.0109951,-1.21639,0.869838,0.0678287,160.76,0.180961,
2,1,0,1,0,40601.9,0.195338,0.194951,62.8498,21,0.00946068,10,0.0122526,-1.2017,1.11378,0.0529726,129.776,0.194951,
2,1,0,1,0,40601.9,0.209322,0.208951,64.408,21,0.0103524,10,0.0134581,-1.19106,1.79393,0.0328887,82.4701,0.208951,
2,1,0,1,0,40601.9,0.223305,0.22291,65.1107,21,0.0112601,10,0.0145138,-1.18635,8.30984,0.00710002,18.0018,0.22291,
2,1,0,1,0,40602,0.237338,0.236978,64.854,21,0.0121712,10,0.0153689,-1.18806,-2.55874,-0.0230582,-58.2269,0.236978,
2,1,0,1,0,40602,0.251321,0.251008,63.5464,21,0.0130711,10,0.0159507,-1.19691,-1.12892,-0.0522624,-129.273,0.251008,
2,1,0,1,0,40602,0.265304,0.264942,61.2598,21,0.0139455,10,0.0162303,-1.21282,-0.738352,-0.0799076,-190.635,0.264942,
2,1,0,1,0,40602,0.279337,0.279022,58.2264,21,0.0147825,10,0.0162464,-1.23488,-0.56358,-0.104688,-237.581,0.2790218,
2,1,0,1,0,40602,0.29332,0.293011,54.7622,21,0.0155733,10,0.0160459,-1.26152,-0.503647,-0.117146,-251.169,0.293011,
2,1,0,1,0,40602,0.298714,0.298603,50.4002,21,0.0160007,10,0.0150497,-1.29757,0.0590229,0.999613,1779.18,0.298603,
2,1,0,1,0,40602,0.28473,0.284542,32.0318,21,0.0165633,10,0.00911439,-1.49442,0.0719135,0.82043,1030.9,0.284542,
2,1,0,1,0,40602,0.270747,0.270479,19.8756,21,0.0169211,10,0.00537594,-1.70168,0.0607485,0.971217,747.871,0.270479,
2,1,0,1,0,40602.1,0.256714,0.256446,10.7124,21,0.0171313,10,0.00274714,-1.97011,0.0415644,1.41948,574.159,0.256446,
2,1,0,1,0,40602.1,0.242731,0.242457,3.59779,21,0.0172288,10,0.000872308,-2.44396,0.010554,5.59028,451.424,0.242457,
2,0,0,1,0,40602.1,0.228748,0.22848,-2.05297,21,0.0172377,10,-0.000469061,-2.68762,-0.0240096,-2.45735,364.189,0.22848,
2,0,0,1,0,40602.1,0.214715,0.214429,-6.6654,21,0.0171749,10,-0.00142926,-2.17617,-0.0480279,-1.22845,299.809,0.214429,
2,0,0,1,0,40602.1,0.200732,0.20043,-10.4908,21,0.0170537,10,-0.00210266,-1.97919,-0.0937447,-0.629369,252.06,0.20043,
2,0,0,1,0,40602.1,0.186735,0.186448,-13.7616,21,0.0168832,10,-0.00256583,-1.86133,-0.142535,-0.413934,220.12,0.186448,
2,0,0,1,0,40602.1,0.172716,0.172424,-16.6512,21,0.0166695,10,-0.00287107,-1.77855,-0.192747,-0.306101,198.097,0.172424,
2,0,0,1,0,40602.2,0.158733,0.15845,-19.359,21,0.016417,10,-0.00306745,-1.71312,-0.229466,-0.257118,194.016,0.15845,
2,0,0,1,0,40602.2,0.144719,0.144408,-22.1882,21,0.0161264,10,-0.00320417,-1.65388,-0.2399,-0.245936,213.055,0.144408,
2,0,0,1,0,40602.2,0.130717,0.130427,-25.4106,21,0.0157935,10,-0.00331423,-1.59498,-0.229529,-0.257048,255.741,0.130427,
2,0,0,1,0,40602.2,0.116733,0.116404,-29.3951,21,0.0154103,10,-0.00342172,-1.53172,-0.217006,-0.271882,312.422,0.116404,
2,0,0,1,0,40602.2,0.102703,0.102425,-34.106,21,0.0149662,10,-0.0034933,-1.46717,-0.228478,-0.258231,342.682,0.102425,
2,0,0,1,0,40602.2,0.0887173,0.0884275,-38.8721,21,0.0144549,10,-0.00343736,-1.41036,-0.266197,-0.221641,335.254,0.0884275,
2,0,0,1,0,40602.2,0.0747341,0.0744874,-43.3618,21,0.0138783,10,-0.00322991,-1.36289,-0.329492,-0.179064,302.118,0.0744874,
2,0,0,1,0,40602.3,0.0607011,0.0604975,-47.288,21,0.0132426,10,-0.0028608,-1.32525,-0.422041,-0.139797,257.319,0.0604975,
2,0,0,1,0,40602.3,0.046718,0.0464672,-50.5625,21,0.0125564,10,-0.0023495,-1.29617,-0.567592,-0.103948,204.55,0.04646723,
2,0,0,1,0,40602.3,0.0327349,0.0325091,-53.0686,21,0.01183,10,-0.00172521,-1.27516,-0.759373,-0.0776957,160.664,0.0325091,
2,0,0,1,0,40602.3,0.0187018,0.018429,-55.12,21,0.0110722,10,-0.00101581,-1.25869,-1.01243,-0.0582759,125.066,0.018429,
2,0,0,1,0,40602.3,0.00471873,0.00441469,-56.5524,21,0.0102897,10,-0.000249661,-1.24755,-1.50788,-0.0391277,86.2472,0.00441469,
2,0,0,1,0,40602.3,-0.00926438,-0.00959964,-57.5104,21,0.00949042,10,0.000552079,-1.24025,-2.64681,-0.022291,49.9746,-0.00959964,
2,0,0,1,0,40602.3,-0.0232974,-0.0236532,-58.0284,21,0.0086812,10,0.00137256,-1.23636,-6.85938,-0.00860136,19.4459,-0.0236532,
2,0,0,1,0,40602.4,-0.0372805,-0.0376771,-58.0463,21,0.00786828,10,0.00218702,-1.23623,10.5016,0.00561817,-12.711,-0.0376771,
2,0,0,1,0,40602.4,-0.0512637,-0.0516702,-57.6923,21,0.0070579,10,0.00298097,-1.23888,3.84731,0.0153354,-34.5024,-0.0516702,
2,0,0,1,0,40602.4,-0.0652967,-0.0656506,-57.1442,21,0.00625406,10,0.00375156,-1.24303,3.02237,0.0195211,-43.5141,-0.0656506,
2,0,0,1,0,40602.4,-0.0792798,-0.0796565,-56.4809,21,0.00545873,10,0.00449907,-1.2481,2.77354,0.0212724,-46.8951,-0.0796565,
2,0,0,1,0,40602.4,-0.0932629,-0.0936369,-55.8742,21,0.00467249,10,0.00523188,-1.25279,3.38886,0.01741,-37.9766,-0.0936369,
2,0,0,1,0,40602.4,-0.107296,-0.1077,-55.4481,21,0.00389356,10,0.00597176,-1.25611,5.25424,0.011229,-24.3047,-0.1077,
2,0,0,1,0,40602.4,-0.121279,-0.121681,-55.164,21,0.00311954,10,0.00671244,-1.25834,9.59892,0.00614653,-13.2419,-0.121681,
2,0,0,1,0,40602.5,-0.135262,-0.135628,-55.0948,21,0.002348,10,0.0074724,-1.25889,-71.0609,-0.000830274,1.78607,-0.135628,
2,0,0,1,0,40602.5,-0.149295,-0.149624,-55.247,21,0.00157585,10,0.00826629,-1.25769,-7.41087,-0.00796128,17.1709,-0.149624,
2,0,0,1,0,40602.5,-0.163278,-0.1636,-55.5231,21,0.000800495,10,0.0090836,-1.25553,-5.1965,-0.0113538,24.614,-0.1636,
2,0,0,1,0,40602.5,-0.177261,-0.177593,-55.9122,21,2.04669e-05,10,0.00992958,-1.25249,-4.31746,-0.0136655,29.8209,-0.177593,
2,0,0,1,0,40602.5,-0.191295,-0.191609,-56.3885,21,-0.000765536,10,0.0108045,-1.24881,-3.88298,-0.0151945,33.4185,-0.191609,
2,0,0,0,1,40602.5,-0.199984,-0.200532,-56.3319,21,-0.00129106,10,0.0112964,-1.24925,-0.0445942,-1.32304,2605.28,-0.200532,
2,0,0,1,1,40602.5,-0.186686,-0.187145,-38.261,21,-0.00189094,10,0.00716035,-1.41724,-0.088091,-0.669762,1011.26,-0.187145,
2,0,0,1,1,40602.5,-0.172667,-0.1731,-26.5693,21,-0.00233922,10,0.00459913,-1.57562,-0.0840134,-0.702269,727.873,-0.1731,
2,0,0,1,1,40602.6,-0.158684,-0.159103,-17.5103,21,-0.00264477,10,0.00278595,-1.75671,-0.0674624,-0.874562,591.402,-0.159103,
2,0,0,1,1,40602.6,-0.14467,-0.145096,-9.90966,21,-0.00283479,10,0.00143785,-2.00394,-0.0434699,-1.35726,503.888,-0.145096,
2,0,0,1,1,40602.6,-0.130668,-0.13107,-3.32722,21,-0.00292575,10,0.0004361,-2.47792,-0.00822099,-7.17675,441.856,-0.13107,
2,1,0,1,1,40602.6,-0.116685,-0.11713,2.51724,21,-0.00293022,10,-0.000294845,-2.59908,0.0183405,3.21692,397.454,-0.11713,
2,1,0,1,1,40602.6,-0.102654,-0.103121,7.84214,21,-0.00285689,10,-0.00080869,-2.10557,0.0467412,1.26227,363.648,-0.103121,
2,1,0,1,1,40602.6,-0.0886685,-0.0891387,12.7012,21,-0.00271205,10,-0.00113217,-1.89615,0.0862077,0.684394,332.793,-0.0891387,
2,1,0,1,1,40602.6,-0.0746854,-0.0751413,17.2057,21,-0.00250182,10,-0.00129286,-1.76433,0.127265,0.463599,307.905,-0.0751413,
2,1,0,1,1,40602.7,-0.0606523,-0.0610972,21.3835,21,-0.00223121,10,-0.00130647,-1.66992,0.171978,0.343067,283.941,-0.0610972,
2,1,0,1,1,40602.7,-0.0466692,-0.0470511,25.1456,21,-0.00190485,10,-0.00118313,-1.59954,0.223035,0.264533,258.505,-0.0470511,
2,1,0,1,1,40602.7,-0.0326861,-0.0330877,28.6137,21,-0.00152785,10,-0.000946761,-1.54343,0.277763,0.212411,236.417,-0.0330877,
2,1,0,1,1,40602.7,-0.018653,-0.0190776,31.8077,21,-0.00110446,10,-0.000606813,-1.49747,0.337122,0.175011,216.475,-0.01907756,
2,1,0,1,1,40602.7,-0.00466992,-0.00504732,34.6302,21,-0.000638741,10,-0.00017479,-1.46054, , , ,-0.00504732,
2,1,0,0,1,40602.7,-0.000175352,-0.000592546,35.4739,21,-0.000480985,10,-2.10199e-05,-1.45009, , , ,-0.000592546,