File: Figure_codes/Fig_3-5/rawdata_trumpetplot_data/after 10th/20221101_1-115_003_TrumpetPlot_ParaChange_from10_every3_04_CV_C01_7.csv
mode,ox/red,error,control changes,counter inc.,time/s,control/V,Ewe/V,<I>/mA,cycle number,(Q-Qo)/C,I Range,P/W,log(|I|),Tafel slope mV/dec,alpha_eff,dI/d(E-IR),E-IR/V,
2,0,0,1,0,14850.9,2.44065e-05,-0.000325324,-0.398329,8,0.0000000E+000,10,1.29586e-07,-3.39976, , , ,-0.000325324,
2,1,0,1,0,14851.7,0.00729063,0.00698194,0.37546,8,0.000211111,10,2.62144e-06,-3.42544,0.0671016,0.879264,12.8053,0.00698194,
2,1,0,1,0,14852.4,0.0147814,0.0144734,0.449215,8,0.000536447,10,6.50165e-06,-3.34755,0.112596,0.523999,9.17762,0.0144734,
2,1,0,1,0,14853.2,0.0222725,0.0219803,0.506871,8,0.000908995,10,1.11412e-05,-3.2951,0.152966,0.385705,7.6311,0.0219803,
2,1,0,1,0,14853.9,0.0297635,0.0294424,0.56104,8,0.00132268,10,1.65184e-05,-3.25101,0.178923,0.32975,7.2164,0.0294424,
2,1,0,1,0,14854.7,0.0372544,0.0369215,0.613821,8,0.00177683,10,2.26632e-05,-3.21196,0.200909,0.293665,7.04592,0.0369215,
2,1,0,1,0,14855.4,0.0447458,0.0444201,0.667246,8,0.0022711,10,2.96391e-05,-3.17571,0.238258,0.247631,6.44801,0.0444201,
2,1,0,1,0,14856.2,0.0522363,0.0519008,0.715436,8,0.00280286,10,3.71317e-05,-3.14543,0.25625,0.230244,6.41874,0.0519008,
2,1,0,1,0,14856.9,0.0597282,0.0594137,0.761187,8,0.00336982,10,4.52249e-05,-3.11851,0.291559,0.20236,6.00301,0.0594137,
2,1,0,1,0,14857.6,0.0672182,0.0669235,0.804354,8,0.00396904,10,5.38302e-05,-3.09455,0.354469,0.166446,5.18435,0.0669235,
2,1,0,1,0,14858.4,0.0747092,0.0743941,0.835357,8,0.00459566,10,6.21456e-05,-3.07813,0.463853,0.127196,4.14381,0.0743941,
2,1,0,1,0,14859.1,0.0822001,0.0819018,0.86536,8,0.00524679,10,7.08746e-05,-3.0628,0.471633,0.125097,4.23198,0.0819018,
2,1,0,1,0,14859.9,0.0896911,0.0893861,0.909011,8,0.00592436,10,8.1253e-05,-3.04143,0.283201,0.208333,7.39457,0.0893861,
2,1,0,1,0,14860.6,0.097182,0.0968524,0.972308,8,0.00664166,10,9.41704e-05,-3.0122,0.184761,0.319331,12.1335,0.0968524,
2,1,0,1,0,14861.4,0.104673,0.10438,1.0685,8,0.00741786,10,0.00011153,-2.97123,0.192421,0.306619,12.7215,0.10438,
2,1,0,1,0,14862.1,0.112164,0.111869,1.14603,8,0.00826136,10,0.000128205,-2.9408,0.324824,0.181637,8.10345,0.111869,
2,1,0,1,0,14862.9,0.119655,0.11933,1.20531,8,0.00915719,10,0.00014383,-2.9189,0.469374,0.125699,5.91288,0.11933,
2,1,0,1,0,14863.6,0.127146,0.126836,1.25076,8,0.0100926,10,0.000158642,-2.90283,0.451551,0.130661,6.40201,0.126836,
2,1,0,1,0,14864.4,0.134637,0.134316,1.27981,8,0.0110611,10,0.000171898,-2.89285,-0.99661,-0.0592007,-2.95246,0.134316,
2,1,0,1,0,14865.1,0.142127,0.141809,1.18112,8,0.0120077,10,0.000167493,-2.9277,-0.122305,-0.482399,-22.1418,0.141809,
2,1,0,1,0,14865.9,0.149619,0.149322,0.961236,8,0.0128279,10,0.000143534,-3.01717,-0.0705104,-0.836756,-31.4006,0.149322,
2,1,0,1,0,14866.6,0.157109,0.156807,0.768682,8,0.0134839,10,0.000120535,-3.11425,-0.0862481,-0.684073,-20.5678,0.156807,
2,1,0,1,0,14867.4,0.164601,0.164277,0.666789,8,0.0140305,10,0.000109538,-3.17601,-0.15976,-0.369304,-9.61834,0.164277,
2,1,0,1,0,14868.1,0.172091,0.171818,0.607543,8,0.0145205,10,0.000104387,-3.21642,-0.278193,-0.212083,-5.06316,0.171818,
2,1,0,1,0,14868.9,0.179582,0.179249,0.579965,8,0.0149791,10,0.000103958,-3.2366,-0.459833,-0.128308,-2.91032,0.179249,
2,1,0,1,0,14869.6,0.187074,0.186736,0.561727,8,0.0154196,10,0.000104895,-3.25047,-0.83512,-0.0706486,-1.54855,0.186736,
2,1,0,1,0,14870.4,0.194564,0.194249,0.547842,8,0.0158482,10,0.000106418,-3.26134,-0.749329,-0.0787371,-1.68598,0.194249,
2,1,0,1,0,14871.1,0.202056,0.201768,0.538269,8,0.0162686,10,0.000108606,-3.269,-0.791376,-0.0745537,-1.56469,0.201768,
2,1,0,1,0,14871.9,0.209546,0.209267,0.530675,8,0.0166828,10,0.000111053,-3.27517,-0.839768,-0.0702575,-1.45895,0.209267,
2,1,0,1,0,14872.6,0.217038,0.2167,0.524281,8,0.0170912,10,0.000113612,-3.28044,-3.43889,-0.0171567,-0.35136,0.2167,
2,1,0,1,0,14873.4,0.224528,0.224232,0.518087,8,0.0174951,10,0.000116171,-3.2856,-1.06022,-0.0556488,-1.12409,0.224232,
2,1,0,1,0,14874.1,0.232019,0.231712,0.513248,8,0.0178945,10,0.000118926,-3.28967,-1.43548,-0.0411012,-0.823505,0.231712,
2,1,0,1,0,14874.9,0.23951,0.239161,0.50678,8,0.0182902,10,0.000121202,-3.29518,-1.37802,-0.0428152,-0.849178,0.239161,
2,1,0,1,0,14875.6,0.247001,0.246729,0.504383,8,0.0186822,10,0.000124446,-3.29724,-1.20143,-0.0491083,-0.964446,0.246729,
2,1,0,1,0,14876.4,0.254492,0.254216,0.497816,8,0.0190708,10,0.000126553,-3.30293,-1.19149,-0.0495178,-0.963506,0.254216,
2,1,0,1,0,14877.1,0.261983,0.26169,0.493709,8,0.0194558,10,0.000129199,-3.30653,-1.2254,-0.0481474,-0.929931,0.2616905,
2,1,0,1,0,14877.9,0.269474,0.269157,0.489545,8,0.0198376,10,0.000131764,-3.31021,-11.3903,-0.00517983,-0.0986614,0.269157,
2,1,0,1,0,14878.6,0.276965,0.276666,0.485308,8,0.0202161,10,0.000134268,-3.31398,-2.21228,-0.0266693,-0.505365,0.2766656,
2,1,0,1,0,14879.4,0.284456,0.284165,0.48029,8,0.0205914,10,0.000136482,-3.3185,-2.54653,-0.0231688,-0.433352,0.284165,
2,1,0,1,0,14880.1,0.291947,0.291618,0.477328,8,0.0209632,10,0.000139198,-3.32118,-1.04353,-0.0565386,-1.05245,0.291618,
2,1,0,1,0,14880.9,0.299437,0.299136,0.470827,8,0.0213315,10,0.000140841,-3.32714,-0.00178811,-32.9958,-242.441,0.2991356,
2,0,0,1,0,14881.6,0.293745,0.293422,-0.0815498,8,0.0213387,10,-2.39285e-05,-4.08858,-0.0172904,-3.41229,9.96908,0.2934221,
2,0,0,1,0,14882.3,0.286253,0.285908,-0.13212,8,0.0212431,10,-3.77743e-05,-3.87903,-0.0606467,-0.972848,5.03829,0.285908,
2,0,0,1,0,14883.1,0.278763,0.278473,-0.168032,8,0.0211157,10,-4.67924e-05,-3.77461,-0.106974,-0.551537,3.62664,0.278473,
2,0,0,1,0,14883.8,0.271272,0.270948,-0.196094,8,0.0209652,10,-5.31314e-05,-3.70753,-0.153045,-0.385509,2.9315,0.270948,
2,0,0,1,0,14884.6,0.263781,0.263505,-0.219745,8,0.0207956,10,-5.7904e-05,-3.65808,-0.177474,-0.332443,2.84401,0.263505,
2,0,0,1,0,14885.3,0.25629,0.255956,-0.239038,8,0.0206099,10,-6.11833e-05,-3.62153,-0.25167,-0.234434,2.17451,0.255956,
2,0,0,1,0,14886,0.248799,0.248465,-0.257018,8,0.0204106,10,-6.386e-05,-3.59004,-0.253375,-0.232857,2.34567,0.248465,
2,0,0,1,0,14886.8,0.241308,0.241026,-0.272819,8,0.0201985,10,-6.57565e-05,-3.56413,-0.40121,-0.147055,1.57428,0.241026,
2,0,0,1,0,14887.5,0.233817,0.233476,-0.289255,8,0.0199744,10,-6.75343e-05,-3.53872,-0.303867,-0.194164,2.18772,0.2334763,
2,0,0,1,0,14888.3,0.226326,0.225986,-0.303219,8,0.0197387,10,-6.85231e-05,-3.51824,-0.402795,-0.146477,1.73041,0.225986,
2,0,0,1,0,14889,0.218835,0.218491,-0.319452,8,0.0194916,10,-6.97973e-05,-3.49559,-0.291092,-0.202685,2.52402,0.218491,
2,0,0,1,0,14889.8,0.211344,0.211038,-0.333751,8,0.019233,10,-7.04342e-05,-3.47658,-0.636487,-0.0926964,1.20804,0.211038,
2,0,0,1,0,14890.5,0.203854,0.203527,-0.350389,8,0.0189625,10,-7.13136e-05,-3.45545,-0.377855,-0.156145,2.14318,0.203527,
2,0,0,1,0,14891.3,0.196362,0.196057,-0.367249,8,0.0186799,10,-7.20016e-05,-3.43504,-0.341311,-0.172863,2.47095,0.196057,
2,0,0,1,0,14892,0.188872,0.188521,-0.386975,8,0.0183836,10,-7.29528e-05,-3.41232,-0.216642,-0.272339,4.10876,0.188521,
2,0,0,1,0,14892.8,0.18138,0.181069,-0.409907,8,0.018072,10,-7.42214e-05,-3.38731,-0.285733,-0.206487,3.295,0.181069,
2,0,0,1,0,14893.5,0.17389,0.173551,-0.438164,8,0.0177418,10,-7.60436e-05,-3.35836,-0.214792,-0.274684,4.67556,0.173551,
2,0,0,1,0,14894.3,0.166398,0.166061,-0.47422,8,0.0173868,10,-7.87494e-05,-3.32402,-0.200179,-0.294736,5.484,0.166061,
2,0,0,1,0,14895,0.158907,0.158561,-0.528553,8,0.016997,10,-8.38076e-05,-3.27691,-0.130388,-0.452494,9.40648,0.158561,
2,0,0,1,0,14895.8,0.151417,0.151048,-0.622507,8,0.0165529,10,-9.40282e-05,-3.20586,-0.0924145,-0.638428,15.5866,0.151048,
2,0,0,1,0,14896.5,0.143925,0.14364,-0.776361,8,0.0160188,10,-0.000111517,-3.10994,-0.0669605,-0.881117,26.7154,0.14364,
2,0,0,1,0,14897.3,0.136435,0.136076,-0.987881,8,0.0153452,10,-0.000134427,-3.0053,-0.0782543,-0.753952,28.9911,0.136076,
2,0,0,1,0,14898,0.128943,0.128637,-1.18544,8,0.0145131,10,-0.000152492,-2.92612,-0.136492,-0.432258,19.8882,0.128637,
2,0,0,1,0,14898.8,0.121453,0.121156,-1.29055,8,0.0135659,10,-0.000156357,-2.88923,-0.392967,-0.15014,7.54165,0.121156,
2,0,0,1,0,14899.5,0.113962,0.113663,-1.30104,8,0.012575,10,-0.00014788,-2.88571,0.893692,0.0660183,-3.35296,0.113663,
2,0,0,1,0,14900.3,0.106471,0.106166,-1.26819,8,0.0115954,10,-0.000134639,-2.89681,0.449308,0.131313,-6.50632,0.106166,
2,0,0,1,0,14901,0.0989799,0.0986488,-1.21266,8,0.010651,10,-0.000119628,-2.91626,0.425367,0.138704,-6.55904,0.0986488,
2,0,0,1,0,14901.8,0.0914889,0.0911782,-1.15958,8,0.0097485,10,-0.000105729,-2.9357,0.412693,0.142963,-6.46254,0.0911782,
2,0,0,1,0,14902.5,0.083998,0.083679,-1.10935,8,0.00888553,10,-9.28292e-05,-2.95493,0.340634,0.173206,-7.49031,0.08367902,
2,0,0,1,0,14903.3,0.076507,0.0761777,-1.06971,8,0.00805564,10,-8.14879e-05,-2.97073,0.463302,0.127347,-5.31415,0.0761777,
2,0,0,1,0,14904,0.0690161,0.0687411,-1.02895,8,0.00725429,10,-7.07315e-05,-2.9876,0.573566,0.102865,-4.15408,0.0687411,
2,0,0,1,0,14904.8,0.0615251,0.0611814,-1.00085,8,0.00647753,10,-6.12335e-05,-2.99963,0.536572,0.109957,-4.30087,0.0611814,
2,0,0,1,0,14905.5,0.0540342,0.0537183,-0.968611,8,0.00572572,10,-5.20321e-05,-3.01385,0.606361,0.0973018,-3.67058,0.0537183,
2,0,0,1,0,14906.3,0.0465441,0.0462346,-0.931776,8,0.00499929,10,-4.30803e-05,-3.03069,0.537598,0.109747,-4.00126,0.0462346,
2,0,0,1,0,14907,0.0390523,0.0387613,-0.89636,8,0.0042998,10,-3.4744e-05,-3.04752,0.36832,0.160187,-5.59827,0.0387613,
2,0,0,1,0,14907.8,0.0315618,0.0312415,-0.860472,8,0.00362766,10,-2.68825e-05,-3.06526,0.456903,0.12913,-4.34525,0.0312415,
2,0,0,1,0,14908.5,0.0240704,0.0237491,-0.824091,8,0.00298191,10,-1.95714e-05,-3.08403,0.404696,0.145788,-4.71314,0.0237491,
2,0,0,1,0,14909.3,0.0165796,0.0162998,-0.800305,8,0.00235906,10,-1.30448e-05,-3.09674,0.661851,0.0891439,-2.78952,0.0162998,
2,0,0,1,0,14910,0.00908846,0.00874645,-0.783234,8,0.00175284,10,-6.85052e-06,-3.10611,1.72657,0.0341717,-1.04225,0.00874645,
2,0,0,1,0,14910.8,0.00159728,0.00124823,-0.789701,8,0.00115348,10,-9.85728e-07,-3.10254, , , ,0.00124823,
2,0,0,1,0,14910.9,0.000199195,-0.000166899,-0.779731,8,0.00104154,10,1.30136e-07,-3.10806, , , ,-0.000166899,