File: Figure_codes/Fig_3-5/rawdata_trumpetplot_data/after 10th/20221101_1-115_003_TrumpetPlot_ParaChange_from10_every3_07_CV_C01_34.csv
mode,ox/red,error,control changes,counter inc.,time/s,control/V,Ewe/V,<I>/mA,cycle number,(Q-Qo)/C,I Range,P/W,log(|I|),Tafel slope mV/dec,alpha_eff,dI/d(E-IR),E-IR/V,
2,0,0,0,0,68149.5,2.44065e-05,-0.000363498,-2.66705,35,0.0000000E+000,10,9.6947e-07,-2.57397, , , ,-0.000363498,
2,1,0,1,0,68149.6,0.007288,0.00698085,0.889326,35,-3.93483e-05,10,6.20825e-06,-3.05094,0.00853738,6.91079,201.579,0.00698085,
2,1,0,1,0,68149.7,0.0147816,0.0144387,1.80904,35,0.000140122,10,2.61202e-05,-2.74255,0.052277,1.1286,78.9124,0.0144387,
2,1,0,1,0,68149.8,0.0222712,0.0219037,2.2311,35,0.000396807,10,4.88692e-05,-2.65148,0.113397,0.520296,45.1804,0.0219037,
2,1,0,1,0,68149.9,0.0297648,0.0294883,2.51725,35,0.000696134,10,7.42295e-05,-2.59907,0.187249,0.315088,30.9403,0.02948831,
2,1,0,1,0,68150.1,0.0372518,0.0368872,2.76184,35,0.00102754,10,0.000101876,-2.5588,0.201464,0.292856,31.5079,0.03688715,
2,1,0,1,0,68150.2,0.0447467,0.0444282,2.99508,35,0.00138888,10,0.000133066,-2.52359,0.218479,0.270048,31.504,0.0444282,
2,1,0,1,0,68150.3,0.052235,0.0518963,3.20862,35,0.00177816,10,0.000166515,-2.49368,0.236208,0.24978,31.3388,0.0518963,
2,1,0,1,0,68150.4,0.0597299,0.0594006,3.42942,35,0.00219514,10,0.000203709,-2.46478,0.284424,0.207437,27.7571,0.0594006,
2,1,0,1,0,68150.6,0.0672156,0.0668779,3.62856,35,0.0026375,10,0.000242671,-2.44027,0.360941,0.163462,23.1214,0.0668779,
2,1,0,1,0,68150.7,0.0747105,0.0744108,3.80761,35,0.003104,10,0.000283327,-2.41935,0.418778,0.140886,20.9079,0.0744108,
2,1,0,1,0,68150.8,0.0821988,0.0818714,3.95482,35,0.00359048,10,0.000323786,-2.40287,0.455704,0.12947,19.9831,0.0818714,
2,1,0,1,0,68150.9,0.0896937,0.0894137,4.08816,35,0.00409488,10,0.000365537,-2.38847,0.500897,0.117789,18.8244,0.0894137,
2,1,0,1,0,68151.1,0.0971794,0.0968713,4.25068,35,0.00461701,10,0.000411769,-2.37154,0.397912,0.148274,24.6049,0.0968713,
2,1,0,1,0,68151.2,0.104674,0.104343,4.50026,35,0.00516413,10,0.000469571,-2.34676,0.258511,0.22823,40.0424,0.104343,
2,1,0,1,0,68151.3,0.112163,0.111808,4.82995,35,0.00574728,10,0.000540027,-2.31606,0.236027,0.249972,47.076,0.111808,
2,1,0,1,0,68151.4,0.119657,0.119316,5.17442,35,0.00637404,10,0.000617393,-2.28614,0.286439,0.205977,41.5515,0.119316,
2,1,0,1,0,68151.6,0.127143,0.126828,5.42469,35,0.00703878,10,0.000688002,-2.26563,0.50625,0.116543,24.6765,0.126828,
2,1,0,1,0,68151.7,0.134638,0.13431,5.58227,35,0.00772921,10,0.000749754,-2.25319,1.09688,0.053789,11.7011,0.1343099,
2,1,0,1,0,68151.8,0.142126,0.141785,5.61712,35,0.0084314,10,0.000796426,-2.25049,-2.24915,-0.0262322,-5.7366,0.141785,
2,1,0,1,0,68151.9,0.149621,0.149269,5.37781,35,0.00912401,10,0.000802742,-2.26939,-0.217009,-0.271878,-56.8997,0.149269,
2,1,0,1,0,68152.1,0.157107,0.156791,4.75387,35,0.0097619,10,0.000745364,-2.32295,-0.107599,-0.548334,-101.629,0.156791,
2,1,0,1,0,68152.2,0.164602,0.164328,4.01438,35,0.0103105,10,0.000659676,-2.39638,-0.101765,-0.579765,-90.7694,0.164328,
2,1,0,1,0,68152.3,0.17209,0.171766,3.44779,35,0.0107756,10,0.000592214,-2.46246,-0.134716,-0.437959,-59.0321,0.171766,
2,1,0,1,0,68152.4,0.179585,0.179279,3.07919,35,0.0111836,10,0.000552034,-2.51156,-0.18407,-0.32053,-38.6274,0.179279,
2,1,0,1,0,68152.6,0.187072,0.186752,2.84556,35,0.0115544,10,0.000531415,-2.54583,-0.25581,-0.23064,-25.6288,0.1867525,
2,1,0,1,0,68152.7,0.194566,0.19424,2.69152,35,0.0119016,10,0.0005228,-2.57,-0.368671,-0.160034,-16.8209,0.19424,
2,1,0,1,0,68152.8,0.202055,0.201731,2.59325,35,0.0122328,10,0.000523139,-2.58616,-0.561709,-0.105037,-10.615,0.201731,
2,1,0,1,0,68152.9,0.209549,0.209246,2.52278,35,0.0125539,10,0.000527882,-2.59812,-0.695335,-0.0848511,-8.36343,0.2092464,
2,1,0,1,0,68153.1,0.217036,0.216731,2.4626,35,0.0128672,10,0.000533721,-2.60861,-0.864007,-0.0682865,-6.59191,0.216731,
2,1,0,1,0,68153.2,0.22453,0.224234,2.43265,35,0.0131755,10,0.000545483,-2.61392,-0.700118,-0.0842716,-8.00745,0.2242344,
2,1,0,1,0,68153.3,0.232019,0.231678,2.40831,35,0.0134792,10,0.000557953,-2.61829,-3.13982,-0.0187909,-1.76267,0.231678,
2,1,0,1,0,68153.4,0.239513,0.239217,2.38618,35,0.01378,10,0.000570813,-2.6223,-4.70641,-0.0125361,-1.16582,0.239217,
2,1,0,1,0,68153.6,0.247001,0.246704,2.36279,35,0.0140778,10,0.00058291,-2.62657,-1.94606,-0.0303177,-2.79609,0.246704,
2,1,0,1,0,68153.7,0.254493,0.254198,2.34232,35,0.0143736,10,0.000595413,-2.63035,-1.73664,-0.0339737,-3.11035,0.2541976,
2,1,0,1,0,68153.8,0.261983,0.261634,2.32888,35,0.0146669,10,0.000609315,-2.63285,-1.71956,-0.034311,-3.11809,0.261634,
2,1,0,1,0,68153.9,0.269477,0.269175,2.31086,35,0.0149584,10,0.000622026,-2.63623,-1.86916,-0.031565,-2.84422,0.269175,
2,1,0,1,0,68154.1,0.276965,0.276687,2.28837,35,0.0152477,10,0.000633161,-2.64047,-29.5298,-0.00199798,-0.179101,0.276687,
2,1,0,1,0,68154.2,0.284457,0.284162,2.27714,35,0.0155351,10,0.000647077,-2.64261,-3.80979,-0.0154864,-1.37665,0.284162,
2,1,0,1,0,68154.3,0.291947,0.291634,2.26021,35,0.0158201,10,0.000659153,-2.64585,-1.19683,-0.0492968,-4.34418,0.291634,
2,1,0,1,0,68154.4,0.29944,0.299098,2.24114,35,0.0161031,10,0.000670319,-2.64953,-0.00943881,-6.25079,-441.316,0.299098,
2,0,0,1,0,68154.6,0.293742,0.293422,-0.275378,35,0.0161755,10,-8.08019e-05,-3.56007,-0.00414795,-14.2239,134.574,0.293422,
2,0,0,1,0,68154.7,0.286254,0.285945,-0.807239,35,0.0160991,10,-0.000230826,-3.093,-0.0441598,-1.33606,41.8245,0.285945,
2,0,0,1,0,68154.8,0.278761,0.278417,-1.04216,35,0.0159797,10,-0.000290155,-2.98207,-0.108617,-0.543192,21.9989,0.278417,
2,0,0,1,0,68154.9,0.271272,0.270968,-1.19161,35,0.015838,10,-0.000322887,-2.92387,-0.148999,-0.395975,18.3144,0.270968,
2,0,0,1,0,68155.1,0.263778,0.263452,-1.29706,35,0.0156802,10,-0.000341713,-2.88704,-0.196523,-0.30022,15.2082,0.263452,
2,0,0,1,0,68155.2,0.25629,0.25598,-1.38572,35,0.0155102,10,-0.000354718,-2.85832,-0.28904,-0.204124,11.0543,0.2559804,
2,0,0,1,0,68155.3,0.248798,0.248484,-1.46673,35,0.0153295,10,-0.000364459,-2.83365,-0.456079,-0.129364,7.40207,0.248484,
2,0,0,1,0,68155.4,0.241308,0.241034,-1.53907,35,0.0151397,10,-0.000370967,-2.81274,-0.426093,-0.138467,8.31676,0.241034,
2,0,0,1,0,68155.6,0.233814,0.233435,-1.60459,35,0.0149413,10,-0.000374566,-2.79464,-0.362839,-0.162607,10.1695,0.233435,
2,0,0,1,0,68155.7,0.226326,0.226024,-1.66424,35,0.0147351,10,-0.000376158,-2.77878,-0.501938,-0.117544,7.64937,0.226024,
2,0,0,1,0,68155.8,0.218834,0.218511,-1.72596,35,0.0145211,10,-0.000377141,-2.76297,-0.53662,-0.109947,7.41214,0.218511,
2,0,0,1,0,68155.9,0.211344,0.210986,-1.782,35,0.0143,10,-0.000375978,-2.74909,-0.784569,-0.0752005,5.22782,0.210986,
2,0,0,1,0,68156.1,0.203856,0.203491,-1.84598,35,0.0140713,10,-0.000375641,-2.73377,-0.548294,-0.107607,7.74415,0.203491,
2,0,0,1,0,68156.2,0.196362,0.196083,-1.89823,35,0.0138353,10,-0.000372211,-2.72165,-0.461095,-0.127956,9.50335,0.196083,
2,0,0,1,0,68156.3,0.18887,0.188569,-1.9644,35,0.0135915,10,-0.000370426,-2.70677,-0.532174,-0.110866,8.51546,0.188569,
2,0,0,1,0,68156.4,0.18138,0.18104,-2.04011,35,0.0133394,10,-0.000369341,-2.69035,-0.51373,-0.114846,9.14191,0.18104,
2,0,0,1,0,68156.6,0.173892,0.173583,-2.12369,35,0.0130778,10,-0.000368636,-2.67291,-0.386794,-0.152536,12.6076,0.173583,
2,0,0,1,0,68156.7,0.166398,0.166105,-2.2163,35,0.0128048,10,-0.000368138,-2.65437,-0.350131,-0.168509,14.6189,0.166105,
2,0,0,1,0,68156.8,0.158905,0.158632,-2.33998,35,0.0125177,10,-0.000371196,-2.63079,-0.283343,-0.208228,19.1003,0.158632,
2,0,0,1,0,68156.9,0.151417,0.151081,-2.53381,35,0.0122114,10,-0.000382812,-2.59623,-0.196622,-0.300068,29.743,0.151081,
2,0,0,1,0,68157.1,0.143927,0.143609,-2.84283,35,0.0118755,10,-0.000408256,-2.54625,-0.121096,-0.487216,53.9571,0.143609,
2,0,0,1,0,68157.2,0.136435,0.136116,-3.31351,35,0.011491,10,-0.00045102,-2.47971,-0.0991253,-0.595206,76.9387,0.1361156,
2,0,0,1,0,68157.3,0.128941,0.128585,-3.9192,35,0.0110376,10,-0.00050395,-2.4068,-0.10785,-0.547058,83.6619,0.128585,
2,0,0,1,0,68157.4,0.121453,0.1211,-4.53315,35,0.0105072,10,-0.000548963,-2.3436,-0.140132,-0.421031,74.4041,0.1211,
2,0,0,1,0,68157.6,0.113963,0.113677,-5.05765,35,0.00990542,10,-0.00057494,-2.29605,-0.191931,-0.307401,60.5617,0.113677,
2,0,0,1,0,68157.7,0.106471,0.106159,-5.43541,35,0.00924621,10,-0.000577018,-2.26477,-0.312904,-0.188556,39.9753,0.106159,
2,0,0,1,0,68157.8,0.0989825,0.0986698,-5.61594,35,0.00855186,10,-0.000554124,-2.25058,-1.31425,-0.0448927,9.82947,0.0986698,
2,0,0,1,0,68157.9,0.0914889,0.0911594,-5.59665,35,0.00784749,10,-0.000510188,-2.25207,0.947423,0.0622742,-13.5939,0.0911594,
2,0,0,1,0,68158.1,0.0839993,0.0837234,-5.46901,35,0.00715442,10,-0.000457884,-2.26209,0.546848,0.107891,-22.997,0.0837234,
2,0,0,1,0,68158.2,0.076507,0.0762108,-5.32609,35,0.00647887,10,-0.000405905,-2.27359,0.785341,0.0751266,-15.6076,0.0762108,
2,0,0,1,0,68158.3,0.0690187,0.068705,-5.21294,35,0.00581923,10,-0.000358155,-2.28292,0.909797,0.0648496,-13.2064,0.068705,
2,0,0,1,0,68158.4,0.0615251,0.0612297,-5.11493,35,0.00517148,10,-0.000313186,-2.29116,0.807396,0.0730744,-14.6056,0.0612297,
2,0,0,1,0,68158.5,0.0540355,0.053674,-5.01022,35,0.00453716,10,-0.000268918,-2.30014,0.707697,0.083369,-16.2848,0.053674,
2,0,0,1,0,68158.7,0.0465432,0.0461925,-4.88719,35,0.00391714,10,-0.000225751,-2.31094,0.723897,0.0815033,-15.5281,0.0461925,
2,0,0,1,0,68158.8,0.0390549,0.0387617,-4.73827,35,0.00331413,10,-0.000183663,-2.32438,0.570959,0.103335,-19.1257,0.0387617,
2,0,0,1,0,68158.9,0.0315613,0.0312283,-4.57812,35,0.00272961,10,-0.000142967,-2.33931,0.45631,0.129298,-23.1136,0.0312283,
2,0,0,1,0,68159,0.0240717,0.0237703,-4.40839,35,0.00216673,10,-0.000104789,-2.35572,0.41509,0.142138,-24.4471,0.0237703,
2,0,0,1,0,68159.2,0.0165781,0.016245,-4.25146,35,0.00162433,10,-6.90649e-05,-2.37146,0.533052,0.110683,-18.3484,0.01624498,
2,0,0,1,0,68159.3,0.00909108,0.0087728,-4.11313,35,0.00110063,10,-3.60836e-05,-2.38583,0.73387,0.0803957,-12.9136,0.008772797,
2,0,0,1,0,68159.4,0.00159616,0.00122875,-4.04053,35,0.000590421,10,-4.96478e-06,-2.39356, , , ,0.00122875,
2,0,0,1,0,68159.4,0.000199195,-0.000193621,-4.02654,35,0.000495978,10,7.79623e-07,-2.39507, , , ,-0.000193621,