File: Figure_codes/Fig_3-5/rawdata_trumpetplot_data/after 10th/20221101_1-115_003_TrumpetPlot_ParaChange_from10_every3_07_CV_C01_26.csv
mode,ox/red,error,control changes,counter inc.,time/s,control/V,Ewe/V,<I>/mA,cycle number,(Q-Qo)/C,I Range,P/W,log(|I|),Tafel slope mV/dec,alpha_eff,dI/d(E-IR),E-IR/V,
2,0,0,0,0,52388.4,2.44065e-05,-0.000401673,-2.69504,27,0.0000000E+000,10,1.08252e-06,-2.56943, , , ,-0.000401673,
2,1,0,1,0,52388.5,0.007288,0.00691982,0.876702,27,-4.14768e-05,10,6.06662e-06,-3.05715,0.00816406,7.2268,207.251,0.00691982,
2,1,0,1,0,52388.7,0.0147816,0.0144441,1.79075,27,0.000136446,10,2.58658e-05,-2.74696,0.0516278,1.1428,79.3298,0.0144441,
2,1,0,1,0,52388.8,0.0222712,0.0219547,2.2289,27,0.000392035,10,4.89348e-05,-2.65191,0.117493,0.502158,43.553,0.0219547,
2,1,0,1,0,52388.9,0.0297648,0.0294408,2.52045,27,0.000691166,10,7.42043e-05,-2.59852,0.182832,0.3227,31.6806,0.0294408,
2,1,0,1,0,52389,0.0372518,0.0368904,2.77535,27,0.00102359,10,0.000102384,-2.55668,0.195268,0.30215,32.6922,0.0368904,
2,1,0,1,0,52389.2,0.0447467,0.0444156,3.00801,27,0.00138719,10,0.000133603,-2.52172,0.21772,0.27099,31.9028,0.0444156,
2,1,0,1,0,52389.3,0.052235,0.0519373,3.24711,27,0.00177994,10,0.000168646,-2.4885,0.245561,0.240266,30.432,0.0519373,
2,1,0,1,0,52389.4,0.0597299,0.0594012,3.47371,27,0.0022016,10,0.000206342,-2.45921,0.289458,0.203829,27.5785,0.0594012,
2,1,0,1,0,52389.5,0.0672156,0.0668942,3.6821,27,0.00264952,10,0.000246311,-2.4339,0.305724,0.192985,27.669,0.0668942,
2,1,0,1,0,52389.7,0.0747105,0.0744356,3.86036,27,0.00312247,10,0.000287348,-2.41337,0.360722,0.163561,24.6504,0.0744356,
2,1,0,1,0,52389.8,0.0821988,0.0818332,4.0173,27,0.00361669,10,0.000328749,-2.39607,0.482416,0.122301,19.2062,0.0818332,
2,1,0,1,0,52389.9,0.0896937,0.0893785,4.16686,27,0.00412989,10,0.000372428,-2.38019,0.546466,0.107966,17.5479,0.0893785,
2,1,0,1,0,52390,0.0971794,0.0968492,4.33536,27,0.00466178,10,0.000419877,-2.36297,0.357078,0.16523,27.9497,0.0968492,
2,1,0,1,0,52390.2,0.104674,0.104377,4.57941,27,0.00521905,10,0.000477985,-2.33919,0.248941,0.237004,42.3625,0.104377,
2,1,0,1,0,52390.3,0.112163,0.111834,4.914,27,0.00581305,10,0.000549554,-2.30857,0.237078,0.248863,47.7767,0.111834,
2,1,0,1,0,52390.4,0.119657,0.119322,5.27522,27,0.00645172,10,0.000629449,-2.27776,0.299463,0.19702,40.5309,0.119322,
2,1,0,1,0,52390.5,0.127143,0.126826,5.54789,27,0.00713024,10,0.000703615,-2.25587,0.419982,0.140482,30.3894,0.126826,
2,1,0,1,0,52390.7,0.134638,0.134306,5.72542,27,0.00783715,10,0.000768957,-2.24219,0.794464,0.0742639,16.5846,0.134306,
2,1,0,1,0,52390.8,0.142126,0.141795,5.79084,27,0.00855931,10,0.000821114,-2.23726,-10.018,-0.00588942,-1.33001,0.141795,
2,1,0,1,0,52390.9,0.149621,0.14932,5.60333,27,0.00927714,10,0.00083669,-2.25155,-0.23277,-0.253469,-55.2802,0.14932,
2,1,0,1,0,52391,0.157107,0.156752,4.99059,27,0.00994406,10,0.000782288,-2.30185,-0.108378,-0.544389,-105.605,0.1567525,
2,1,0,1,0,52391.2,0.164602,0.164257,4.17781,27,0.0105176,10,0.000686234,-2.37905,-0.0960749,-0.614104,-100.192,0.164257,
2,1,0,1,0,52391.3,0.17209,0.171752,3.54003,27,0.0109987,10,0.000608007,-2.45099,-0.12099,-0.487644,-67.6296,0.171752,
2,1,0,1,0,52391.4,0.179585,0.179231,3.13684,27,0.011416,10,0.000562219,-2.50351,-0.16345,-0.360966,-44.3286,0.179231,
2,1,0,1,0,52391.5,0.187072,0.186732,2.88911,27,0.0117924,10,0.000539488,-2.53924,-0.258657,-0.228101,-25.7083,0.186732,
2,1,0,1,0,52391.7,0.194566,0.194249,2.73347,27,0.0121439,10,0.000530973,-2.56329,-0.412819,-0.14292,-15.2163,0.194249,
2,1,0,1,0,52391.8,0.202055,0.201775,2.61926,27,0.0124788,10,0.000528503,-2.58182,-0.532929,-0.110709,-11.3263,0.2017753,
2,1,0,1,0,52391.9,0.209549,0.209236,2.55473,27,0.0128034,10,0.000534542,-2.59265,-0.561801,-0.105019,-10.4521,0.209236,
2,1,0,1,0,52392,0.217036,0.216728,2.49634,27,0.0131199,10,0.000541027,-2.6027,-0.825002,-0.0715149,-6.96827,0.216728,
2,1,0,1,0,52392.2,0.224529,0.224225,2.46,27,0.0134312,10,0.000551593,-2.60906,-1.42857,-0.0413,-3.96369,0.224225,
2,1,0,1,0,52392.3,0.232019,0.231703,2.42682,27,0.0137378,10,0.000562301,-2.61496,-2.1701,-0.0271877,-2.57886,0.231703,
2,1,0,1,0,52392.4,0.239513,0.239225,2.40384,27,0.0140413,10,0.000575058,-2.61909,-1.46611,-0.0402426,-3.77327,0.239225,
2,1,0,1,0,52392.5,0.247001,0.246663,2.38703,27,0.0143417,10,0.000588792,-2.62214,-1.44119,-0.0409384,-3.80171,0.246663,
2,1,0,1,0,52392.6,0.254493,0.254172,2.36308,27,0.0146399,10,0.00060063,-2.62652,-3.31039,-0.0178227,-1.64339,0.254172,
2,1,0,1,0,52392.8,0.261983,0.261664,2.34201,27,0.0149355,10,0.00061282,-2.63041,-2.72078,-0.021685,-1.98545,0.261664,
2,1,0,1,0,52392.9,0.269477,0.269142,2.32571,27,0.0152292,10,0.000625946,-2.63344,-5.26196,-0.0112126,-1.01889,0.269142,
2,1,0,1,0,52393,0.276965,0.276718,2.31265,27,0.0155205,10,0.000639951,-2.63589,-2.00481,-0.0294293,-2.6522,0.276718,
2,1,0,1,0,52393.1,0.284457,0.284145,2.29912,27,0.0158099,10,0.000653282,-2.63844,-3.0944,-0.0190667,-1.70655,0.284145,
2,1,0,1,0,52393.3,0.291947,0.291602,2.27209,27,0.0160969,10,0.000662545,-2.64358,-2.15133,-0.0274249,-2.43583,0.291602,
2,1,0,1,0,52393.4,0.29944,0.299117,2.25279,27,0.0163817,10,0.00067385,-2.64728,-0.00881557,-6.6927,-473.985,0.299117,
2,0,0,1,0,52393.5,0.293742,0.293426,-0.295154,27,0.0164527,10,-8.66057e-05,-3.52995,-0.00344291,-17.1367,130.918,0.293426,
2,0,0,1,0,52393.6,0.286254,0.285934,-0.812323,27,0.016376,10,-0.000232271,-3.09027,-0.0448165,-1.31648,41.0719,0.285934,
2,0,0,1,0,52393.8,0.278761,0.27845,-1.02976,27,0.0162577,10,-0.000286737,-2.98726,-0.0988753,-0.596711,23.9772,0.27845,
2,0,0,1,0,52393.9,0.271272,0.270951,-1.17509,27,0.0161175,10,-0.000318393,-2.92993,-0.16801,-0.351169,16.12,0.270951,
2,0,0,1,0,52394,0.263778,0.263434,-1.28797,27,0.0159613,10,-0.000339294,-2.8901,-0.230808,-0.255623,12.8206,0.263434,
2,0,0,1,0,52394.1,0.25629,0.255946,-1.38203,27,0.0157927,10,-0.000353725,-2.85948,-0.319594,-0.184609,9.92188,0.255946,
2,0,0,1,0,52394.3,0.248797,0.24846,-1.45949,27,0.0156135,10,-0.000362626,-2.8358,-0.28959,-0.203736,11.5806,0.24846,
2,0,0,1,0,52394.4,0.241308,0.240987,-1.5261,27,0.0154249,10,-0.000367771,-2.81642,-0.370975,-0.15904,9.50826,0.2409866,
2,0,0,1,0,52394.5,0.233814,0.233484,-1.59323,27,0.0152277,10,-0.000371994,-2.79772,-0.455529,-0.12952,8.0628,0.233484,
2,0,0,1,0,52394.6,0.226326,0.226027,-1.66296,27,0.0150225,10,-0.000375875,-2.77912,-0.460493,-0.128124,8.28798,0.226027,
2,0,0,1,0,52394.8,0.218834,0.218474,-1.72495,27,0.0148094,10,-0.000376856,-2.76322,-0.387405,-0.152295,10.2211,0.218474,
2,0,0,1,0,52394.9,0.211344,0.211041,-1.77401,27,0.014589,10,-0.000374389,-2.75104,-0.50519,-0.116788,8.10932,0.211041,
2,0,0,1,0,52395,0.203856,0.203494,-1.84468,27,0.0143609,10,-0.000375381,-2.73408,-0.745404,-0.0791517,5.69871,0.203494,
2,0,0,1,0,52395.1,0.196362,0.195989,-1.90474,27,0.0141252,10,-0.000373308,-2.72016,-0.823492,-0.0716462,5.314,0.195989,
2,0,0,1,0,52395.3,0.18887,0.188482,-1.97005,27,0.0138815,10,-0.000371319,-2.70552,-0.458295,-0.128738,9.87626,0.188482,
2,0,0,1,0,52395.4,0.18138,0.181052,-2.03826,27,0.0136293,10,-0.000369032,-2.69074,-0.407594,-0.144752,11.5357,0.181052,
2,0,0,1,0,52395.5,0.173892,0.173557,-2.12978,27,0.0133672,10,-0.000369636,-2.67167,-0.402943,-0.146423,12.1626,0.173557,
2,0,0,1,0,52395.6,0.166398,0.166052,-2.2355,27,0.0130931,10,-0.000371209,-2.65062,-0.382291,-0.154333,13.4521,0.166052,
2,0,0,1,0,52395.8,0.158905,0.158562,-2.37291,27,0.0128038,10,-0.000376253,-2.62472,-0.242877,-0.242922,22.4973,0.158562,
2,0,0,1,0,52395.9,0.151417,0.151054,-2.57286,27,0.0124936,10,-0.000388642,-2.58958,-0.17302,-0.341002,34.4011,0.151054,
2,0,0,1,0,52396,0.143927,0.143557,-2.90673,27,0.0121506,10,-0.000417282,-2.5366,-0.116688,-0.505621,57.6022,0.143557,
2,0,0,1,0,52396.1,0.136435,0.136089,-3.42876,27,0.0117545,10,-0.000466617,-2.46486,-0.0996503,-0.59207,79.2016,0.136089,
2,0,0,1,0,52396.3,0.128941,0.128593,-4.07753,27,0.0112842,10,-0.000524343,-2.3896,-0.105683,-0.558271,88.7483,0.128593,
2,0,0,1,0,52396.4,0.121453,0.121084,-4.71472,27,0.0107323,10,-0.000570876,-2.32654,-0.135983,-0.433877,79.8145,0.121084,
2,0,0,1,0,52396.5,0.113963,0.113585,-5.24468,27,0.0101069,10,-0.000595716,-2.28028,-0.204276,-0.288825,59.0912,0.113585,
2,0,0,1,0,52396.6,0.106471,0.106129,-5.61584,27,0.00942439,10,-0.000596002,-2.25059,-0.358892,-0.164395,36.0114,0.106129,
2,0,0,1,0,52396.8,0.0989825,0.0986615,-5.7893,27,0.008708,10,-0.000571181,-2.23737,-1.6386,-0.0360064,8.11914,0.0986615,
2,0,0,1,0,52396.9,0.0914889,0.0911377,-5.75172,27,0.00798366,10,-0.000524199,-2.2402,1.0673,0.0552799,-12.3969,0.0911377,
2,0,0,1,0,52397,0.0839993,0.0836767,-5.59317,27,0.00727317,10,-0.000468018,-2.25234,0.517397,0.114032,-24.8976,0.0836767,
2,0,0,1,0,52397.1,0.076507,0.0762055,-5.43792,27,0.0065828,10,-0.0004144,-2.26457,0.624046,0.0945443,-20.0597,0.0762055,
2,0,0,1,0,52397.3,0.0690187,0.0686683,-5.31169,27,0.00591045,10,-0.000364745,-2.27477,0.795117,0.0742029,-15.3824,0.0686683,
2,0,0,1,0,52397.4,0.0615251,0.0611799,-5.20484,27,0.00525171,10,-0.000318432,-2.28359,0.894369,0.0659683,-13.3923,0.06117994,
2,0,0,1,0,52397.5,0.0540355,0.0536786,-5.0849,27,0.00460751,10,-0.00027295,-2.29372,0.762683,0.0773585,-15.3573,0.0536786,
2,0,0,1,0,52397.6,0.0465432,0.0461975,-4.95397,27,0.00397822,10,-0.000228861,-2.30505,0.599338,0.0984419,-19.0366,0.0461975,
2,0,0,1,0,52397.8,0.0390549,0.0386922,-4.81579,27,0.00336665,10,-0.000186333,-2.31733,0.531132,0.111083,-20.8318,0.0386922,
2,0,0,1,0,52397.9,0.0315613,0.0311775,-4.64783,27,0.00277383,10,-0.000144908,-2.33275,0.499101,0.118213,-21.4236,0.0311775,
2,0,0,1,0,52398,0.0240717,0.0237575,-4.45912,27,0.00220307,10,-0.000105937,-2.35075,0.435235,0.135559,-23.6582,0.0237575,
2,0,0,1,0,52398.1,0.0165781,0.0162038,-4.29587,27,0.00165374,10,-6.96093e-05,-2.36695,0.446518,0.132134,-22.1835,0.0162038,
2,0,0,1,0,52398.3,0.00909108,0.00874668,-4.16086,27,0.00112413,10,-3.63937e-05,-2.38082,0.598594,0.0985643,-15.9983,0.008746678,
2,0,0,1,0,52398.4,0.00159616,0.00118954,-4.08395,27,0.00060904,10,-4.85802e-06,-2.38892, , , ,0.00118954,
2,0,0,1,0,52398.4,0.000199195,-0.0002547,-4.05449,27,0.000513825,10,1.03268e-06,-2.39206, , , ,-0.0002547,