File: Figure_codes/Fig_3-5/rawdata_trumpetplot_data/after 10th/20221101_1-115_003_TrumpetPlot_ParaChange_from10_every3_12_CV_C01_25.csv
mode,ox/red,error,control changes,counter inc.,time/s,control/V,Ewe/V,<I>/mA,cycle number,(Q-Qo)/C,I Range,P/W,log(|I|),Tafel slope mV/dec,alpha_eff,dI/d(E-IR),E-IR/V,
2,1,0,1,0,50449.8,2.44065e-05,-0.000325324,14.9173,26,0.0000000E+000,10,-4.85295e-06,-1.82631, , , ,-0.000325324,
2,1,0,1,0,50449.8,0.0104008,0.0100232,18.0332,26,0.000286631,10,0.00018075,-1.74393,0.189741,0.31095,217.7,0.0100232,
2,1,0,1,0,50449.8,0.0212099,0.0208266,20.0732,26,0.000630604,10,0.000418057,-1.69738,0.28005,0.210676,164.622,0.0208266,
2,1,0,1,0,50449.8,0.0320052,0.0316173,21.7083,26,0.00100723,10,0.000686358,-1.66337,0.355883,0.165785,140.286,0.0316173,
2,1,0,1,0,50449.9,0.0428033,0.042461,23.1428,26,0.00141121,10,0.000982667,-1.63558,0.421914,0.139839,126.171,0.042461,
2,1,0,1,0,50449.9,0.0535986,0.0532188,24.4464,26,0.00183972,10,0.00130101,-1.61178,0.473849,0.124512,118.759,0.0532188,
2,1,0,1,0,50449.9,0.0644077,0.0640085,25.7287,26,0.00229146,10,0.00164685,-1.58958,0.50028,0.117934,118.377,0.0640085,
2,1,0,1,0,50449.9,0.075203,0.0748267,27.0081,26,0.00276617,10,0.00202093,-1.56851,0.513127,0.114981,121.195,0.07482674,
2,1,0,1,0,50449.9,0.0860011,0.0856068,28.3103,26,0.00326411,10,0.00242356,-1.54805,0.535754,0.110125,121.683,0.0856068,
2,1,0,1,0,50449.9,0.0968075,0.0964071,29.6508,26,0.00378591,10,0.00285855,-1.52796,0.54874,0.107519,124.405,0.0964071,
2,1,0,1,0,50450,0.107606,0.107218,31.023,26,0.00433204,10,0.00332622,-1.50832,0.55144,0.106993,129.536,0.107218,
2,1,0,1,0,50450,0.118401,0.118048,32.4128,26,0.00490311,10,0.00382626,-1.48928,0.575201,0.102573,129.759,0.118048,
2,1,0,1,0,50450,0.129207,0.128791,33.9164,26,0.00549979,10,0.00436813,-1.46959,0.523974,0.112601,149.03,0.128791,
2,1,0,1,0,50450,0.140005,0.139659,35.5704,26,0.00612528,10,0.00496773,-1.44891,0.528404,0.111657,155.005,0.139659,
2,1,0,1,0,50450,0.150803,0.150403,37.254,26,0.00678089,10,0.00560311,-1.42883,0.555697,0.106173,154.321,0.150403,
2,1,0,1,0,50450.1,0.161604,0.161289,38.8675,26,0.00746635,10,0.0062689,-1.41041,0.637857,0.0924972,140.196,0.1612891,
2,1,0,1,0,50450.1,0.172405,0.172027,40.2671,26,0.00817912,10,0.00692702,-1.39505,0.814122,0.0724707,113.748,0.172027,
2,1,0,1,0,50450.1,0.183203,0.18285,41.2629,26,0.00891374,10,0.00754493,-1.38444,1.46501,0.0402726,64.7402,0.18285,
2,1,0,1,0,50450.1,0.194001,0.193642,41.5878,26,0.00966052,10,0.00805316,-1.38103,-20.407,-0.00289117,-4.68378,0.193642,
2,1,0,1,0,50450.1,0.204808,0.20445,41.1373,26,0.0104062,10,0.00841051,-1.38576,-1.21791,-0.0484437,-77.6219,0.20445,
2,1,0,1,0,50450.1,0.215603,0.21528,39.8944,26,0.0111366,10,0.00858845,-1.39909,-0.630103,-0.0936354,-145.563,0.2152797,
2,1,0,1,0,50450.2,0.226401,0.226091,37.9762,26,0.0118381,10,0.00858607,-1.42049,-0.433859,-0.135989,-201.356,0.226091,
2,1,0,1,0,50450.2,0.237207,0.236918,35.6552,26,0.0125011,10,0.00844736,-1.44788,-0.362788,-0.162629,-226.208,0.236918,
2,1,0,1,0,50450.2,0.248005,0.247654,33.2423,26,0.0131209,10,0.0082326,-1.47831,-0.350411,-0.168374,-218.423,0.247654,
2,1,0,1,0,50450.2,0.258801,0.25845,30.9597,26,0.013698,10,0.00800152,-1.5092,-0.355762,-0.165841,-200.444,0.25845,
2,1,0,1,0,50450.2,0.26961,0.269323,28.9438,26,0.0142364,10,0.00779524,-1.53844,-0.38083,-0.154925,-175.034,0.269323,
2,1,0,1,0,50450.2,0.280405,0.280067,27.2086,26,0.0147411,10,0.00762025,-1.56529,-0.426814,-0.138233,-146.842,0.280067,
2,1,0,1,0,50450.3,0.291203,0.290834,25.7455,26,0.0152171,10,0.00748767,-1.5893,-0.48024,-0.122855,-123.567,0.290834,
2,1,0,0,0,50450.3,0.300012,0.299632,24.7218,26,0.0155879,10,0.00740743,-1.60692,0.00295302,19.9796,17364.3,0.299632,
2,1,0,1,0,50450.3,0.290843,0.29051,13.7309,26,0.0158684,10,0.00398898,-1.8623,0.0374179,1.57678,850.473,0.29051,
2,1,0,1,0,50450.3,0.280047,0.279793,6.48566,26,0.016045,10,0.00181464,-2.18805,0.0267219,2.20793,545.406,0.279793,
2,1,0,1,0,50450.3,0.269244,0.268909,1.49931,26,0.0161138,10,0.000403177,-2.82411,0.00843515,6.99454,389.754,0.268909,
2,0,0,1,0,50450.4,0.258443,0.258101,-2.13855,26,0.0161061,10,-0.000551961,-2.66988,-0.0132938,-4.43815,291.41,0.258101,
2,0,0,1,0,50450.4,0.247645,0.247296,-4.89843,26,0.0160413,10,-0.00121136,-2.30994,-0.0487066,-1.21133,225.76,0.247296,
2,0,0,1,0,50450.4,0.236849,0.236532,-7.08645,26,0.0159324,10,-0.00167618,-2.14957,-0.0892693,-0.660921,180.755,0.236532,
2,0,0,1,0,50450.4,0.22604,0.225675,-8.85536,26,0.0157883,10,-0.00199843,-2.05279,-0.136646,-0.431771,148.27,0.225675,
2,0,0,1,0,50450.4,0.215245,0.214912,-10.3107,26,0.0156153,10,-0.00221589,-1.98671,-0.187359,-0.314903,126.372,0.214912,
2,0,0,1,0,50450.4,0.204447,0.204107,-11.5781,26,0.015418,10,-0.00236317,-1.93636,-0.243687,-0.242114,109.124,0.204107,
2,0,0,1,0,50450.5,0.19364,0.193293,-12.6889,26,0.0151994,10,-0.00245269,-1.89657,-0.295906,-0.199388,98.5484,0.193293,
2,0,0,1,0,50450.5,0.182842,0.182514,-13.6967,26,0.0149617,10,-0.00249985,-1.86338,-0.340634,-0.173206,92.5199,0.182514,
2,0,0,1,0,50450.5,0.172047,0.171715,-14.6715,26,0.0147063,10,-0.00251932,-1.83352,-0.369566,-0.159647,91.4763,0.171715,
2,0,0,1,0,50450.5,0.161241,0.160856,-15.6885,26,0.014433,10,-0.00252359,-1.80442,-0.374957,-0.157352,96.4011,0.160856,
2,0,0,1,0,50450.5,0.150443,0.1501,-16.8187,26,0.0141406,10,-0.00252448,-1.77421,-0.335063,-0.176086,115.747,0.1501,
2,0,0,1,0,50450.5,0.139645,0.139326,-18.2596,26,0.0138253,10,-0.00254404,-1.73851,-0.273338,-0.21585,154.231,0.139326,
2,0,0,1,0,50450.6,0.128849,0.128524,-20.2036,26,0.0134798,10,-0.00259664,-1.69457,-0.224648,-0.262634,207.565,0.128524,
2,0,0,1,0,50450.6,0.118043,0.117718,-22.7738,26,0.0130937,10,-0.00268088,-1.64257,-0.201666,-0.292563,260.078,0.117718,
2,0,0,1,0,50450.6,0.107245,0.106928,-25.722,26,0.0126572,10,-0.00275041,-1.5897,-0.210965,-0.279668,280.483,0.106928,
2,0,0,1,0,50450.6,0.0964468,0.0961536,-28.7018,26,0.012167,10,-0.00275978,-1.54209,-0.249886,-0.236108,263.909,0.0961536,
2,0,0,1,0,50450.6,0.0856404,0.0853916,-31.466,26,0.0116252,10,-0.00268693,-1.50216,-0.295327,-0.199779,244.749,0.0853916,
2,0,0,1,0,50450.7,0.0748451,0.0745277,-33.8529,26,0.0110364,10,-0.00252298,-1.4704,-0.387498,-0.152259,200.795,0.0745277,
2,0,0,1,0,50450.7,0.0640471,0.063772,-35.7537,26,0.0104091,10,-0.00228009,-1.44668,-0.53207,-0.110888,154.501,0.063772,
2,0,0,1,0,50450.7,0.0532407,0.0529272,-37.1886,26,0.00975185,10,-0.00196829,-1.42959,-0.779223,-0.0757164,109.736,0.05292723,
2,0,0,1,0,50450.7,0.0424426,0.0421217,-38.1616,26,0.00907294,10,-0.00160743,-1.41837,-1.20505,-0.0489607,72.8675,0.04212169,
2,0,0,1,0,50450.7,0.0316473,0.0313427,-38.7713,26,0.00837986,10,-0.00121519,-1.41149,-2.06054,-0.0286333,43.3061,0.0313427,
2,0,0,1,0,50450.7,0.0208437,0.0205042,-39.1057,26,0.00767851,10,-0.000801833,-1.40776,-5.36695,-0.0109932,16.7679,0.0205042,
2,0,0,1,0,50450.8,0.0100429,0.00970718,-39.1896,26,0.00697354,10,-0.000380421,-1.40683,19.6335,0.00300507,-4.59236,0.00970718,
2,0,0,1,0,50450.8,-0.000755207,-0.00114714,-39.0756,26,0.00626899,10,4.48251e-05,-1.40809,4.39465,0.0134254,-20.4491,-0.00114714,
2,0,0,1,0,50450.8,-0.0115505,-0.0119516,-38.6877,26,0.00556892,10,0.000462381,-1.41243,1.89813,0.0310832,-46.8943,-0.0119516,
2,0,0,1,0,50450.8,-0.0223597,-0.0227572,-38.092,26,0.00487777,10,0.000866867,-1.41917,1.39157,0.0423982,-63.0001,-0.0227572,
2,0,0,1,0,50450.8,-0.033155,-0.0335076,-37.3623,26,0.00419864,10,0.00125192,-1.42757,1.28196,0.0460234,-67.1124,-0.0335076,
2,0,0,1,0,50450.9,-0.043953,-0.0443365,-36.615,26,0.00353291,10,0.00162338,-1.43634,1.25737,0.0469234,-67.0857,-0.0443365,
2,0,0,1,0,50450.9,-0.0547594,-0.0551547,-35.9568,26,0.00288,10,0.00198319,-1.44422,1.50092,0.0393093,-55.1755,-0.0551547,
2,0,0,1,0,50450.9,-0.0655575,-0.0659391,-35.4276,26,0.00223778,10,0.00233606,-1.45066,2.06675,0.0285472,-39.5027,-0.0659391,
2,0,0,1,0,50450.9,-0.0763528,-0.0767489,-35.0881,26,0.00160332,10,0.00269297,-1.45484,3.45317,0.0170858,-23.4162,-0.0767489,
2,0,0,1,0,50450.9,-0.0871592,-0.0875226,-34.9462,26,0.000973309,10,0.00305859,-1.4566,10.617,0.00555715,-7.58072,-0.0875226,
2,0,0,1,0,50450.9,-0.0979573,-0.0983451,-34.9551,26,0.000344458,10,0.00343766,-1.45649,27.7224,0.00212824,-2.89978,-0.0983451,
2,0,0,1,1,50451,-0.0955546,-0.0959984,-27.3166,26,-7.5834e-06,10,0.00262235,-1.56357,-0.0460916,-1.28006,1388.25,-0.0959984,
2,0,0,1,1,50451,-0.0847538,-0.0851823,-16.3173,26,-0.000391815,10,0.00138994,-1.78735,-0.0448889,-1.31436,835.864,-0.0851823,
2,0,0,1,1,50451,-0.0739557,-0.0743545,-8.56346,26,-0.000612001,10,0.000636731,-2.06735,-0.0306695,-1.92374,628.345,-0.0743545,
2,0,0,1,1,50451,-0.0631604,-0.0635977,-2.48794,26,-0.000708905,10,0.000158227,-2.60416,-0.00647514,-9.11177,505.082,-0.0635977,
2,1,0,1,1,50451,-0.0523512,-0.0528006,2.47865,26,-0.000707061,10,-0.000130875,-2.60578,0.00904881,6.52019,418.079,-0.0528006,
2,1,0,1,1,50451,-0.0415559,-0.0420226,6.58382,26,-0.000624067,10,-0.000276669,-2.18152,0.041513,1.42124,354.095,-0.0420226,
2,1,0,1,1,50451.1,-0.0307579,-0.0311927,10.0558,26,-0.000472933,10,-0.000313668,-1.99758,0.0779981,0.756429,293.632,-0.0311927,
2,1,0,1,1,50451.1,-0.0199515,-0.0203914,12.9839,26,-0.000264494,10,-0.00026476,-1.8866,0.120558,0.489392,246.387,-0.0203914,
2,1,0,1,1,50451.1,-0.0091534,-0.00951693,15.4231,26,-7.90362e-06,10,-0.00014678,-1.81183,0.171098,0.344831,206.778,-0.00951693,
2,1,0,0,1,50451.1,-7.54729e-05,-0.000439847,17.1237,26,0.000238598,10,-7.53182e-06,-1.7664, , , ,-0.000439847,