File: Figure_codes/Fig_3-5/rawdata_trumpetplot_data/after 10th/20221101_1-115_003_TrumpetPlot_ParaChange_from10_every3_04_CV_C01_10.csv
mode,ox/red,error,control changes,counter inc.,time/s,control/V,Ewe/V,<I>/mA,cycle number,(Q-Qo)/C,I Range,P/W,log(|I|),Tafel slope mV/dec,alpha_eff,dI/d(E-IR),E-IR/V,
2,0,0,1,0,20761.3,2.44065e-05,-0.000344411,-0.394513,11,0.0000000E+000,10,1.35875e-07,-3.40394, , , ,-0.000344411,
2,1,0,1,0,20762,0.00729063,0.00700845,0.363996,11,0.000191764,10,2.55105e-06,-3.4389,0.0598451,0.985878,13.8112,0.00700845,
2,1,0,1,0,20762.8,0.0147814,0.0144821,0.440128,11,0.000506731,10,6.37398e-06,-3.35642,0.122105,0.48319,8.28824,0.0144821,
2,1,0,1,0,20763.5,0.0222725,0.0219591,0.498794,11,0.000870482,10,1.09531e-05,-3.30208,0.138659,0.425505,8.26007,0.02195912,
2,1,0,1,0,20764.3,0.0297635,0.0294234,0.551856,11,0.00127591,10,1.62375e-05,-3.25817,0.189795,0.310862,6.68649,0.0294234,
2,1,0,1,0,20765,0.0372544,0.0369458,0.604422,11,0.00172144,10,2.23309e-05,-3.21866,0.217002,0.271887,6.42584,0.0369458,
2,1,0,1,0,20765.8,0.0447458,0.0444422,0.655867,11,0.00220685,10,2.91482e-05,-3.18318,0.211922,0.278404,7.13825,0.0444422,
2,1,0,1,0,20766.5,0.0522363,0.0519188,0.702189,11,0.00272928,10,3.64568e-05,-3.15355,0.22628,0.260739,7.15199,0.0519188,
2,1,0,1,0,20767.3,0.0597282,0.05937,0.74868,11,0.0032859,10,4.44491e-05,-3.1257,0.289854,0.203551,5.95031,0.05937,
2,1,0,1,0,20768,0.0672182,0.0669267,0.788657,11,0.00387398,10,5.27822e-05,-3.10311,0.402486,0.146589,4.50092,0.0669267,
2,1,0,1,0,20768.8,0.0747092,0.0743899,0.821293,11,0.00448857,10,6.10959e-05,-3.0855,0.480849,0.1227,3.92779,0.07438986,
2,1,0,1,0,20769.5,0.0822001,0.0819516,0.846153,11,0.00512606,10,6.93436e-05,-3.07255,0.503561,0.117166,3.88125,0.0819516,
2,1,0,1,0,20770.3,0.0896911,0.0893628,0.887442,11,0.00578806,10,7.93043e-05,-3.05186,0.293912,0.20074,6.97005,0.0893628,
2,1,0,1,0,20771,0.097182,0.096844,0.948442,11,0.00648736,10,9.18509e-05,-3.02299,0.194959,0.302628,11.2095,0.096844,
2,1,0,1,0,20771.8,0.104673,0.104322,1.03834,11,0.00724245,10,0.000108321,-2.98366,0.205103,0.28766,11.6164,0.104322,
2,1,0,1,0,20772.5,0.112164,0.111873,1.11377,11,0.00806153,10,0.000124601,-2.9532,0.275982,0.213782,9.27877,0.111873,
2,1,0,1,0,20773.3,0.119655,0.119327,1.16965,11,0.00893121,10,0.00013957,-2.93195,0.617459,0.0955528,4.362,0.119327,
2,1,0,1,0,20774,0.127146,0.126882,1.21074,11,0.00983648,10,0.000153621,-2.91695,0.529258,0.111477,5.28276,0.126882,
2,1,0,1,0,20774.8,0.134637,0.134333,1.23534,11,0.0107712,10,0.000165947,-2.90821,-1.01502,-0.0581268,-2.79802,0.134333,
2,1,0,1,0,20775.5,0.142127,0.141765,1.14316,11,0.0116845,10,0.000162061,-2.94189,-0.121908,-0.483972,-21.4752,0.141765,
2,1,0,1,0,20776.3,0.149619,0.149284,0.930027,11,0.0124766,10,0.000138838,-3.0315,-0.0718477,-0.821182,-29.8019,0.149284,
2,1,0,1,0,20777,0.157109,0.15675,0.74852,11,0.0131115,10,0.00011733,-3.1258,-0.0941764,-0.626484,-18.3536,0.15675,
2,1,0,1,0,20777.8,0.164601,0.164283,0.656418,11,0.013645,10,0.000107838,-3.18282,-0.168651,-0.349835,-8.95441,0.164283,
2,1,0,1,0,20778.5,0.172091,0.171816,0.605025,11,0.0141278,10,0.000103953,-3.21823,-0.328396,-0.179661,-4.25944,0.171816,
2,1,0,1,0,20779.3,0.179582,0.179271,0.578816,11,0.0145828,10,0.000103765,-3.23746,-0.424227,-0.139076,-3.14916,0.179271,
2,1,0,1,0,20780,0.187074,0.186755,0.562231,11,0.0150214,10,0.000104999,-3.25009,-0.619236,-0.0952787,-2.08672,0.186755,
2,1,0,1,0,20780.8,0.194564,0.194226,0.55036,11,0.0154491,10,0.000106894,-3.25935,-0.790136,-0.0746707,-1.60278,0.1942264,
2,1,0,1,0,20781.5,0.202056,0.201726,0.540583,11,0.0158687,10,0.00010905,-3.26714,-1.15133,-0.0512452,-1.07943,0.201726,
2,1,0,1,0,20782.3,0.209546,0.209228,0.534032,11,0.0162824,10,0.000111734,-3.27243,-0.870831,-0.0677514,-1.41103,0.209228,
2,1,0,1,0,20783,0.217038,0.216729,0.525404,11,0.0166904,10,0.00011387,-3.27951,-2.66535,-0.022136,-0.454123,0.216729,
2,1,0,1,0,20783.8,0.224528,0.224189,0.520195,11,0.0170939,10,0.000116622,-3.28383,-1.91274,-0.0308458,-0.625165,0.224189,
2,1,0,1,0,20784.5,0.232019,0.231696,0.515363,11,0.017493,10,0.000119407,-3.28789,-1.23219,-0.0478823,-0.962244,0.231696,
2,1,0,1,0,20785.3,0.23951,0.239212,0.512183,11,0.0178886,10,0.00012252,-3.29057,-1.31969,-0.0447076,-0.888642,0.239212,
2,1,0,1,0,20786,0.247001,0.246676,0.506138,11,0.0182806,10,0.000124852,-3.29573,-0.972544,-0.0606656,-1.19671,0.246676,
2,1,0,1,0,20786.8,0.254492,0.254164,0.500673,11,0.0186693,10,0.000127253,-3.30045,-1.3653,-0.043214,-0.844306,0.254164,
2,1,0,1,0,20787.5,0.261983,0.261695,0.496786,11,0.0190544,10,0.000130006,-3.30383,-2.53274,-0.0232949,-0.452429,0.261695,
2,1,0,1,0,20788.3,0.269474,0.269183,0.491818,11,0.0194365,10,0.000132389,-3.3082,-8.82975,-0.00668195,-0.128202,0.269183,
2,1,0,1,0,20789,0.276965,0.276631,0.488497,11,0.0198152,10,0.000135133,-3.31114,-1.04096,-0.0566783,-1.0813,0.276631,
2,1,0,1,0,20789.8,0.284456,0.284124,0.483768,11,0.0201908,10,0.00013745,-3.31536,-3.40577,-0.0173235,-0.326275,0.284124,
2,1,0,1,0,20790.5,0.291947,0.29161,0.479404,11,0.0205627,10,0.000139799,-3.3193,-1.17775,-0.0500956,-0.935231,0.29161,
2,1,0,1,0,20791.3,0.299437,0.299155,0.473036,11,0.0209313,10,0.000141511,-3.32511,-0.00226449,-26.0544,-223.442,0.299155,
2,0,0,1,0,20791.9,0.293745,0.293423,-0.0739793,11,0.0209479,10,-2.17072e-05,-4.13089,-0.0150573,-3.91836,10.6647,0.293423,
2,0,0,1,0,20792.7,0.286253,0.285983,-0.129763,11,0.0208573,10,-3.71101e-05,-3.88685,-0.0490473,-1.20292,6.06302,0.285983,
2,0,0,1,0,20793.4,0.278763,0.278438,-0.166136,11,0.0207337,10,-4.62585e-05,-3.77954,-0.0933284,-0.632176,4.08375,0.278438,
2,0,0,1,0,20794.2,0.271272,0.27097,-0.19413,11,0.0205866,10,-5.26036e-05,-3.71191,-0.124455,-0.474068,3.58447,0.27097,
2,0,0,1,0,20794.9,0.263781,0.263477,-0.217343,11,0.02042,10,-5.72649e-05,-3.66286,-0.153977,-0.383174,3.25528,0.263477,
2,0,0,1,0,20795.7,0.25629,0.256007,-0.23832,11,0.020237,10,-6.10115e-05,-3.62284,-0.229044,-0.257593,2.3958,0.256007,
2,0,0,1,0,20796.4,0.248799,0.24846,-0.256827,11,0.02004,10,-6.38111e-05,-3.59036,-0.25937,-0.227475,2.274,0.24846,
2,0,0,1,0,20797.2,0.241308,0.24101,-0.271432,11,0.0198303,10,-6.54179e-05,-3.56634,-0.285494,-0.206659,2.20103,0.24101,
2,0,0,1,0,20797.9,0.233817,0.233478,-0.28836,11,0.0196085,10,-6.73259e-05,-3.54006,-0.289031,-0.204131,2.29729,0.2334784,
2,0,0,1,0,20798.7,0.226326,0.226039,-0.304055,11,0.0193752,10,-6.87282e-05,-3.51705,-0.285788,-0.206447,2.44338,0.226039,
2,0,0,1,0,20799.4,0.218835,0.21851,-0.317803,11,0.0191302,10,-6.94431e-05,-3.49784,-0.300612,-0.196266,2.43081,0.21851,
2,0,0,1,0,20800.2,0.211344,0.211006,-0.333625,11,0.0188739,10,-7.03969e-05,-3.47674,-0.339195,-0.173941,2.27211,0.211006,
2,0,0,1,0,20800.9,0.203854,0.203546,-0.346845,11,0.0186058,10,-7.05989e-05,-3.45986,-0.404611,-0.145819,1.99358,0.203546,
2,0,0,1,0,20801.7,0.196362,0.19602,-0.365632,11,0.018326,10,-7.16711e-05,-3.43696,-0.445401,-0.132465,1.89265,0.19602,
2,0,0,1,0,20802.4,0.188872,0.188566,-0.384943,11,0.0180331,10,-7.25871e-05,-3.4146,-0.263769,-0.223681,3.34938,0.188566,
2,0,0,1,0,20803.2,0.18138,0.181066,-0.406274,11,0.0177258,10,-7.35622e-05,-3.39118,-0.303641,-0.194308,3.07299,0.181066,
2,0,0,1,0,20803.9,0.17389,0.173541,-0.431419,11,0.0174013,10,-7.4869e-05,-3.3651,-0.263346,-0.22404,3.76577,0.173541,
2,0,0,1,0,20804.7,0.166398,0.166113,-0.463849,11,0.0170545,10,-7.70513e-05,-3.33362,-0.230817,-0.255614,4.63966,0.166113,
2,0,0,1,0,20805.4,0.158907,0.158575,-0.512826,11,0.016677,10,-8.13216e-05,-3.29003,-0.150902,-0.390983,7.84412,0.158575,
2,0,0,1,0,20806.2,0.151417,0.15109,-0.593002,11,0.0162525,10,-8.95968e-05,-3.22694,-0.0972393,-0.60675,14.0828,0.15109,
2,0,0,1,0,20806.9,0.143925,0.143653,-0.727067,11,0.0157497,10,-0.000104445,-3.13843,-0.0693229,-0.851089,24.176,0.143653,
2,0,0,1,0,20807.7,0.136435,0.136067,-0.918824,11,0.0151225,10,-0.000125022,-3.03677,-0.0781269,-0.755182,26.9955,0.136067,
2,0,0,1,0,20808.4,0.128943,0.128651,-1.1102,11,0.0143471,10,-0.000142829,-2.9546,-0.121094,-0.487223,21.0136,0.128651,
2,0,0,1,0,20809.2,0.121453,0.121138,-1.22882,11,0.0134539,10,-0.000148857,-2.91051,-0.308949,-0.19097,9.11561,0.121138,
2,0,0,1,0,20809.9,0.113962,0.113634,-1.25595,11,0.0125057,10,-0.00014272,-2.90103,3.51328,0.0167934,-0.824297,0.113634,
2,0,0,1,0,20810.7,0.106471,0.106113,-1.23395,11,0.011557,10,-0.000130938,-2.9087,0.604415,0.097615,-4.70911,0.106113,
2,0,0,1,0,20811.4,0.0989799,0.0986615,-1.19057,11,0.0106352,10,-0.000117464,-2.92424,0.46865,0.125893,-5.83925,0.0986615,
2,0,0,1,0,20812.2,0.0914889,0.091174,-1.1472,11,0.00974828,10,-0.000104595,-2.94036,0.47031,0.125449,-5.60456,0.091174,
2,0,0,1,0,20812.9,0.083998,0.0836674,-1.10444,11,0.00889483,10,-9.24053e-05,-2.95686,0.464626,0.126984,-5.45677,0.08366736,
2,0,0,1,0,20813.7,0.076507,0.076166,-1.06609,11,0.00807058,10,-8.11998e-05,-2.97221,0.479648,0.123007,-5.11079,0.076166,
2,0,0,1,0,20814.4,0.0690161,0.0686902,-1.02906,11,0.00727311,10,-7.06862e-05,-2.98756,0.515092,0.114543,-4.61623,0.0686902,
2,0,0,1,0,20815.2,0.0615251,0.0612154,-0.997557,11,0.00649954,10,-6.10658e-05,-3.00106,0.612714,0.0962929,-3.75981,0.0612154,
2,0,0,1,0,20815.9,0.0540342,0.0537565,-0.968882,11,0.00575015,10,-5.20837e-05,-3.01373,0.549822,0.107307,-4.04859,0.0537565,
2,0,0,1,0,20816.7,0.0465441,0.0461901,-0.933369,11,0.00502517,10,-4.31125e-05,-3.02995,0.481952,0.122419,-4.46312,0.0461901,
2,0,0,1,0,20817.4,0.0390523,0.0387263,-0.898521,11,0.00432633,10,-3.47964e-05,-3.04647,0.36172,0.16311,-5.71283,0.03872627,
2,0,0,1,0,20818.2,0.0315618,0.031218,-0.865042,11,0.00365414,10,-2.70048e-05,-3.06296,0.455867,0.129424,-4.3683,0.031218,
2,0,0,1,0,20818.9,0.0240704,0.0237767,-0.826649,11,0.00300763,10,-1.9655e-05,-3.08268,0.425725,0.138587,-4.49348,0.0237767,
2,0,0,1,0,20819.7,0.0165796,0.016282,-0.802831,11,0.00238423,10,-1.30717e-05,-3.09538,0.780035,0.0756376,-2.37181,0.016282,
2,0,0,1,0,20820.4,0.00908846,0.00878675,-0.784642,11,0.00177776,10,-6.89445e-06,-3.10533,1.70382,0.034628,-1.06109,0.00878675,
2,0,0,1,0,20821.2,0.00159728,0.00119906,-0.789315,11,0.00117877,10,-9.46438e-07,-3.10275, , , ,0.001199063,
2,0,0,1,0,20821.3,0.000199195,-0.000140177,-0.779847,11,0.00106689,10,1.09316e-07,-3.10799, , , ,-0.000140177,