File: Figure_codes/Fig_3-5/rawdata_trumpetplot_data/after 10th/20221101_1-115_003_TrumpetPlot_ParaChange_from10_every3_04_CV_C01_8.csv
mode,ox/red,error,control changes,counter inc.,time/s,control/V,Ewe/V,<I>/mA,cycle number,(Q-Qo)/C,I Range,P/W,log(|I|),Tafel slope mV/dec,alpha_eff,dI/d(E-IR),E-IR/V,
2,0,0,1,0,16821.1,2.44065e-05,-0.00042076,-0.372888,9,0.0000000E+000,10,1.56896e-07,-3.42842, , , ,-0.00042076,
2,1,0,1,0,16821.8,0.00729063,0.00697982,0.38414,9,0.000218275,10,2.68123e-06,-3.41551,0.0709593,0.831462,12.3588,0.00697982,
2,1,0,1,0,16822.5,0.0147814,0.0145001,0.458009,9,0.000550094,10,6.64118e-06,-3.33913,0.120328,0.490328,8.72229,0.0145001,
2,1,0,1,0,16823.3,0.0222725,0.021974,0.513741,9,0.000928494,10,1.12889e-05,-3.28926,0.156534,0.376914,7.55002,0.021974,
2,1,0,1,0,16824,0.0297635,0.0294569,0.566414,9,0.00134748,10,1.66848e-05,-3.24687,0.195555,0.301705,6.67793,0.0294569,
2,1,0,1,0,16824.8,0.0372544,0.036931,0.620046,9,0.00180657,10,2.28989e-05,-3.20758,0.22659,0.260382,6.3037,0.036931,
2,1,0,1,0,16825.5,0.0447458,0.0444094,0.672122,9,0.00230538,10,2.98485e-05,-3.17255,0.229459,0.257126,6.72618,0.0444094,
2,1,0,1,0,16826.3,0.0522363,0.0519135,0.720601,9,0.00284179,10,3.74089e-05,-3.14231,0.218411,0.270133,7.59075,0.0519135,
2,1,0,1,0,16827,0.0597282,0.0593436,0.76524,9,0.00341352,10,4.54121e-05,-3.1162,0.293436,0.201066,5.99822,0.0593436,
2,1,0,1,0,16827.8,0.0672182,0.0668843,0.807908,9,0.00401685,10,5.40364e-05,-3.09264,0.38821,0.151979,4.77238,0.0668843,
2,1,0,1,0,16828.5,0.0747092,0.0744079,0.838539,9,0.00464744,10,6.23939e-05,-3.07648,0.474922,0.124231,4.06588,0.07440789,
2,1,0,1,0,16829.3,0.0822001,0.0818859,0.866794,9,0.00530229,10,7.09782e-05,-3.06208,0.438158,0.134655,4.57097,0.0818859,
2,1,0,1,0,16830,0.0896911,0.0893448,0.912842,9,0.00598306,10,8.15576e-05,-3.0396,0.311399,0.189467,6.75609,0.0893448,
2,1,0,1,0,16830.8,0.097182,0.0968673,0.973677,9,0.00670343,10,9.43175e-05,-3.01159,0.190476,0.30975,11.7949,0.0968673,
2,1,0,1,0,16831.5,0.104673,0.104386,1.07081,9,0.00748244,10,0.000111777,-2.97029,0.190123,0.310326,12.9184,0.104386,
2,1,0,1,0,16832.3,0.112164,0.111797,1.14984,9,0.00832945,10,0.000128549,-2.93936,0.299389,0.197068,8.81946,0.111797,
2,1,0,1,0,16833,0.119655,0.119354,1.21099,9,0.00922863,10,0.000144537,-2.91686,0.47437,0.124375,5.86951,0.119354,
2,1,0,1,0,16833.8,0.127146,0.126831,1.25473,9,0.0101674,10,0.000159138,-2.90145,0.430085,0.137182,6.73701,0.1268312,
2,1,0,1,0,16834.5,0.134637,0.134325,1.28312,9,0.0111389,10,0.000172355,-2.89173,-0.890164,-0.0662799,-3.31413,0.134325,
2,1,0,1,0,16835.3,0.142127,0.14178,1.1831,9,0.0120874,10,0.00016774,-2.92698,-0.118275,-0.498838,-22.8836,0.14178,
2,1,0,1,0,16836,0.149619,0.149265,0.956525,9,0.0129063,10,0.000142776,-3.0193,-0.0707023,-0.834484,-31.1602,0.149265,
2,1,0,1,0,16836.8,0.157109,0.156784,0.762509,9,0.013559,10,0.000119549,-3.11776,-0.0885161,-0.666545,-19.921,0.156784,
2,1,0,1,0,16837.5,0.164601,0.164278,0.662116,9,0.0141024,10,0.000108771,-3.17907,-0.153783,-0.383658,-9.91059,0.164278,
2,1,0,1,0,16838.3,0.172091,0.171781,0.605491,9,0.0145897,10,0.000104012,-3.21789,-0.272561,-0.216465,-5.13916,0.171781,
2,1,0,1,0,16839,0.179582,0.179289,0.574767,9,0.0150463,10,0.00010305,-3.24051,-0.508156,-0.116106,-2.61867,0.1792895,
2,1,0,1,0,16839.8,0.187074,0.186782,0.559112,9,0.0154849,10,0.000104432,-3.2525,-0.589308,-0.100117,-2.17931,0.186782,
2,1,0,1,0,16840.5,0.194564,0.194187,0.545672,9,0.0159117,10,0.000105962,-3.26307,-0.810176,-0.0728237,-1.54711,0.194187,
2,1,0,1,0,16841.3,0.202056,0.201739,0.536041,9,0.0163296,10,0.00010814,-3.2708,-0.949721,-0.0621235,-1.2931,0.201739,
2,1,0,1,0,16842,0.209546,0.209258,0.527412,9,0.0167413,10,0.000110365,-3.27785,-0.859281,-0.068662,-1.4131,0.209258,
2,1,0,1,0,16842.8,0.217038,0.216695,0.519268,9,0.0171471,10,0.000112523,-3.28461,-1.8313,-0.0322176,-0.6539,0.216695,
2,1,0,1,0,16843.5,0.224528,0.224225,0.51501,9,0.0175484,10,0.000115478,-3.28818,-3.20974,-0.0183816,-0.368965,0.224225,
2,1,0,1,0,16844.3,0.232019,0.231701,0.510571,9,0.0179452,10,0.0001183,-3.29194,-2.9218,-0.020193,-0.400049,0.231701,
2,1,0,1,0,16845,0.23951,0.239225,0.503514,9,0.0183386,10,0.000120453,-3.29799,-2.25889,-0.0261191,-0.514293,0.239225,
2,1,0,1,0,16845.8,0.247001,0.246686,0.501359,9,0.0187287,10,0.000123678,-3.29985,-0.950369,-0.0620812,-1.21159,0.246686,
2,1,0,1,0,16846.5,0.254492,0.254185,0.4941,9,0.0191155,10,0.000125593,-3.30618,-1.77845,-0.033175,-0.642955,0.254185,
2,1,0,1,0,16847.3,0.261983,0.261676,0.490776,9,0.0194991,10,0.000128424,-3.30912,-2.24783,-0.0262476,-0.504337,0.261676,
2,1,0,1,0,16848,0.269474,0.269196,0.486294,9,0.0198797,10,0.000130908,-3.3131,50.9091,0.00115893,0.0220143,0.269196,
2,1,0,1,0,16848.8,0.276965,0.276677,0.48231,9,0.0202571,10,0.000133444,-3.31667,-1.83863,-0.0320891,-0.606829,0.276677,
2,1,0,1,0,16849.5,0.284456,0.284121,0.479295,9,0.0206313,10,0.000136178,-3.3194,-1.688,-0.0349526,-0.651779,0.2841213,
2,1,0,1,0,16850.3,0.291947,0.291657,0.472949,9,0.0210019,10,0.000137939,-3.32519,-2.20278,-0.0267844,-0.495717,0.291657,
2,1,0,1,0,16851,0.299437,0.299113,0.46899,9,0.0213694,10,0.000140281,-3.32884,-0.00169811,-34.7445,-242.32,0.2991133,
2,0,0,1,0,16851.7,0.293745,0.293415,-0.0869208,9,0.0213715,10,-2.55038e-05,-4.06088,-0.0194745,-3.0296,9.73545,0.293415,
2,0,0,1,0,16852.4,0.286253,0.285957,-0.138733,9,0.021271,10,-3.96717e-05,-3.85782,-0.05785,-1.01988,5.56033,0.285957,
2,0,0,1,0,16853.2,0.278763,0.278482,-0.172305,9,0.0211392,10,-4.79839e-05,-3.7637,-0.103293,-0.57119,3.84415,0.278482,
2,0,0,1,0,16853.9,0.271272,0.270947,-0.201062,9,0.020985,10,-5.44771e-05,-3.69667,-0.158142,-0.373082,2.91249,0.270947,
2,0,0,1,0,16854.7,0.263781,0.263474,-0.221465,9,0.0208122,10,-5.83503e-05,-3.65469,-0.184893,-0.319103,2.77552,0.263474,
2,0,0,1,0,16855.4,0.25629,0.25598,-0.24324,9,0.0206237,10,-6.22647e-05,-3.61396,-0.256121,-0.23036,2.17035,0.25598,
2,0,0,1,0,16856.2,0.248799,0.248435,-0.259179,9,0.0204216,10,-6.43894e-05,-3.5864,-0.343388,-0.171817,1.74067,0.248435,
2,0,0,1,0,16856.9,0.241308,0.241024,-0.276706,9,0.0202068,10,-6.66928e-05,-3.55798,-0.394573,-0.149529,1.61468,0.241024,
2,0,0,1,0,16857.7,0.233817,0.233518,-0.290374,9,0.0199802,10,-6.78076e-05,-3.53704,-0.270982,-0.217727,2.47441,0.233518,
2,0,0,1,0,16858.4,0.226326,0.226004,-0.306066,9,0.0197422,10,-6.91721e-05,-3.51418,-0.362927,-0.162567,1.93813,0.226004,
2,0,0,1,0,16859.2,0.218835,0.218512,-0.322144,9,0.0194927,10,-7.03922e-05,-3.49195,-0.336876,-0.175139,2.19685,0.218512,
2,0,0,1,0,16859.9,0.211344,0.211033,-0.337364,9,0.0192322,10,-7.11949e-05,-3.4719,-0.453021,-0.130237,1.70844,0.211033,
2,0,0,1,0,16860.7,0.203854,0.203557,-0.352071,9,0.0189597,10,-7.16665e-05,-3.45337,-0.499928,-0.118017,1.6272,0.203557,
2,0,0,1,0,16861.4,0.196362,0.196061,-0.365612,9,0.0186754,10,-7.16822e-05,-3.43698,-0.321875,-0.183301,2.63911,0.1960609,
2,0,0,1,0,16862.2,0.188872,0.188553,-0.388697,9,0.0183773,10,-7.32899e-05,-3.41039,-0.240103,-0.245728,3.72884,0.188553,
2,0,0,1,0,16862.9,0.18138,0.181055,-0.411506,9,0.0180639,10,-7.45053e-05,-3.38562,-0.263691,-0.223747,3.5889,0.181055,
2,0,0,1,0,16863.7,0.17389,0.173602,-0.440273,9,0.0177317,10,-7.64322e-05,-3.35628,-0.211812,-0.278549,4.77585,0.173602,
2,0,0,1,0,16864.4,0.166398,0.16606,-0.475095,9,0.0173749,10,-7.88941e-05,-3.32322,-0.210965,-0.279667,5.22143,0.16606,
2,0,0,1,0,16865.2,0.158907,0.158571,-0.53074,9,0.0169836,10,-8.416e-05,-3.27512,-0.132226,-0.446207,9.30623,0.158571,
2,0,0,1,0,16865.9,0.151417,0.151101,-0.626034,9,0.016538,10,-9.45943e-05,-3.2034,-0.0928737,-0.635271,15.5294,0.151101,
2,0,0,1,0,16866.7,0.143925,0.143645,-0.776395,9,0.0160028,10,-0.000111526,-3.10992,-0.0699682,-0.84324,25.5748,0.143645,
2,0,0,1,0,16867.4,0.136435,0.136069,-0.988773,9,0.0153289,10,-0.000134542,-3.0049,-0.0785817,-0.750811,28.8548,0.136069,
2,0,0,1,0,16868.2,0.128943,0.128584,-1.1861,9,0.0144969,10,-0.000152514,-2.92588,-0.136243,-0.433051,19.9133,0.128584,
2,0,0,1,0,16868.9,0.121453,0.121109,-1.29056,9,0.0135488,10,-0.000156298,-2.88922,-0.419643,-0.140596,7.06019,0.121109,
2,0,0,1,0,16869.7,0.113962,0.113666,-1.3042,9,0.0125564,10,-0.000148244,-2.88465,0.85469,0.0690309,-3.51492,0.113666,
2,0,0,1,0,16870.4,0.106471,0.106164,-1.26715,9,0.0115752,10,-0.000134526,-2.89717,0.48213,0.122374,-6.06754,0.106164,
2,0,0,1,0,16871.2,0.0989799,0.0987007,-1.21467,9,0.0106301,10,-0.000119889,-2.91554,0.390471,0.1511,-7.14481,0.0987007,
2,0,0,1,0,16871.9,0.0914889,0.0911856,-1.16062,9,0.00972768,10,-0.000105832,-2.93531,0.436817,0.135068,-6.09929,0.0911856,
2,0,0,1,0,16872.7,0.083998,0.0837002,-1.11109,9,0.00886404,10,-9.29984e-05,-2.95425,0.354296,0.166527,-7.21051,0.08370024,
2,0,0,1,0,16873.4,0.076507,0.0761268,-1.07008,9,0.00803346,10,-8.14615e-05,-2.97059,0.486663,0.121234,-5.05862,0.0761268,
2,0,0,1,0,16874.2,0.0690161,0.0687071,-1.03415,9,0.00723138,10,-7.10538e-05,-2.98541,0.462365,0.127605,-5.15621,0.0687071,
2,0,0,1,0,16874.9,0.0615251,0.0612005,-0.998249,9,0.00645475,10,-6.10933e-05,-3.00076,0.489006,0.120653,-4.71256,0.0612005,
2,0,0,1,0,16875.7,0.0540342,0.0537236,-0.968694,9,0.00570362,10,-5.20417e-05,-3.01381,0.462404,0.127594,-4.80906,0.0537236,
2,0,0,1,0,16876.4,0.0465441,0.0462208,-0.93083,9,0.00497853,10,-4.30237e-05,-3.03113,0.469511,0.125663,-4.56433,0.0462208,
2,0,0,1,0,16877.2,0.0390523,0.0387464,-0.896457,9,0.00428072,10,-3.47345e-05,-3.04747,0.348379,0.169356,-5.90642,0.0387464,
2,0,0,1,0,16877.9,0.0315618,0.0312477,-0.857237,9,0.0036101,10,-2.67867e-05,-3.0669,0.415624,0.141955,-4.76414,0.0312477,
2,0,0,1,0,16878.7,0.0240704,0.0237788,-0.822978,9,0.00296569,10,-1.95694e-05,-3.08461,0.411358,0.143428,-4.62294,0.0237788,
2,0,0,1,0,16879.4,0.0165796,0.0162791,-0.798334,9,0.00234374,10,-1.29962e-05,-3.09782,0.761533,0.0774753,-2.4169,0.0162791,
2,0,0,1,0,16880.2,0.00908846,0.00879311,-0.78274,9,0.00173763,10,-6.88272e-06,-3.10638,2.1163,0.0278788,-0.851695,0.00879311,
2,0,0,1,0,16880.9,0.00159728,0.00123438,-0.78908,9,0.00113763,10,-9.74027e-07,-3.10288, , , ,0.00123438,
2,0,0,1,0,16881,0.000199195,-0.00016499,-0.779079,9,0.00102538,10,1.2854e-07,-3.10842, , , ,-0.00016499,