File: Figure_codes/Fig_3-5/rawdata_trumpetplot_data/after 10th/20221101_1-115_003_TrumpetPlot_ParaChange_from10_every3_08_CV_C01_16.csv
mode,ox/red,error,control changes,counter inc.,time/s,control/V,Ewe/V,<I>/mA,cycle number,(Q-Qo)/C,I Range,P/W,log(|I|),Tafel slope mV/dec,alpha_eff,dI/d(E-IR),E-IR/V,
2,0,0,0,0,32697.1,2.44065e-05,-0.000439847,-4.00336,17,0.0000000E+000,10,1.76087e-06,-2.39758, , , ,-0.000439847,
2,1,0,1,0,32697.2,0.0072942,0.00697728,1.21369,17,-5.13318e-05,10,8.46828e-06,-2.91589,0.00778219,7.58141,295.678,0.00697728,
2,1,0,1,0,32697.3,0.0147816,0.0144878,2.50829,17,0.000134001,10,3.63396e-05,-2.60062,0.0526252,1.12114,108.797,0.0144878,
2,1,0,1,0,32697.4,0.0222707,0.0219745,3.10189,17,0.000400642,10,6.81623e-05,-2.50837,0.118524,0.497789,60.1925,0.0219745,
2,1,0,1,0,32697.5,0.0297581,0.0294056,3.50912,17,0.000711783,10,0.000103188,-2.4548,0.166817,0.353681,48.3203,0.02940556,
2,1,0,1,0,32697.6,0.0372544,0.036915,3.85029,17,0.00105781,10,0.000142134,-2.41451,0.187975,0.313872,47.1764,0.036915,
2,1,0,1,0,32697.7,0.0447507,0.0444586,4.18111,17,0.00143567,10,0.000185887,-2.37871,0.234703,0.251381,41.0422,0.0444586,
2,1,0,1,0,32697.8,0.0522381,0.0518877,4.50559,17,0.00184358,10,0.000233785,-2.34625,0.251067,0.234997,41.31,0.0518877,
2,1,0,1,0,32697.9,0.0597273,0.0593716,4.81394,17,0.00228083,10,0.000285811,-2.3175,0.262002,0.225189,42.2633,0.05937162,
2,1,0,1,0,32697.9,0.0672147,0.0668862,5.0906,17,0.00274569,10,0.000340491,-2.29323,0.315425,0.187049,37.1574,0.0668862,
2,1,0,1,0,32698,0.0747038,0.0743807,5.35716,17,0.003236,10,0.000398469,-2.27107,0.402422,0.146612,30.6083,0.0743807,
2,1,0,1,0,32698.1,0.0822055,0.0818977,5.5775,17,0.00375011,10,0.000456785,-2.25356,0.420323,0.140368,30.5431,0.0818977,
2,1,0,1,0,32698.2,0.0896946,0.0893411,5.77537,17,0.00428288,10,0.000515978,-2.23842,0.493889,0.11946,26.9534,0.0893411,
2,1,0,1,0,32698.3,0.097182,0.0968966,6.01981,17,0.00483571,10,0.000583299,-2.22042,0.363856,0.162152,38.1141,0.0968966,
2,1,0,1,0,32698.4,0.104671,0.104386,6.37822,17,0.00541572,10,0.000665796,-2.1953,0.258091,0.228601,56.8168,0.104386,
2,1,0,1,0,32698.5,0.112159,0.11183,6.83927,17,0.00603453,10,0.000764838,-2.16499,0.236152,0.249839,66.7398,0.11183,
2,1,0,1,0,32698.6,0.119655,0.119324,7.35185,17,0.00670114,10,0.000877248,-2.1336,0.292648,0.201608,57.8067,0.119324,
2,1,0,1,0,32698.7,0.127149,0.126859,7.74911,17,0.0074108,10,0.000983044,-2.11075,0.379914,0.155298,46.9514,0.126859,
2,1,0,1,0,32698.8,0.134639,0.134303,8.01735,17,0.00815108,10,0.00107675,-2.09597,0.651471,0.0905642,28.3552,0.134303,
2,1,0,1,0,32698.9,0.142126,0.141811,8.1666,17,0.00891137,10,0.00115811,-2.08796,4.61069,0.0127964,4.07326,0.141811,
2,1,0,1,0,32699,0.149615,0.149271,7.98535,17,0.00967237,10,0.00119198,-2.09771,-0.276755,-0.213185,-66.1582,0.149271,
2,1,0,1,0,32699.1,0.157103,0.156818,7.14297,17,0.0103864,10,0.00112015,-2.14612,-0.110192,-0.535429,-148.8,0.156818,
2,1,0,1,0,32699.2,0.164606,0.164257,5.89632,17,0.0109998,10,0.000968512,-2.22942,-0.0830007,-0.710838,-163.852,0.164257,
2,1,0,1,0,32699.3,0.172095,0.171794,4.89223,17,0.0115028,10,0.000840458,-2.31049,-0.102121,-0.577747,-110.613,0.171794,
2,1,0,1,0,32699.3,0.179582,0.179266,4.25922,17,0.0119299,10,0.000763531,-2.37067,-0.153078,-0.385425,-64.3136,0.179266,
2,1,0,1,0,32699.4,0.18707,0.186816,3.88466,17,0.0123111,10,0.000725719,-2.41065,-0.219702,-0.268546,-40.7596,0.186816,
2,1,0,1,0,32699.5,0.194559,0.194255,3.65355,17,0.0126639,10,0.000709719,-2.43728,-0.337569,-0.174779,-24.9177,0.194255,
2,1,0,1,0,32699.6,0.202062,0.201705,3.4862,17,0.0129992,10,0.000703182,-2.45765,-0.510312,-0.115616,-15.729,0.201705,
2,1,0,1,0,32699.7,0.20955,0.209256,3.37893,17,0.0133216,10,0.00070706,-2.47122,-0.525933,-0.112181,-14.8164,0.2092558,
2,1,0,1,0,32699.8,0.217039,0.21672,3.30252,17,0.0136354,10,0.000715722,-2.48115,-0.659543,-0.0894559,-11.5332,0.21672,
2,1,0,1,0,32699.9,0.224526,0.224225,3.24519,17,0.0139427,10,0.000727653,-2.48876,-1.49055,-0.0395827,-5.00976,0.224225,
2,1,0,1,0,32700,0.232016,0.231677,3.19377,17,0.0142451,10,0.000739921,-2.4957,-1.57499,-0.0374604,-4.67411,0.231677,
2,1,0,1,0,32700.1,0.23951,0.239184,3.15996,17,0.0145441,10,0.000755811,-2.50032,-1.05504,-0.055922,-6.89947,0.239184,
2,1,0,1,0,32700.2,0.247006,0.246705,3.13508,17,0.0148398,10,0.00077344,-2.50375,-2.19374,-0.0268947,-3.28324,0.246705,
2,1,0,1,0,32700.3,0.254494,0.254184,3.1016,17,0.0151325,10,0.000788377,-2.50841,-2.05714,-0.0286806,-3.47284,0.254184,
2,1,0,1,0,32700.4,0.261983,0.261699,3.07762,17,0.0154228,10,0.000805411,-2.51179,-1.19055,-0.0495571,-5.94987,0.261699,
2,1,0,1,0,32700.5,0.26947,0.269142,3.05581,17,0.0157106,10,0.000822448,-2.51487,-5.54062,-0.0106486,-1.26771,0.269142,
2,1,0,1,0,32700.6,0.276959,0.276658,3.02265,17,0.0159963,10,0.000836241,-2.51961,270.628,0.000218011,0.0257499,0.276658,
2,1,0,1,0,32700.7,0.284461,0.284134,2.99906,17,0.0162802,10,0.000852133,-2.52302,-1.50458,-0.0392135,-4.59095,0.284134,
2,1,0,1,0,32700.8,0.29195,0.291609,2.9788,17,0.0165611,10,0.000868644,-2.52596,-1.55868,-0.0378526,-4.39469,0.291609,
2,1,0,1,0,32700.8,0.299438,0.299158,2.94414,17,0.0168397,10,0.000880765,-2.53104,-0.0263263,-2.2411,-234.266,0.299158,
2,0,0,1,0,32700.9,0.29424,0.29393,-0.496704,17,0.0169001,10,-0.000145996,-3.3039,-0.00270901,-21.7792,187.248,0.2939302,
2,0,0,1,0,32701,0.286753,0.286437,-1.19077,17,0.0168132,10,-0.000341081,-2.92417,-0.0510684,-1.15531,53.2008,0.286437,
2,0,0,1,0,32701.1,0.279264,0.278959,-1.46183,17,0.0166864,10,-0.000407789,-2.8351,-0.123738,-0.476815,27.2947,0.278959,
2,0,0,1,0,32701.2,0.271776,0.271452,-1.64662,17,0.0165393,10,-0.000446978,-2.78341,-0.170495,-0.346051,22.2121,0.2714515,
2,0,0,1,0,32701.3,0.26428,0.263984,-1.78553,17,0.0163773,10,-0.00047135,-2.74823,-0.21133,-0.279184,19.4329,0.263984,
2,0,0,1,0,32701.4,0.256786,0.256488,-1.90105,17,0.0162035,10,-0.000487595,-2.72101,-0.294392,-0.200413,14.8393,0.256488,
2,0,0,1,0,32701.5,0.249296,0.248982,-2.0007,17,0.0160198,10,-0.000498137,-2.69882,-0.479563,-0.123029,9.59492,0.248982,
2,0,0,1,0,32701.6,0.241809,0.241505,-2.08652,17,0.0158273,10,-0.000503905,-2.68058,-0.360288,-0.163758,13.3707,0.241505,
2,0,0,1,0,32701.7,0.23432,0.233981,-2.16879,17,0.0156266,10,-0.000507455,-2.66378,-0.416413,-0.141686,12.0383,0.233981,
2,0,0,1,0,32701.8,0.226833,0.226479,-2.25444,17,0.0154182,10,-0.000510584,-2.64696,-0.489063,-0.120639,10.6255,0.226479,
2,0,0,1,0,32701.9,0.219329,0.219001,-2.34496,17,0.0152018,10,-0.000513548,-2.62987,-0.441861,-0.133526,12.1686,0.219001,
2,0,0,1,0,32702,0.21184,0.211569,-2.41339,17,0.0149787,10,-0.000510599,-2.61737,-0.495368,-0.119103,11.1929,0.211569,
2,0,0,1,0,32702.1,0.204353,0.203988,-2.49476,17,0.0147481,10,-0.000508902,-2.60297,-0.831329,-0.0709707,6.91099,0.203988,
2,0,0,1,0,32702.1,0.196863,0.196558,-2.57331,17,0.01451,10,-0.000505804,-2.58951,-0.505338,-0.116754,11.7431,0.196558,
2,0,0,1,0,32702.2,0.189376,0.189086,-2.6605,17,0.0142638,10,-0.000503063,-2.57504,-0.447559,-0.131826,13.7213,0.189086,
2,0,0,1,0,32702.3,0.18188,0.181546,-2.76612,17,0.0140085,10,-0.000502177,-2.55813,-0.434653,-0.13574,14.6702,0.181546,
2,0,0,1,0,32702.4,0.174385,0.174032,-2.89043,17,0.0137427,10,-0.000503025,-2.53904,-0.36819,-0.160243,18.0665,0.174032,
2,0,0,1,0,32702.5,0.166896,0.16658,-3.04956,17,0.0134644,10,-0.000507997,-2.51576,-0.284145,-0.207641,24.6679,0.16658,
2,0,0,1,0,32702.6,0.159409,0.15904,-3.2544,17,0.0131688,10,-0.000517579,-2.48753,-0.236334,-0.249647,31.8059,0.1590398,
2,0,0,1,0,32702.7,0.151919,0.151559,-3.58564,17,0.0128488,10,-0.000543438,-2.44543,-0.159894,-0.368995,51.6644,0.151559,
2,0,0,1,0,32702.8,0.144425,0.144081,-4.09439,17,0.01249,10,-0.000589926,-2.38781,-0.104972,-0.562053,89.9945,0.144081,
2,0,0,1,0,32702.9,0.136929,0.136626,-4.87718,17,0.0120701,10,-0.000666347,-2.31183,-0.0939935,-0.627703,119.736,0.1366255,
2,0,0,1,0,32703,0.129441,0.129107,-5.86707,17,0.0115668,10,-0.000757479,-2.23158,-0.102038,-0.578213,132.169,0.1291068,
2,0,0,1,0,32703.1,0.121952,0.121635,-6.79765,17,0.0109722,10,-0.000826833,-2.16764,-0.135903,-0.434133,114.918,0.121635,
2,0,0,1,0,32703.2,0.114465,0.114136,-7.52812,17,0.010299,10,-0.00085923,-2.12331,-0.214092,-0.275583,80.9149,0.1141362,
2,0,0,1,0,32703.3,0.106976,0.106612,-8.02741,17,0.00956786,10,-0.000855822,-2.09542,-0.402894,-0.14644,45.8094,0.1066124,
2,0,0,1,0,32703.4,0.0994721,0.0991806,-8.22881,17,0.00880204,10,-0.000816138,-2.08466,-2.1442,-0.0275161,8.82467,0.0991806,
2,0,0,1,0,32703.5,0.0919847,0.0916684,-8.12523,17,0.00803334,10,-0.000744826,-2.09016,0.702671,0.0839654,-26.6266,0.09166839,
2,0,0,1,0,32703.5,0.0844973,0.0842001,-7.83352,17,0.00728429,10,-0.000659584,-2.10604,0.402307,0.146654,-44.8428,0.0842001,
2,0,0,1,0,32703.6,0.0770082,0.0766794,-7.52299,17,0.00656531,10,-0.000576859,-2.12361,0.455916,0.12941,-37.9896,0.0766794,
2,0,0,1,0,32703.7,0.0695208,0.0691753,-7.27977,17,0.00587216,10,-0.000503581,-2.13788,0.658063,0.089657,-25.5031,0.0691753,
2,0,0,1,0,32703.8,0.0620245,0.0617009,-7.10724,17,0.00519712,10,-0.000438523,-2.1483,0.621387,0.094949,-26.3254,0.0617009,
2,0,0,1,0,32703.9,0.0545282,0.0542003,-6.9332,17,0.00453852,10,-0.000375782,-2.15907,0.77934,0.0757051,-20.4888,0.0542003,
2,0,0,1,0,32704,0.0470408,0.0467065,-6.74629,17,0.00389713,10,-0.000315096,-2.17093,0.67302,0.0876646,-23.0815,0.0467065,
2,0,0,1,0,32704.1,0.0395517,0.0392512,-6.55094,17,0.00327363,10,-0.000257132,-2.1837,0.508764,0.115967,-29.6367,0.0392512,
2,0,0,1,0,32704.2,0.0320643,0.0317271,-6.32027,17,0.00267025,10,-0.000200524,-2.19926,0.415861,0.141874,-34.983,0.0317271,
2,0,0,1,0,32704.3,0.0245751,0.0242772,-6.05888,17,0.00208991,10,-0.000147093,-2.21761,0.425365,0.138705,-32.8124,0.0242772,
2,0,0,1,0,32704.4,0.0170735,0.0167374,-5.79494,17,0.00153272,10,-9.6992e-05,-2.23695,0.406227,0.145239,-32.9209,0.0167374,
2,0,0,1,0,32704.5,0.00958429,0.00925685,-5.59017,17,0.000999241,10,-5.17474e-05,-2.25257,0.506996,0.116372,-25.3606,0.00925685,
2,0,0,1,0,32704.6,0.0020969,0.00171293,-5.47177,17,0.000483536,10,-9.37275e-06,-2.26187,1.52296,0.0387404,-8.21399,0.00171293,
2,0,0,1,0,32704.6,0.000199195,-0.000199347,-5.41656,17,0.00035437,10,1.07978e-06,-2.26628, , , ,-0.000199347,