File: Figure_codes/Fig_3-5/rawdata_trumpetplot_data/after 10th/20221101_1-115_003_TrumpetPlot_ParaChange_from10_every3_14_CV_C01_28.csv
mode,ox/red,error,control changes,counter inc.,time/s,control/V,Ewe/V,<I>/mA,cycle number,(Q-Qo)/C,I Range,P/W,log(|I|),Tafel slope mV/dec,alpha_eff,dI/d(E-IR),E-IR/V,
2,1,0,1,0,56362.8,2.44065e-05,-0.000268062,29.2051,29,0.0000000E+000,10,-7.82878e-06,-1.53454, , , ,-0.000268062,
2,1,0,1,0,56362.8,0.0133084,0.0129478,32.7205,29,0.000409541,10,0.000423658,-1.48518,0.358925,0.16438,209.129,0.0129478,
2,1,0,1,0,56362.8,0.0273414,0.0269876,35.3386,29,0.000886794,10,0.000953702,-1.45175,0.475711,0.124025,170.561,0.0269876,
2,1,0,1,0,56362.8,0.0413245,0.0409171,37.5466,29,0.00139746,10,0.00153629,-1.42543,0.579619,0.101791,148.936,0.0409171,
2,1,0,1,0,56362.8,0.0553076,0.0549441,39.5095,29,0.00193728,10,0.00217081,-1.4033,0.667397,0.0884031,136.288,0.0549441,
2,1,0,1,0,56362.8,0.0693407,0.0689574,41.3508,29,0.00250378,10,0.00285145,-1.38352,0.753692,0.0782813,126.208,0.0689574,
2,1,0,1,0,56362.8,0.0833238,0.0829399,43.058,29,0.00309487,10,0.00357123,-1.36595,0.822693,0.0717157,120.462,0.0829399,
2,1,0,1,0,56362.9,0.0973069,0.0969288,44.7257,29,0.00370951,10,0.00433521,-1.34944,0.836734,0.0705122,123.148,0.0969288,
2,1,0,1,0,56362.9,0.11134,0.110929,46.4553,29,0.00434803,10,0.00515326,-1.33296,0.870356,0.0677883,122.864,0.110929,
2,1,0,1,0,56362.9,0.125323,0.124885,48.1661,29,0.0050105,10,0.00601524,-1.31726,0.886806,0.0665309,125.068,0.124885,
2,1,0,1,0,56362.9,0.139306,0.138862,49.9976,29,0.00569722,10,0.00694274,-1.30105,0.819798,0.071969,140.473,0.138862,
2,1,0,1,0,56362.9,0.153339,0.152909,51.9949,29,0.00641142,10,0.00795048,-1.28404,0.829358,0.0711394,144.432,0.152909,
2,1,0,1,0,56362.9,0.167322,0.166934,54.0873,29,0.00715422,10,0.00902899,-1.2669,0.842858,0.0699999,147.701,0.166934,
2,1,0,1,0,56362.9,0.181305,0.180894,56.1108,29,0.00792594,10,0.0101501,-1.25095,0.927936,0.063582,139.151,0.1808939,
2,1,0,1,0,56363,0.195338,0.19497,57.8981,29,0.0087247,10,0.0112884,-1.23734,1.20854,0.0488193,110.172,0.19497,
2,1,0,1,0,56363,0.209322,0.208994,59.1836,29,0.00954509,10,0.012369,-1.2278,2.02405,0.0291494,67.188,0.208994,
2,1,0,1,0,56363,0.223305,0.222927,59.7673,29,0.0103786,10,0.0133238,-1.22354,7.51966,0.0078461,18.2688,0.222927,
2,1,0,1,0,56363,0.237338,0.23697,59.6469,29,0.0112155,10,0.0141346,-1.22441,-3.68356,-0.0160171,-37.2178,0.23697,
2,1,0,1,0,56363,0.251321,0.250981,58.7733,29,0.0120453,10,0.014751,-1.23082,-1.52616,-0.0386592,-88.4965,0.250981,
2,1,0,1,0,56363,0.265304,0.264964,57.1893,29,0.0128576,10,0.0151531,-1.24268,-0.983092,-0.0600147,-133.715,0.264964,
2,1,0,1,0,56363,0.279337,0.279008,55.0106,29,0.0136435,10,0.0153484,-1.25955,-0.721509,-0.0817731,-175.317,0.279008,
2,1,0,1,0,56363.1,0.29332,0.292934,52.3821,29,0.0143953,10,0.0153445,-1.28082,-0.619375,-0.0952573,-195.194,0.292934,
2,1,0,1,0,56363.1,0.298714,0.298519,48.6087,29,0.0148056,10,0.0145106,-1.31329,0.0648124,0.910319,1579.65,0.298519,
2,1,0,1,0,56363.1,0.28473,0.284461,32.4497,29,0.0153604,10,0.00923066,-1.48879,0.0820461,0.719108,915.429,0.284461,
2,1,0,1,0,56363.1,0.270747,0.270443,21.5147,29,0.0157336,10,0.0058185,-1.66726,0.0718959,0.820631,686.33,0.270443,
2,1,0,1,0,56363.1,0.256714,0.256415,13.0189,29,0.015972,10,0.00333823,-1.88543,0.0547153,1.07831,538.92,0.256415,
2,1,0,1,0,56363.1,0.242731,0.242436,6.23304,29,0.0161045,10,0.00151111,-2.2053,0.0302805,1.94845,437.233,0.242436,
2,1,0,1,0,56363.1,0.228748,0.228402,0.695858,29,0.0161513,10,0.000158935,-3.15748,0.0614054,0.960828,361.668,0.228402,
2,0,0,1,0,56363.1,0.214715,0.214375,-3.91262,29,0.0161271,10,-0.000838768,-2.40753,-0.0246991,-2.38875,301.169,0.214375,
2,0,0,1,0,56363.2,0.200732,0.200365,-7.79697,29,0.016044,10,-0.00156224,-2.10807,-0.0675236,-0.873769,256.597,0.2003651,
2,0,0,1,0,56363.2,0.186735,0.186388,-11.1635,29,0.0159105,10,-0.00208073,-1.9522,-0.112165,-0.526009,225.681,0.186388,
2,0,0,1,0,56363.2,0.172716,0.172395,-14.1384,29,0.0157327,10,-0.00243739,-1.8496,-0.159291,-0.37039,203.015,0.172395,
2,0,0,1,0,56363.2,0.158733,0.158386,-16.8875,29,0.0155151,10,-0.00267474,-1.77243,-0.19824,-0.297619,195.741,0.158386,
2,0,0,1,0,56363.2,0.144719,0.144388,-19.7003,29,0.015259,10,-0.00284449,-1.70553,-0.219137,-0.269238,206.826,0.144388,
2,0,0,1,0,56363.2,0.130717,0.130369,-22.7705,29,0.0149619,10,-0.00296856,-1.64263,-0.219161,-0.269208,239.687,0.130369,
2,0,0,1,0,56363.2,0.116733,0.116396,-26.43,29,0.0146179,10,-0.00307634,-1.5779,-0.213953,-0.275761,284.852,0.116396,
2,0,0,1,0,56363.3,0.102703,0.102353,-30.7033,29,0.0142183,10,-0.00314257,-1.51281,-0.22711,-0.259786,310.382,0.102353,
2,0,0,1,0,56363.3,0.0887172,0.0884042,-35.0005,29,0.0137579,10,-0.00309419,-1.45593,-0.266404,-0.221468,301.758,0.0884042,
2,0,0,1,0,56363.3,0.0747341,0.0743962,-39.0827,29,0.0132384,10,-0.0029076,-1.40802,-0.325577,-0.181217,275.605,0.0743962,
2,0,0,1,0,56363.3,0.0607011,0.0604052,-42.7025,29,0.0126649,10,-0.00257945,-1.36955,-0.420564,-0.140288,232.831,0.0604052,
2,0,0,1,0,56363.3,0.046718,0.0464025,-45.6361,29,0.0120459,10,-0.00211763,-1.34069,-0.543114,-0.108633,192.934,0.0464025,
2,0,0,1,0,56363.3,0.0327349,0.03242,-48.0384,29,0.0113894,10,-0.00155741,-1.31841,-0.718416,-0.0821251,153.672,0.03242,
2,0,0,1,0,56363.3,0.0187018,0.0184216,-49.9997,29,0.0107027,10,-0.000921074,-1.30103,-0.912609,-0.0646498,125.938,0.0184216,
2,0,0,1,0,56363.4,0.00471873,0.00437334,-51.5273,29,0.0099913,10,-0.000225346,-1.28796,-1.27911,-0.0461257,92.6249,0.00437334,
2,0,0,1,0,56363.4,-0.00926438,-0.00964524,-52.6012,29,0.00926168,10,0.000507351,-1.279,-2.03666,-0.028969,59.3844,-0.00964524,
2,0,0,1,0,56363.4,-0.0232974,-0.0236925,-53.2501,29,0.0085203,10,0.00126163,-1.27368,-3.93344,-0.0149996,31.1215,-0.0236925,
2,0,0,1,0,56363.4,-0.0372805,-0.0376389,-53.4566,29,0.00777292,10,0.00201205,-1.272,-52.9979,-0.00111325,2.32012,-0.0376389,
2,0,0,1,0,56363.4,-0.0512637,-0.0517084,-53.3582,29,0.00702504,10,0.00275907,-1.2728,8.44507,0.00698632,-14.5373,-0.0517084,
2,0,0,1,0,56363.4,-0.0652967,-0.0656496,-53.0984,29,0.00627985,10,0.00348589,-1.27492,5.48414,0.0107583,-22.282,-0.0656496,
2,0,0,1,0,56363.4,-0.0792798,-0.079683,-52.7192,29,0.00553905,10,0.00420082,-1.27803,4.44467,0.0132743,-27.3164,-0.079683,
2,0,0,1,0,56363.5,-0.0932629,-0.0936263,-52.3686,29,0.00480353,10,0.00490308,-1.28093,5.26393,0.0112084,-22.911,-0.0936263,
2,0,0,1,0,56363.5,-0.107296,-0.107683,-52.121,29,0.00407236,10,0.00561255,-1.28299,8.79187,0.00671074,-13.6495,-0.107683,
2,0,0,1,0,56363.5,-0.121279,-0.121681,-51.9322,29,0.00334411,10,0.00631919,-1.28456,14.2183,0.00414957,-8.41505,-0.121681,
2,0,0,1,0,56363.5,-0.135262,-0.135618,-51.9009,29,0.00261746,10,0.00703872,-1.28482,-74.2757,-0.000794337,1.60951,-0.1356184,
2,0,0,1,0,56363.5,-0.149295,-0.149708,-52.0419,29,0.00189017,10,0.00779108,-1.28365,-8.35716,-0.00705982,14.3362,-0.149708,
2,0,0,1,0,56363.5,-0.163278,-0.163646,-52.2491,29,0.00116022,10,0.00855036,-1.28192,-6.13087,-0.00962344,19.6333,-0.163646,
2,0,0,1,0,56363.5,-0.177261,-0.177611,-52.5689,29,0.000426475,10,0.00933679,-1.27927,-5.18552,-0.0113778,23.3425,-0.177611,
2,0,0,1,0,56363.5,-0.191295,-0.191658,-52.9504,29,-0.000312048,10,0.0101484,-1.27613,-4.62965,-0.0127439,26.3198,-0.191658,
2,0,0,0,1,56363.6,-0.199984,-0.200666,-52.829,29,-0.000805323,10,0.010601,-1.27713,-0.0450957,-1.30833,2419.14,-0.200666,
2,0,0,1,1,56363.6,-0.186686,-0.187156,-36.1823,29,-0.00136892,10,0.00677175,-1.4415,-0.0924691,-0.638051,912.104,-0.1871563,
2,0,0,1,1,56363.6,-0.172667,-0.173085,-25.7245,29,-0.00179723,10,0.00445251,-1.58965,-0.0914903,-0.644877,647.644,-0.173085,
2,0,0,1,1,56363.6,-0.158684,-0.15916,-17.6049,29,-0.00209786,10,0.002802,-1.75437,-0.0759455,-0.776873,530.094,-0.15916,
2,0,0,1,1,56363.6,-0.14467,-0.145105,-10.7782,29,-0.00229486,10,0.00156396,-1.96746,-0.0531137,-1.11082,455.252,-0.145105,
2,0,0,1,1,56363.6,-0.130668,-0.131146,-4.81963,29,-0.0024025,10,0.000632074,-2.31699,-0.0236392,-2.49585,401.069,-0.131146,
2,1,0,1,1,56363.6,-0.116685,-0.117178,0.513105,29,-0.00243157,10,-6.01245e-05,-3.28979,0.124877,0.472466,364.176,-0.117178,
2,1,0,1,1,56363.7,-0.102654,-0.103134,5.40875,29,-0.00238945,10,-0.000557825,-2.2669,0.0333303,1.77016,334.396,-0.103134,
2,1,0,1,1,56363.7,-0.0886685,-0.0892055,9.88171,29,-0.00228162,10,-0.000881503,-2.00517,0.0718045,0.821675,308.707,-0.0892055,
2,1,0,1,1,56363.7,-0.0746854,-0.0751582,14.0635,29,-0.00211319,10,-0.00105699,-1.85191,0.111716,0.528127,286.151,-0.0751582,
2,1,0,1,1,56363.7,-0.0606523,-0.0611481,17.99,29,-0.00188839,10,-0.00110005,-1.74497,0.153911,0.383337,266.531,-0.0611481,
2,1,0,1,1,56363.7,-0.0466692,-0.0470829,21.5445,29,-0.00161107,10,-0.00101438,-1.66666,0.200923,0.293645,245.71,-0.0470829,
2,1,0,1,1,56363.7,-0.0326861,-0.033128,24.8447,29,-0.00128573,10,-0.000823055,-1.60477,0.251924,0.234197,226.255,-0.033128,
2,1,0,1,1,56363.7,-0.018653,-0.0191019,27.9191,29,-0.000916,10,-0.000533309,-1.5541,0.307397,0.191934,208.302,-0.0191019,
2,1,0,1,1,56363.8,-0.00466992,-0.00508655,30.6621,29,-0.000505408,10,-0.000155964,-1.5134, , , ,-0.005086551,
2,1,0,0,1,56363.8,-0.000175352,-0.000611633,31.5012,29,-0.0003655,10,-1.92672e-05,-1.50167, , , ,-0.000611633,