File: Figure_codes/Fig_3-5/rawdata_trumpetplot_data/after 10th/20221101_1-115_003_TrumpetPlot_ParaChange_from10_every3_02_CV_C01_34.csv
mode,ox/red,error,control changes,counter inc.,time/s,control/V,Ewe/V,<I>/mA,cycle number,(Q-Qo)/C,I Range,P/W,log(|I|),Tafel slope mV/dec,alpha_eff,dI/d(E-IR),E-IR/V,
2,0,0,1,0,67324.5,2.44065e-05,-0.000363498,-0.398965,35,0.0000000E+000,10,1.45023e-07,-3.39907, , , ,-0.000363498,
2,0,0,1,0,67331.7,0.00729061,0.00699251,-0.099477,35,-0.00100657,10,-6.95594e-07,-4.00228,-0.0302251,-1.95202,7.64825,0.00699251,
2,0,0,1,0,67339.2,0.0147815,0.0144461,-0.0624856,35,-0.00153054,10,-9.02674e-07,-4.20422,-0.0393378,-1.49983,3.70266,0.0144461,
2,0,0,1,0,67346.7,0.0222725,0.0219814,-0.0407926,35,-0.00184647,10,-8.96676e-07,-4.38942,-0.0382426,-1.54278,2.45855,0.0219814,
2,0,0,1,0,67354.2,0.0297635,0.0294626,-0.025267,35,-0.0020255,10,-7.44431e-07,-4.59745,-0.0322812,-1.82769,1.79607,0.0294626,
2,0,0,1,0,67361.7,0.0372544,0.0369044,-0.0126381,35,-0.00209892,10,-4.66403e-07,-4.89832,-0.0162407,-3.63284,1.72991,0.0369044,
2,0,0,1,0,67369.2,0.0447454,0.0444355,-0.00119128,35,-0.00208133,10,-5.2935e-08,-5.92399,-0.0118305,-4.98712,1.54097,0.0444355,
2,0,0,1,0,67376.7,0.0522363,0.0518965,0.00879614,35,-0.00198041,10,4.56489e-07,-5.05571,0.0131902,4.473,1.53545,0.0518965,
2,1,0,1,0,67384.2,0.0597273,0.0594064,0.018466,35,-0.00180509,10,1.097e-06,-4.73363,0.0370049,1.59438,1.12184,0.0594064,
2,1,0,1,0,67391.7,0.0672183,0.0668897,0.0266246,35,-0.0015656,10,1.78091e-06,-4.57472,0.059064,0.998917,1.01619,0.0668897,
2,1,0,1,0,67399.1,0.0747092,0.0743909,0.0340706,35,-0.00126603,10,2.53455e-06,-4.46762,0.0799987,0.737512,0.97889,0.0743909,
2,1,0,1,0,67406.6,0.0822001,0.0818296,0.040313,35,-0.000913739,10,3.2988e-06,-4.39455,0.0781275,0.755175,1.20664,0.0818296,
2,1,0,1,0,67414.1,0.0896911,0.089383,0.0493479,35,-0.000502498,10,4.41086e-06,-4.30673,0.0865976,0.681312,1.31902,0.089383,
2,1,0,1,0,67421.6,0.0971821,0.0968175,0.0587645,35,-2.51276e-05,10,5.68943e-06,-4.23089,0.086094,0.685297,1.55467,0.0968175,
2,1,0,1,0,67429.1,0.104673,0.104336,0.0688955,35,0.000525196,10,7.18827e-06,-4.16181,0.122766,0.480589,1.27478,0.104336,
2,1,0,1,0,67436.6,0.112164,0.111866,0.0768566,35,0.00114657,10,8.59761e-06,-4.11432,0.185923,0.317336,0.952762,0.111866,
2,1,0,1,0,67444.1,0.119655,0.119371,0.0846135,35,0.00183049,10,1.01004e-05,-4.07256,0.265468,0.222249,0.733285,0.119371,
2,1,0,1,0,67451.6,0.127146,0.126833,0.0896288,35,0.00256193,10,1.13679e-05,-4.04755,0.423293,0.139383,0.488909,0.126833,
2,1,0,1,0,67459.1,0.134637,0.134307,0.0870222,35,0.00331179,10,1.16877e-05,-4.06037,-0.161568,-0.365171,-1.24518,0.134307,
2,1,0,1,0,67466.6,0.142128,0.141814,0.0731558,35,0.00399035,10,1.03745e-05,-4.13575,-0.0782618,-0.75388,-2.13787,0.141814,
2,1,0,1,0,67474.1,0.149619,0.149291,0.0576905,35,0.00454931,10,8.61265e-06,-4.2389,-0.0953112,-0.619025,-1.41309,0.149291,
2,1,0,1,0,67481.5,0.15711,0.15675,0.0517678,35,0.00502569,10,8.11458e-06,-4.28594,-0.26555,-0.222181,-0.452808,0.1567495,
2,1,0,1,0,67489,0.164601,0.164261,0.0499449,35,0.00547496,10,8.20402e-06,-4.30151,-0.793162,-0.0743858,-0.145318,0.164261,
2,1,0,1,0,67496.5,0.172091,0.171775,0.050399,35,0.00591634,10,8.6573e-06,-4.29758,1.03258,0.0571382,0.11195,0.171775,
2,1,0,1,0,67504,0.179582,0.179237,0.0510322,35,0.00636234,10,9.14688e-06,-4.29216,9.32267,0.00632866,0.0126106,0.1792375,
2,1,0,1,0,67511.5,0.187073,0.186803,0.0518902,35,0.0068103,10,9.69322e-06,-4.28491,0.760316,0.0775994,0.155427,0.186803,
2,1,0,1,0,67519,0.194564,0.194233,0.0527913,35,0.00726542,10,1.02538e-05,-4.27744,53.4314,0.00110422,0.00226548,0.194233,
2,1,0,1,0,67526.5,0.202055,0.201734,0.0530206,35,0.00772371,10,1.06961e-05,-4.27556,0.794349,0.0742747,0.15475,0.2017341,
2,1,0,1,0,67534,0.209546,0.209239,0.0539798,35,0.0081878,10,1.12947e-05,-4.26777,0.637823,0.0925022,0.1946,0.209239,
2,1,0,1,0,67541.5,0.217037,0.216713,0.0545575,35,0.00865594,10,1.18233e-05,-4.26315,0.831614,0.0709464,0.151824,0.216713,
2,1,0,1,0,67549,0.224528,0.22422,0.0558604,35,0.00913194,10,1.2525e-05,-4.2529,0.666155,0.088568,0.193426,0.22422,
2,1,0,1,0,67556.5,0.232019,0.2317,0.0570253,35,0.00961538,10,1.32128e-05,-4.24393,0.498333,0.118395,0.263762,0.2317,
2,1,0,1,0,67563.9,0.23951,0.239158,0.0583349,35,0.0101087,10,1.39513e-05,-4.23407,4.33364,0.0136144,0.0307361,0.239158,
2,1,0,1,0,67571.4,0.247001,0.246704,0.0592395,35,0.0106077,10,1.46146e-05,-4.22739,0.75717,0.0779217,0.179542,0.246704,
2,1,0,1,0,67578.9,0.254492,0.254206,0.0603178,35,0.0111152,10,1.53331e-05,-4.21955,-13.4157,-0.00439782,-0.0103881,0.254206,
2,1,0,1,0,67586.4,0.261983,0.261663,0.0611687,35,0.011628,10,1.60056e-05,-4.21347,0.657309,0.08976,0.21429,0.2616629,
2,1,0,1,0,67593.9,0.269474,0.269171,0.0618557,35,0.0121477,10,1.66497e-05,-4.20862,1.45575,0.0405289,0.0978831,0.269171,
2,1,0,1,0,67601.4,0.276965,0.276671,0.0629081,35,0.0126719,10,1.74049e-05,-4.20129,0.745454,0.0791464,0.195106,0.2766709,
2,1,0,1,0,67608.9,0.284456,0.284167,0.0641441,35,0.0132035,10,1.82276e-05,-4.19284,1521.6,3.87749e-05,9.68394e-05,0.284167,
2,1,0,1,0,67616.4,0.291947,0.291654,0.0649386,35,0.0137413,10,1.89396e-05,-4.1875,2.29444,0.0257144,0.0650699,0.291654,
2,1,0,1,0,67623.9,0.299438,0.299166,0.0650331,35,0.0142842,10,1.94557e-05,-4.18687,-0.0042579,-13.8566,-22.8358,0.299166,
2,1,0,1,0,67630.7,0.293745,0.293418,0.00814375,35,0.0143838,10,2.38952e-06,-5.08918,0.0118102,4.99569,1.61103,0.2934179,
2,0,0,1,0,67638.2,0.286254,0.285945,-0.000482016,35,0.0143563,10,-1.3783e-07,-6.31694,-0.0172732,-3.4157,0.827449,0.285945,
2,1,0,1,0,67645.7,0.278763,0.27847,-0.00645124,35,0.014276,10,-1.79648e-06,-5.19036,-0.0191478,-3.0813,0.732836,0.27847,
2,0,0,1,0,67653.2,0.271272,0.270963,-0.011326,35,0.0141538,10,-3.06892e-06,-4.94592,-0.0652961,-0.903576,0.394196,0.270963,
2,0,0,1,0,67660.7,0.263781,0.263502,-0.0153366,35,0.0139989,10,-4.04121e-06,-4.81427,-0.0563849,-1.04638,0.613577,0.263502,
2,0,0,1,0,67668.2,0.25629,0.255935,-0.0187813,35,0.0138136,10,-4.80678e-06,-4.72627,-0.13057,-0.451867,0.326438,0.255935,
2,0,0,1,0,67675.7,0.248799,0.248525,-0.0215498,35,0.0136044,10,-5.35566e-06,-4.66656,-0.11539,-0.511307,0.437552,0.248525,
2,0,0,1,0,67683.2,0.241308,0.241019,-0.024896,35,0.0133725,10,-6.00042e-06,-4.60387,-0.123672,-0.47707,0.455122,0.241019,
2,0,0,1,0,67690.6,0.233817,0.233521,-0.0276022,35,0.0131187,10,-6.44569e-06,-4.55906,-0.138488,-0.42603,0.45837,0.233521,
2,0,0,1,0,67698.1,0.226326,0.226025,-0.0305405,35,0.012841,10,-6.9029e-06,-4.51512,-0.149719,-0.394071,0.469343,0.226025,
2,0,0,1,0,67705.6,0.218835,0.218519,-0.0336389,35,0.0125409,10,-7.35076e-06,-4.47316,-0.169253,-0.348591,0.454138,0.218519,
2,0,0,1,0,67713.1,0.211344,0.211017,-0.0360987,35,0.0122205,10,-7.61744e-06,-4.44251,-0.220335,-0.267774,0.376806,0.211017,
2,0,0,1,0,67720.6,0.203853,0.203488,-0.0382865,35,0.0118783,10,-7.79085e-06,-4.41695,-0.22635,-0.260658,0.3904,0.203488,
2,0,0,1,0,67728.1,0.196362,0.196014,-0.0414219,35,0.011516,10,-8.11928e-06,-4.38277,-0.343486,-0.171768,0.27496,0.196014,
2,0,0,1,0,67735.6,0.188871,0.188516,-0.0442851,35,0.0111305,10,-8.34846e-06,-4.35374,-0.189668,-0.31107,0.538181,0.188516,
2,0,0,1,0,67743.1,0.18138,0.181111,-0.0476463,35,0.0107203,10,-8.62929e-06,-4.32197,-0.297533,-0.198297,0.368559,0.181111,
2,0,0,1,0,67750.6,0.173889,0.173541,-0.051553,35,0.0102841,10,-8.94657e-06,-4.28775,-0.207418,-0.284449,0.57041,0.173541,
2,0,0,1,0,67758.1,0.166398,0.166087,-0.0556133,35,0.00981596,10,-9.23667e-06,-4.25482,-0.218257,-0.270323,0.59192,0.1660874,
2,0,0,1,0,67765.6,0.158907,0.158568,-0.0607556,35,0.0093096,10,-9.63389e-06,-4.21641,-0.160279,-0.368109,0.882746,0.158568,
2,0,0,1,0,67773,0.151416,0.151113,-0.0690913,35,0.00875275,10,-1.04406e-05,-4.16058,-0.138927,-0.424684,1.14277,0.151113,
2,0,0,1,0,67780.5,0.143926,0.143616,-0.0802385,35,0.0081227,10,-1.15236e-05,-4.09562,-0.0846899,-0.696659,2.20116,0.143616,
2,0,0,1,0,67788,0.136435,0.13614,-0.0989312,35,0.00737833,10,-1.34685e-05,-4.00467,-0.0815129,-0.723811,2.78483,0.13614,
2,0,0,1,0,67795.5,0.128944,0.128673,-0.118685,35,0.00648345,10,-1.52716e-05,-3.9256,-0.118837,-0.496479,2.2917,0.128673,
2,0,0,1,0,67803,0.121453,0.121134,-0.131058,35,0.00546262,10,-1.58755e-05,-3.88254,-0.38038,-0.155108,0.792446,0.121134,
2,0,0,1,0,67810.5,0.113962,0.113627,-0.134161,35,0.004384,10,-1.52443e-05,-3.87237,-3.09398,-0.0190693,0.0999521,0.113627,
2,0,0,1,0,67818,0.106471,0.106183,-0.134971,35,0.00329368,10,-1.43316e-05,-3.86976,-3.77409,-0.0156329,0.0828458,0.106183,
2,0,0,1,0,67825.5,0.0989798,0.0986275,-0.13449,35,0.00220274,10,-1.32644e-05,-3.87131,-11.8117,-0.00499505,0.0263229,0.0986275,
2,0,0,1,0,67833,0.0914889,0.0910966,-0.132346,35,0.00112282,10,-1.20563e-05,-3.87829,0.551228,0.107034,-0.55155,0.0910966,
2,0,0,1,0,67840.5,0.083998,0.0836663,-0.128239,35,7.04625e-05,10,-1.07293e-05,-3.89198,0.399397,0.147723,-0.739124,0.0836663,
2,0,0,1,0,67848,0.076507,0.0761597,-0.124832,35,-0.000953793,10,-9.50713e-06,-3.90368,-0.163611,-0.360612,1.81552,0.0761597,
2,0,0,1,0,67855.4,0.069016,0.0686976,-0.12131,35,-0.0019661,10,-8.33372e-06,-3.9161,0.684936,0.0861394,-0.408771,0.0686976,
2,0,0,1,0,67862.9,0.0615251,0.0611963,-0.118209,35,-0.00294427,10,-7.23395e-06,-3.92735,0.515394,0.114475,-0.527042,0.0611963,
2,0,0,1,0,67870.4,0.0540342,0.053712,-0.115139,35,-0.00389582,10,-6.18434e-06,-3.93878,0.595099,0.0991432,-0.44354,0.053712,
2,0,0,1,0,67877.9,0.0465432,0.0461608,-0.112369,35,-0.00482491,10,-5.18705e-06,-3.94935,0.741469,0.0795718,-0.3481,0.0461608,
2,0,0,1,0,67885.4,0.0390522,0.0387061,-0.109899,35,-0.00573446,10,-4.25375e-06,-3.95901,0.615261,0.0958943,-0.40955,0.0387061,
2,0,0,1,0,67892.9,0.0315613,0.0311709,-0.107146,35,-0.00662538,10,-3.33984e-06,-3.97002,2.52856,0.0233335,-0.0977121,0.0311709,
2,0,0,1,0,67900.4,0.0240703,0.0237427,-0.10656,35,-0.00750324,10,-2.53002e-06,-3.97241,2.10841,0.0279832,-0.116821,0.0237427,
2,0,0,1,0,67907.9,0.0165794,0.0162617,-0.106162,35,-0.00837361,10,-1.72637e-06,-3.97403,-5.02482,-0.0117417,0.048535,0.0162617,
2,0,0,1,0,67915.4,0.00908843,0.00875807,-0.106511,35,-0.00924537,10,-9.32831e-07,-3.97261,-0.916938,-0.0643446,0.269401,0.00875807,
2,0,0,1,0,67922.9,0.00159744,0.00117405,-0.111273,35,-0.0101355,10,-1.30639e-07,-3.95361, , , ,0.00117405,
2,0,0,1,0,67924.3,0.000199235,-0.000206979,-0.111292,35,-0.0103046,10,2.30352e-08,-3.95353, , , ,-0.000206979,