File: Figure_codes/Fig_3-5/rawdata_trumpetplot_data/after 10th/20221101_1-115_003_TrumpetPlot_ParaChange_from10_every3_06_CV_C01_7.csv
mode,ox/red,error,control changes,counter inc.,time/s,control/V,Ewe/V,<I>/mA,cycle number,(Q-Qo)/C,I Range,P/W,log(|I|),Tafel slope mV/dec,alpha_eff,dI/d(E-IR),E-IR/V,
2,0,0,0,0,14940.9,2.44065e-05,-0.000344411,-1.4058,8,0.0000000E+000,10,4.84174e-07,-2.85208, , , ,-0.000344411,
2,1,0,1,0,14941.1,0.00729063,0.00699552,1.35985,8,0.000124908,10,9.51285e-06,-2.86651,0.0422074,1.39786,72.171,0.00699552,
2,1,0,1,0,14941.3,0.014778,0.0144754,1.6678,8,0.00041574,10,2.4142e-05,-2.77786,0.129555,0.455405,29.6153,0.0144754,
2,1,0,1,0,14941.5,0.0222743,0.0219492,1.86892,8,0.000751464,10,4.10214e-05,-2.72841,0.167009,0.353274,25.8048,0.0219492,
2,1,0,1,0,14941.7,0.0297626,0.0294717,2.05448,8,0.00112233,10,6.05489e-05,-2.6873,0.207777,0.283959,22.711,0.0294717,
2,1,0,1,0,14941.9,0.0372544,0.0369127,2.23819,8,0.00152776,10,8.26177e-05,-2.6501,0.21676,0.27219,23.8082,0.0369127,
2,1,0,1,0,14942,0.0447472,0.0444465,2.42123,8,0.00196782,10,0.000107615,-2.61596,0.241503,0.244303,23.1266,0.0444465,
2,1,0,1,0,14942.2,0.0522345,0.0519042,2.59763,8,0.00244093,10,0.000134828,-2.58542,0.255888,0.23057,23.3204,0.0519042,
2,1,0,1,0,14942.4,0.0597309,0.0593873,2.75705,8,0.0029462,10,0.000163734,-2.55956,0.285222,0.206857,22.285,0.0593873,
2,1,0,1,0,14942.6,0.0672182,0.066892,2.90888,8,0.00347992,10,0.000194581,-2.53627,0.352584,0.167336,18.9666,0.066892,
2,1,0,1,0,14942.8,0.0747074,0.0743945,3.04012,8,0.00403971,10,0.000226168,-2.51711,0.477233,0.123629,14.6302,0.0743945,
2,1,0,1,0,14943,0.0822019,0.0819137,3.14886,8,0.0046233,10,0.000257935,-2.50185,0.52968,0.111388,13.7175,0.0819137,
2,1,0,1,0,14943.2,0.0896911,0.0893587,3.27885,8,0.00522787,10,0.000292993,-2.48428,0.396027,0.14898,19.0902,0.0893587,
2,1,0,1,0,14943.4,0.097182,0.0968286,3.46291,8,0.00586123,10,0.000335309,-2.46056,0.252776,0.233408,31.548,0.0968286,
2,1,0,1,0,14943.5,0.104675,0.104392,3.74485,8,0.00653751,10,0.000390933,-2.42657,0.197995,0.297987,43.5674,0.104392,
2,1,0,1,0,14943.7,0.112162,0.111854,4.06805,8,0.00727171,10,0.000455029,-2.39061,0.240031,0.245801,38.9137,0.111854,
2,1,0,1,0,14943.9,0.119655,0.119338,4.32672,8,0.00806183,10,0.000516341,-2.36384,0.388978,0.15168,25.5491,0.119338,
2,1,0,1,0,14944.1,0.127146,0.12684,4.48485,8,0.00889099,10,0.00056886,-2.34825,0.525919,0.112185,19.6777,0.12684,
2,1,0,1,0,14944.3,0.134635,0.134311,4.63169,8,0.00974873,10,0.000622088,-2.33426,0.840915,0.0701617,12.6681,0.134311,
2,1,0,1,0,14944.5,0.14213,0.141851,4.61018,8,0.0106233,10,0.00065396,-2.33628,-0.411327,-0.143438,-25.7335,0.1418515,
2,1,0,1,0,14944.7,0.149619,0.149279,4.13174,8,0.0114538,10,0.00061678,-2.38387,-0.0981976,-0.600829,-96.5722,0.149279,
2,1,0,1,0,14944.9,0.157106,0.156777,3.32695,8,0.0121554,10,0.00052159,-2.47795,-0.0730738,-0.807403,-104.678,0.1567771,
2,1,0,1,0,14945,0.164602,0.164316,2.69309,8,0.0127178,10,0.000442519,-2.56975,-0.0978752,-0.602809,-63.6297,0.164316,
2,1,0,1,0,14945.2,0.172091,0.171798,2.32685,8,0.0131888,10,0.00039975,-2.63323,-0.147421,-0.400213,-36.5841,0.171798,
2,1,0,1,0,14945.4,0.179582,0.179222,2.1275,8,0.013608,10,0.000381295,-2.67213,-0.229746,-0.256805,-21.3194,0.179222,
2,1,0,1,0,14945.6,0.187074,0.186784,1.99384,8,0.0139964,10,0.000372416,-2.70031,-0.374526,-0.157533,-12.3098,0.186784,
2,1,0,1,0,14945.8,0.194563,0.194234,1.92308,8,0.0143658,10,0.000373528,-2.716,-0.580911,-0.101565,-7.60433,0.194234,
2,1,0,1,0,14946,0.202059,0.201737,1.87091,8,0.0147233,10,0.000377433,-2.72795,-0.625934,-0.0942591,-6.84586,0.201737,
2,1,0,1,0,14946.2,0.209546,0.209271,1.82646,8,0.0150721,10,0.000382226,-2.73839,-0.676887,-0.0871637,-6.22987,0.209271,
2,1,0,1,0,14946.4,0.217035,0.216741,1.79517,8,0.0154143,10,0.000389086,-2.7459,-1.68088,-0.0351006,-2.4609,0.216741,
2,1,0,1,0,14946.5,0.22453,0.224204,1.77415,8,0.0157521,10,0.00039777,-2.75101,-1.4161,-0.0416636,-2.88616,0.224204,
2,1,0,1,0,14946.7,0.232019,0.231726,1.75305,8,0.0160857,10,0.000406227,-2.75621,-1.71966,-0.0343091,-2.35121,0.231726,
2,1,0,1,0,14946.9,0.23951,0.239178,1.74125,8,0.0164162,10,0.000416469,-2.75914,-2.90277,-0.0203254,-1.37748,0.239178,
2,1,0,1,0,14947.1,0.247003,0.246685,1.72345,8,0.0167437,10,0.000425148,-2.7636,-1.27531,-0.0462631,-3.11068,0.246685,
2,1,0,1,0,14947.3,0.25449,0.254157,1.70643,8,0.0170681,10,0.000433702,-2.76791,-1.77497,-0.03324,-2.21789,0.254157,
2,1,0,1,0,14947.5,0.261983,0.261738,1.69714,8,0.0173899,10,0.000444207,-2.77028,-2.79628,-0.0210995,-1.39062,0.261738,
2,1,0,1,0,14947.7,0.269474,0.269181,1.67698,8,0.0177089,10,0.000451411,-2.77547,-2.15526,-0.0273748,-1.79328,0.269181,
2,1,0,1,0,14947.9,0.276963,0.276645,1.66438,8,0.018025,10,0.000460442,-2.77875,-1.50971,-0.0390803,-2.5373,0.276645,
2,1,0,1,0,14948,0.284458,0.284164,1.65312,8,0.0183386,10,0.000469758,-2.78169,-1.84458,-0.0319855,-2.05243,0.2841638,
2,1,0,1,0,14948.2,0.291947,0.291624,1.62932,8,0.0186486,10,0.000475149,-2.78799,-1.55557,-0.0379281,-2.41714,0.291624,
2,1,0,1,0,14948.4,0.299434,0.299163,1.61351,8,0.0189557,10,0.000482703,-2.79223,-0.0119131,-4.95253,-252.95,0.299163,
2,0,0,1,0,14948.6,0.294196,0.293888,-0.410823,8,0.0189741,10,-0.000120736,-3.38635,-0.018366,-3.21246,47.7348,0.293888,
2,0,0,1,0,14948.8,0.286701,0.286382,-0.608889,8,0.018872,10,-0.000174375,-3.21546,-0.0690189,-0.854838,20.4567,0.286382,
2,0,0,1,0,14948.9,0.279212,0.278869,-0.738261,8,0.0187415,10,-0.000205878,-3.13179,-0.121472,-0.485709,13.8706,0.278869,
2,0,0,1,0,14949.1,0.271725,0.271359,-0.819743,8,0.0185918,10,-0.000222445,-3.08632,-0.149634,-0.394295,12.6571,0.271359,
2,0,0,1,0,14949.3,0.264228,0.26386,-0.895267,8,0.0184267,10,-0.000236225,-3.04805,-0.24665,-0.239206,8.37488,0.26386,
2,0,0,1,0,14949.5,0.256741,0.256411,-0.96469,8,0.0182492,10,-0.000247357,-3.01561,-0.274083,-0.215263,8.03533,0.256411,
2,0,0,1,0,14949.7,0.249248,0.248894,-1.01881,8,0.0180604,10,-0.000253575,-2.99191,-0.341287,-0.172875,6.85864,0.248894,
2,0,0,1,0,14949.9,0.241756,0.241449,-1.06227,8,0.0178614,10,-0.000256483,-2.97377,-0.382723,-0.154159,6.4426,0.2414493,
2,0,0,1,0,14950.1,0.234268,0.233955,-1.11759,8,0.0176532,10,-0.000261466,-2.95172,-0.433196,-0.136197,5.94561,0.233955,
2,0,0,1,0,14950.3,0.226772,0.226443,-1.16429,8,0.0174357,10,-0.000263645,-2.93394,-0.370034,-0.159445,7.256,0.226443,
2,0,0,1,0,14950.4,0.219284,0.218994,-1.21442,8,0.0172096,10,-0.00026595,-2.91563,-0.47445,-0.124355,5.87966,0.218994,
2,0,0,1,0,14950.6,0.211796,0.211444,-1.26285,8,0.0169748,10,-0.000267023,-2.89865,-0.470533,-0.12539,6.13059,0.211444,
2,0,0,1,0,14950.8,0.204301,0.203973,-1.30511,8,0.0167307,10,-0.000266206,-2.88435,-0.694547,-0.0849475,4.34704,0.203973,
2,0,0,1,0,14951,0.196812,0.196479,-1.35732,8,0.0164777,10,-0.000266685,-2.86732,-0.479712,-0.12299,6.53335,0.196479,
2,0,0,1,0,14951.2,0.189321,0.188999,-1.41656,8,0.0162143,10,-0.000267729,-2.84876,-0.376436,-0.156733,8.66409,0.188999,
2,0,0,1,0,14951.4,0.181828,0.181537,-1.47973,8,0.0159394,10,-0.000268626,-2.82982,-0.33813,-0.174489,10.1288,0.181537,
2,0,0,1,0,14951.6,0.174341,0.174032,-1.57117,8,0.0156505,10,-0.000273434,-2.80378,-0.243469,-0.242331,14.8254,0.174032,
2,0,0,1,0,14951.8,0.166848,0.166511,-1.68522,8,0.015343,10,-0.000280607,-2.77334,-0.220863,-0.267134,17.5445,0.1665107,
2,0,0,1,0,14951.9,0.159357,0.159024,-1.84704,8,0.0150097,10,-0.000293724,-2.73352,-0.151734,-0.388838,28.1224,0.159024,
2,0,0,1,0,14952.1,0.151868,0.151552,-2.10599,8,0.0146376,10,-0.000319168,-2.67654,-0.110207,-0.535356,44.1862,0.151552,
2,0,0,1,0,14952.3,0.144373,0.144069,-2.53832,8,0.0142014,10,-0.000365693,-2.59545,-0.0792477,-0.744501,74.1001,0.144069,
2,0,0,1,0,14952.5,0.136884,0.136578,-3.17361,8,0.0136648,10,-0.000433446,-2.49845,-0.0768452,-0.767778,95.1754,0.136578,
2,0,0,1,0,14952.7,0.129393,0.129068,-3.86503,8,0.013001,10,-0.000498852,-2.41285,-0.103299,-0.571155,85.7951,0.129068,
2,0,0,1,0,14952.9,0.1219,0.121604,-4.3897,8,0.0122209,10,-0.000533804,-2.35756,-0.187299,-0.315004,53.8568,0.121604,
2,0,0,1,0,14953.1,0.114413,0.114055,-4.68158,8,0.0113644,10,-0.000533958,-2.32961,-0.511547,-0.115336,21.0479,0.114055,
2,0,0,1,0,14953.3,0.10692,0.106614,-4.73914,8,0.0104757,10,-0.000505259,-2.3243,1.65711,0.0356041,-6.57109,0.106614,
2,0,0,1,0,14953.4,0.0994284,0.099099,-4.60132,8,0.00959462,10,-0.000455986,-2.33712,0.395724,0.149094,-26.7842,0.09909898,
2,0,0,1,0,14953.6,0.0919401,0.0916306,-4.36017,8,0.00875119,10,-0.000399525,-2.3605,0.312076,0.189057,-32.1752,0.0916306,
2,0,0,1,0,14953.8,0.0844447,0.0841122,-4.13099,8,0.00795318,10,-0.000347467,-2.38395,0.357787,0.164902,-26.5625,0.0841122,
2,0,0,1,0,14954,0.0769565,0.0765964,-3.95998,8,0.00719361,10,-0.000303321,-2.40231,0.466243,0.126543,-19.5842,0.0765964,
2,0,0,1,0,14954.2,0.0694682,0.0691503,-3.8486,8,0.00645969,10,-0.000266132,-2.4147,0.634156,0.0930371,-13.9596,0.0691503,
2,0,0,1,0,14954.4,0.0619728,0.0616469,-3.73618,8,0.00574525,10,-0.000230324,-2.42757,0.568341,0.103811,-15.1537,0.0616469,
2,0,0,1,0,14954.6,0.0544836,0.0542104,-3.62647,8,0.00505155,10,-0.000196592,-2.44052,0.707606,0.0833797,-11.8221,0.0542104,
2,0,0,1,0,14954.8,0.0469927,0.0466057,-3.52232,8,0.00437814,10,-0.00016416,-2.45317,0.53031,0.111256,-15.2557,0.0466057,
2,0,0,1,0,14954.9,0.0394999,0.0391609,-3.39321,8,0.00372712,10,-0.000132881,-2.46939,0.431181,0.136834,-18.1211,0.0391609,
2,0,0,1,0,14955.1,0.0320125,0.0317153,-3.24924,8,0.00310133,10,-0.000103051,-2.48822,0.360241,0.163779,-20.8007,0.0317153,
2,0,0,1,0,14955.3,0.0245198,0.0242178,-3.1105,8,0.00250209,10,-7.53295e-05,-2.50717,0.362674,0.162681,-19.7202,0.0242178,
2,0,0,1,0,14955.5,0.0170289,0.016707,-2.97669,8,0.00192874,10,-4.97316e-05,-2.52627,0.442394,0.133365,-15.5413,0.01670704,
2,0,0,1,0,14955.7,0.0095397,0.0091759,-2.87843,8,0.00137703,10,-2.64122e-05,-2.54084,0.642358,0.0918491,-10.3303,0.0091759,
2,0,0,1,0,14955.9,0.00204518,0.00167152,-2.86682,8,0.000839576,10,-4.79194e-06,-2.5426,5.42464,0.0108763,-1.2,0.00167152,
2,0,0,1,0,14955.9,0.000177222,-0.000175297,-2.82473,8,0.000705932,10,4.95167e-07,-2.54902, , , ,-0.000175297,