File: Figure_codes/Fig_3-5/rawdata_trumpetplot_data/after 10th/20221101_1-115_003_TrumpetPlot_ParaChange_from10_every3_02_CV_C01_5.csv
mode,ox/red,error,control changes,counter inc.,time/s,control/V,Ewe/V,<I>/mA,cycle number,(Q-Qo)/C,I Range,P/W,log(|I|),Tafel slope mV/dec,alpha_eff,dI/d(E-IR),E-IR/V,
2,0,0,1,0,10190.7,2.44065e-05,-0.000439847,-0.354443,6,0.0000000E+000,10,1.55901e-07,-3.45045, , , ,-0.000439847,
2,0,0,1,0,10197.9,0.00729061,0.00702006,-0.0928898,6,-0.000887213,10,-6.52092e-07,-4.03203,-0.0307841,-1.91657,7.04073,0.00702006,
2,0,0,1,0,10205.4,0.0147815,0.0144673,-0.057668,6,-0.00133216,10,-8.34299e-07,-4.23907,-0.0426,-1.38498,3.15372,0.0144673,
2,0,0,1,0,10212.9,0.0222725,0.0219538,-0.0377058,6,-0.0015841,10,-8.27785e-07,-4.42359,-0.0339154,-1.73962,2.59066,0.02195378,
2,0,0,1,0,10220.4,0.0297635,0.0294488,-0.0227381,6,-0.00170325,10,-6.69608e-07,-4.64325,-0.0289742,-2.03629,1.7838,0.0294488,
2,0,0,1,0,10227.9,0.0372544,0.0369331,-0.0100585,6,-0.00171675,10,-3.7149e-07,-4.99747,-0.0142613,-4.13708,1.50071,0.0369331,
2,0,0,1,0,10235.4,0.0447454,0.0444355,0.00195681,6,-0.00163546,10,8.6952e-08,-5.70845,0.00694457,8.49585,1.36191,0.0444355,
2,1,0,1,0,10242.9,0.0522363,0.051888,0.0122898,6,-0.00147333,10,6.37696e-07,-4.91045,0.0166214,3.54963,1.59969,0.051888,
2,1,0,1,0,10250.4,0.0597273,0.0593671,0.0217013,6,-0.00123341,10,1.28834e-06,-4.66351,0.035441,1.66474,1.37984,0.0593671,
2,1,0,1,0,10257.9,0.0672183,0.0669183,0.0308029,6,-0.000923292,10,2.06128e-06,-4.51141,0.069966,0.843267,0.999775,0.0669183,
2,1,0,1,0,10265.4,0.0747092,0.0743909,0.0393685,6,-0.000548718,10,2.92866e-06,-4.40485,0.100307,0.588193,0.891243,0.0743909,
2,1,0,1,0,10272.9,0.0822001,0.0819049,0.045756,6,-0.000116407,10,3.74764e-06,-4.33955,0.115556,0.510575,0.91934,0.0819049,
2,1,0,1,0,10280.3,0.0896911,0.0893829,0.0549282,6,0.000374826,10,4.90964e-06,-4.26021,0.0941625,0.626577,1.34006,0.0893829,
2,1,0,1,0,10287.8,0.0971821,0.0968822,0.0653689,6,0.000940136,10,6.33308e-06,-4.18463,0.0750413,0.786234,2.02089,0.0968822,
2,1,0,1,0,10295.3,0.104673,0.104372,0.0793567,6,0.00159782,10,8.28261e-06,-4.10042,0.122621,0.481158,1.46424,0.104372,
2,1,0,1,0,10302.8,0.112164,0.11185,0.0888955,6,0.00234548,10,9.94294e-06,-4.05112,0.180102,0.327592,1.13754,0.11185,
2,1,0,1,0,10310.3,0.119655,0.119371,0.0996848,6,0.00317281,10,1.18995e-05,-4.00137,0.211764,0.278612,1.08973,0.119371,
2,1,0,1,0,10317.8,0.127146,0.126776,0.108999,6,0.0040781,10,1.38184e-05,-3.96258,0.187664,0.314392,1.34897,0.126776,
2,1,0,1,0,10325.3,0.134637,0.134283,0.112583,6,0.00504305,10,1.5118e-05,-3.94853,-0.285408,-0.206722,-0.904756,0.134283,
2,1,0,1,0,10332.8,0.142128,0.14183,0.0976842,6,0.0059599,10,1.38545e-05,-4.01018,-0.0829126,-0.711593,-2.6842,0.14183,
2,1,0,1,0,10340.3,0.149619,0.149303,0.0749655,6,0.00672036,10,1.11926e-05,-4.12514,-0.0678576,-0.869468,-2.55952,0.149303,
2,1,0,1,0,10347.8,0.15711,0.156804,0.0610325,6,0.00733472,10,9.57011e-06,-4.21444,-0.097167,-0.607202,-1.43662,0.156804,
2,1,0,1,0,10355.3,0.164601,0.164262,0.0543221,6,0.00787102,10,8.92308e-06,-4.26502,-0.240075,-0.245756,-0.519692,0.164262,
2,1,0,1,0,10362.7,0.172091,0.171743,0.0506529,6,0.00837083,10,8.69925e-06,-4.2954,-0.327987,-0.179885,-0.357389,0.171743,
2,1,0,1,0,10370.2,0.179582,0.179294,0.0489206,6,0.00884938,10,8.77115e-06,-4.31051,-0.491798,-0.119968,-0.229852,0.179294,
2,1,0,1,0,10377.7,0.187073,0.186806,0.048591,6,0.00931888,10,9.07708e-06,-4.31344,1.50611,0.0391737,0.074253,0.186806,
2,1,0,1,0,10385.2,0.194564,0.194265,0.048818,6,0.00978715,10,9.4836e-06,-4.31142,0.87526,0.0674085,0.129301,0.194265,
2,1,0,1,0,10392.7,0.202055,0.201728,0.0490868,6,0.0102565,10,9.90218e-06,-4.30903,-2.42883,-0.0242915,-0.0465391,0.201728,
2,1,0,1,0,10400.2,0.209546,0.209229,0.050099,6,0.0107313,10,1.04822e-05,-4.30017,1.34509,0.0438632,0.0861143,0.209229,
2,1,0,1,0,10407.7,0.217037,0.2167,0.0517216,6,0.0112117,10,1.12081e-05,-4.28633,0.857911,0.0687717,0.137469,0.2166996,
2,1,0,1,0,10415.2,0.224528,0.224186,0.0522144,6,0.0116978,10,1.17057e-05,-4.28221,1.05825,0.0557523,0.112606,0.224186,
2,1,0,1,0,10422.7,0.232019,0.231685,0.0525605,6,0.0121882,10,1.21775e-05,-4.27934,0.845995,0.0697403,0.143053,0.231685,
2,1,0,1,0,10430.2,0.23951,0.239189,0.0537573,6,0.0126859,10,1.28581e-05,-4.26956,1.09643,0.0538108,0.113005,0.239189,
2,1,0,1,0,10437.7,0.247001,0.2467,0.0548978,6,0.0131912,10,1.35433e-05,-4.26045,-3.7114,-0.015897,-0.0339025,0.2467,
2,1,0,1,0,10445.1,0.254492,0.254198,0.0559222,6,0.0137034,10,1.42153e-05,-4.25242,0.534255,0.110434,0.241537,0.254198,
2,1,0,1,0,10452.6,0.261983,0.2617,0.056715,6,0.0142221,10,1.48423e-05,-4.2463,1.00896,0.0584763,0.12908,0.2617,
2,1,0,1,0,10460.1,0.269474,0.269139,0.0578471,6,0.0147469,10,1.55689e-05,-4.23772,1.33055,0.0443426,0.0999961,0.269139,
2,1,0,1,0,10467.6,0.276965,0.276652,0.058147,6,0.0152778,10,1.60865e-05,-4.23547,0.622837,0.0947279,0.216125,0.2766518,
2,1,0,1,0,10475.1,0.284456,0.284121,0.0594283,6,0.0158136,10,1.68849e-05,-4.22601,0.853398,0.0691354,0.16029,0.2841213,
2,1,0,1,0,10482.6,0.291947,0.291643,0.0600365,6,0.0163544,10,1.75092e-05,-4.22158,3.55297,0.0166058,0.0388619,0.291643,
2,1,0,1,0,10490.1,0.299438,0.299102,0.060363,6,0.0168981,10,1.80547e-05,-4.21923,-0.00513797,-11.4831,-18.6657,0.299102,
2,1,0,1,0,10496.9,0.293745,0.293468,0.0124143,6,0.0169856,10,3.6432e-06,-4.90608,0.0203465,2.89976,1.43366,0.2934677,
2,1,0,1,0,10504.4,0.286254,0.285963,0.00440335,6,0.0169541,10,1.2592e-06,-5.35622,0.0117084,5.03911,0.846456,0.285963,
2,1,0,1,0,10511.9,0.278763,0.278444,-0.00124524,6,0.0168721,10,-3.46728e-07,-5.90475,-0.00373164,-15.8108,0.622621,0.2784439,
2,1,0,1,0,10519.4,0.271272,0.270944,-0.00606528,6,0.016752,10,-1.64335e-06,-5.21715,-0.0200333,-2.94509,0.638462,0.270944,
2,0,0,1,0,10526.9,0.263781,0.263475,-0.00971074,6,0.0166001,10,-2.55854e-06,-5.01275,-0.0472552,-1.24854,0.4616,0.263475,
2,1,0,1,0,10534.4,0.25629,0.256028,-0.0129919,6,0.0164194,10,-3.32629e-06,-4.88633,-0.0947262,-0.622848,0.323075,0.256028,
2,0,0,1,0,10541.9,0.248799,0.248464,-0.0165056,6,0.0162109,10,-4.10104e-06,-4.78237,-0.122512,-0.481587,0.31173,0.248464,
2,0,0,1,0,10549.4,0.241308,0.240996,-0.0196103,6,0.0159802,10,-4.726e-06,-4.70752,-0.118535,-0.497745,0.375618,0.240996,
2,0,0,1,0,10556.9,0.233817,0.233509,-0.0224891,6,0.0157255,10,-5.25141e-06,-4.64803,-0.101297,-0.582447,0.513619,0.233509,
2,0,0,1,0,10564.4,0.226326,0.226007,-0.0251611,6,0.0154473,10,-5.68657e-06,-4.59927,-0.161269,-0.365849,0.368217,0.226007,
2,0,0,1,0,10571.8,0.218835,0.218574,-0.0279895,6,0.015148,10,-6.11778e-06,-4.55301,-0.138481,-0.426052,0.473955,0.218574,
2,0,0,1,0,10579.3,0.211344,0.211041,-0.0308828,6,0.0148277,10,-6.51755e-06,-4.51028,-0.152487,-0.386917,0.472315,0.211041,
2,0,0,1,0,10586.8,0.203853,0.203509,-0.0338431,6,0.0144851,10,-6.88739e-06,-4.47053,-0.248611,-0.237319,0.318705,0.203509,
2,0,0,1,0,10594.3,0.196362,0.196061,-0.0373873,6,0.0141196,10,-7.33019e-06,-4.42728,-0.15081,-0.39122,0.570437,0.196061,
2,0,0,1,0,10601.8,0.188871,0.188514,-0.0411291,6,0.0137251,10,-7.75341e-06,-4.38585,-0.19096,-0.308965,0.490511,0.188514,
2,0,0,1,0,10609.3,0.18138,0.181084,-0.0454999,6,0.0133012,10,-8.23928e-06,-4.34199,-0.176886,-0.333549,0.587184,0.181084,
2,0,0,1,0,10616.8,0.173889,0.173581,-0.0503141,6,0.0128411,10,-8.73359e-06,-4.29831,-0.203919,-0.289331,0.566028,0.173581,
2,0,0,1,0,10624.3,0.166398,0.166092,-0.0564669,6,0.0123364,10,-9.37867e-06,-4.24821,-0.138158,-0.427046,0.949154,0.166092,
2,0,0,1,0,10631.8,0.158907,0.158585,-0.0657883,6,0.0117708,10,-1.0433e-05,-4.18185,-0.107661,-0.548018,1.41232,0.158585,
2,0,0,1,0,10639.3,0.151417,0.151122,-0.0801305,6,0.0111166,10,-1.21095e-05,-4.0962,-0.0756011,-0.780412,2.47012,0.151122,
2,0,0,1,0,10646.8,0.143926,0.143627,-0.103445,6,0.0103219,10,-1.48574e-05,-3.98529,-0.0606444,-0.972885,3.92993,0.143627,
2,0,0,1,0,10654.2,0.136435,0.136085,-0.132227,6,0.00932565,10,-1.79941e-05,-3.87868,-0.085162,-0.692797,3.55695,0.136085,
2,0,0,1,0,10661.7,0.128944,0.128626,-0.152351,6,0.00813524,10,-1.95963e-05,-3.81716,-0.2731,-0.216038,1.27492,0.128626,
2,0,0,1,0,10669.2,0.121453,0.121124,-0.157288,6,0.00685572,10,-1.90514e-05,-3.8033,2.79295,0.0211247,-0.129098,0.121124,
2,0,0,1,0,10676.7,0.113962,0.113663,-0.152005,6,0.00557519,10,-1.72774e-05,-3.81814,0.489924,0.120427,-0.721112,0.113663,
2,0,0,1,0,10684.2,0.106471,0.106145,-0.148732,6,0.00432725,10,-1.57872e-05,-3.82759,0.975006,0.0605124,-0.352866,0.106145,
2,0,0,1,0,10691.7,0.0989798,0.0986275,-0.142168,6,0.00311997,10,-1.40217e-05,-3.8472,0.366985,0.160769,-0.892132,0.0986275,
2,0,0,1,0,10699.2,0.0914889,0.0912376,-0.136205,6,0.00196538,10,-1.24271e-05,-3.86581,0.38414,0.15359,-0.814345,0.09123759,
2,0,0,1,0,10706.7,0.083998,0.0837247,-0.129341,6,0.000861833,10,-1.08291e-05,-3.88826,0.330739,0.178388,-0.898303,0.0837247,
2,0,0,1,0,10714.2,0.076507,0.0761586,-0.124387,6,-0.000199402,10,-9.47314e-06,-3.90522,0.808658,0.0729603,-0.355116,0.07615862,
2,0,0,1,0,10721.7,0.069016,0.0687092,-0.121372,6,-0.00123093,10,-8.33936e-06,-3.91588,0.872608,0.0676134,-0.321019,0.0687092,
2,0,0,1,0,10729.2,0.0615251,0.0611836,-0.117922,6,-0.00223801,10,-7.21487e-06,-3.92841,0.712803,0.0827718,-0.382244,0.0611836,
2,0,0,1,0,10736.6,0.0540342,0.0537205,-0.115092,6,-0.00322093,10,-6.18281e-06,-3.93895,0.803688,0.0734116,-0.329016,0.0537205,
2,0,0,1,0,10744.1,0.0465432,0.0462021,-0.111985,6,-0.0041797,10,-5.17393e-06,-3.95084,1.04568,0.0564227,-0.247023,0.0462021,
2,0,0,1,0,10751.6,0.0390522,0.0386987,-0.10871,6,-0.00511484,10,-4.20695e-06,-3.96373,0.504489,0.11695,-0.496693,0.03869867,
2,0,0,1,0,10759.1,0.0315613,0.0312399,-0.10558,6,-0.00602601,10,-3.2983e-06,-3.97642,0.537396,0.109789,-0.455267,0.0312399,
2,0,0,1,0,10766.6,0.0240703,0.0237724,-0.10354,6,-0.00691651,10,-2.46139e-06,-3.98489,0.975153,0.0605033,-0.244914,0.0237724,
2,0,0,1,0,10774.1,0.0165794,0.0162796,-0.102659,6,-0.00779431,10,-1.67125e-06,-3.9886,2.79843,0.0210833,-0.0848125,0.01627964,
2,0,0,1,0,10781.6,0.00908843,0.00877826,-0.104179,6,-0.0086719,10,-9.14514e-07,-3.98222,-1.30988,-0.0450424,0.183111,0.00877826,
2,0,0,1,0,10789.1,0.00159744,0.0011899,-0.107919,6,-0.00956586,10,-1.28413e-07,-3.9669, , , ,0.001189901,
2,0,0,1,0,10790.5,0.000199235,-0.000172571,-0.107838,6,-0.00973541,10,1.86097e-08,-3.96723, , , ,-0.000172571,