File: Figure_codes/Fig_3-5/rawdata_trumpetplot_data/after 10th/20221101_1-115_003_TrumpetPlot_ParaChange_from10_every3_12_CV_C01_17.csv
mode,ox/red,error,control changes,counter inc.,time/s,control/V,Ewe/V,<I>/mA,cycle number,(Q-Qo)/C,I Range,P/W,log(|I|),Tafel slope mV/dec,alpha_eff,dI/d(E-IR),E-IR/V,
2,1,0,1,0,34688.7,2.44065e-05,-0.000363498,15.8129,18,0.0000000E+000,10,-5.74794e-06,-1.80099, , , ,-0.000363498,
2,1,0,1,0,34688.8,0.0104008,0.0100518,19.0681,18,0.00030332,10,0.000191669,-1.71969,0.194063,0.304026,224.889,0.0100518,
2,1,0,1,0,34688.8,0.0212099,0.0208701,21.1286,18,0.000666059,10,0.000440955,-1.67513,0.293126,0.201279,165.487,0.02087008,
2,1,0,1,0,34688.8,0.0320052,0.0316534,22.749,18,0.00106152,10,0.000720082,-1.64304,0.372869,0.158232,140.279,0.0316534,
2,1,0,1,0,34688.8,0.0428033,0.0424843,24.1638,18,0.0014841,10,0.00102658,-1.61683,0.443284,0.133098,125.46,0.0424843,
2,1,0,1,0,34688.8,0.0535986,0.0532347,25.4785,18,0.00193115,10,0.00135634,-1.59383,0.480085,0.122895,122.247,0.0532347,
2,1,0,1,0,34688.8,0.0644077,0.0640615,26.8064,18,0.00240196,10,0.00171726,-1.57176,0.501646,0.117613,123.069,0.0640615,
2,1,0,1,0,34688.9,0.075203,0.0748596,28.1643,18,0.00289685,10,0.00210837,-1.5503,0.501938,0.117544,129.245,0.0748596,
2,1,0,1,0,34688.9,0.0860011,0.0856164,29.5758,18,0.00341662,10,0.00253218,-1.52906,0.521057,0.113231,130.714,0.08561638,
2,1,0,1,0,34688.9,0.0968075,0.0964028,31.0421,18,0.00396223,10,0.00299255,-1.50805,0.519505,0.11357,137.556,0.0964028,
2,1,0,1,0,34688.9,0.107606,0.107237,32.5409,18,0.00453457,10,0.00348959,-1.48757,0.541752,0.108906,138.224,0.107237,
2,1,0,1,0,34688.9,0.118401,0.118045,34.0445,18,0.00513358,10,0.00401877,-1.46795,0.533054,0.110683,147.112,0.118045,
2,1,0,1,0,34689,0.129207,0.12887,35.7276,18,0.0057614,10,0.00460422,-1.447,0.517935,0.113914,158.8,0.12887,
2,1,0,1,0,34689,0.140005,0.139632,37.525,18,0.00642054,10,0.00523971,-1.42568,0.488777,0.120709,176.783,0.1396324,
2,1,0,1,0,34689,0.150803,0.150459,39.4317,18,0.00711338,10,0.00593286,-1.40415,0.517761,0.113952,175.318,0.150459,
2,1,0,1,0,34689,0.161604,0.161245,41.2495,18,0.00783997,10,0.00665126,-1.38458,0.597578,0.0987319,158.855,0.161245,
2,1,0,1,0,34689,0.172405,0.17205,42.8211,18,0.00859736,10,0.00736738,-1.36834,0.779896,0.0756511,126.275,0.17205,
2,1,0,1,0,34689,0.183203,0.182847,43.8787,18,0.00937884,10,0.0080231,-1.35775,1.63719,0.0360374,61.5914,0.182847,
2,1,0,1,0,34689.1,0.194001,0.193689,44.0308,18,0.0101717,10,0.00852827,-1.35624,-2.66945,-0.0221019,-37.887,0.193689,
2,1,0,1,0,34689.1,0.204808,0.204472,43.0653,18,0.0109572,10,0.00880564,-1.36587,-0.692038,-0.0852555,-142.914,0.204472,
2,1,0,1,0,34689.1,0.215603,0.21532,41.0205,18,0.0117152,10,0.00883254,-1.387,-0.410956,-0.143568,-229.329,0.21532,
2,1,0,1,0,34689.1,0.226401,0.226106,38.1933,18,0.0124286,10,0.00863574,-1.41801,-0.311284,-0.189537,-282.167,0.226106,
2,1,0,1,0,34689.1,0.237207,0.236943,35.1139,18,0.0130879,10,0.00831998,-1.45452,-0.286074,-0.206241,-282.54,0.236943,
2,1,0,1,0,34689.2,0.248005,0.247717,32.2014,18,0.0136929,10,0.00797681,-1.49213,-0.297979,-0.198001,-249.028,0.2477165,
2,1,0,1,0,34689.2,0.258801,0.258496,29.7051,18,0.0142491,10,0.00767862,-1.52717,-0.327747,-0.180017,-208.965,0.258496,
2,1,0,1,0,34689.2,0.26961,0.269263,27.6598,18,0.0147646,10,0.00744777,-1.55815,-0.373376,-0.158018,-170.819,0.269263,
2,1,0,1,0,34689.2,0.280405,0.280077,26.0084,18,0.015247,10,0.00728434,-1.58489,-0.435162,-0.135582,-137.786,0.280077,
2,1,0,1,0,34689.2,0.291203,0.290839,24.6766,18,0.0157027,10,0.00717691,-1.60771,-0.501137,-0.117732,-113.507,0.290839,
2,1,0,0,0,34689.2,0.300012,0.299689,23.7671,18,0.0160585,10,0.00712273,-1.62402,0.00268404,21.9818,18025.6,0.2996892,
2,1,0,1,0,34689.3,0.290843,0.290572,11.7086,18,0.0163145,10,0.00340219,-1.93149,0.0299126,1.97241,904.734,0.290572,
2,1,0,1,0,34689.3,0.280047,0.279788,4.17467,18,0.0164511,10,0.00116802,-2.37938,0.0159131,3.70763,553.295,0.279788,
2,0,0,1,0,34689.3,0.269244,0.268936,-0.704331,18,0.0164791,10,-0.00018942,-3.15222,-0.0348107,-1.69488,371.582,0.268936,
2,0,0,1,0,34689.3,0.258443,0.258134,-4.08258,18,0.0164342,10,-0.00105385,-2.38907,-0.0330241,-1.78657,267.993,0.258134,
2,0,0,1,0,34689.3,0.247645,0.247318,-6.55858,18,0.0163371,10,-0.00162205,-2.18319,-0.073771,-0.799772,201.577,0.247318,
2,0,0,1,0,34689.3,0.236849,0.23652,-8.47078,18,0.0162009,10,-0.0020035,-2.07208,-0.123145,-0.479112,157.256,0.23652,
2,0,0,1,0,34689.4,0.22604,0.225715,-10.0062,18,0.0160341,10,-0.00225854,-1.99973,-0.179135,-0.329361,127.991,0.225715,
2,0,0,1,0,34689.4,0.215245,0.214945,-11.26,18,0.0158423,10,-0.00242028,-1.94846,-0.234903,-0.251167,110.233,0.214945,
2,0,0,1,0,34689.4,0.204447,0.204118,-12.365,18,0.0156293,10,-0.00252392,-1.90781,-0.296691,-0.19886,95.8512,0.204118,
2,0,0,1,0,34689.4,0.19364,0.193274,-13.3537,18,0.0153976,10,-0.00258092,-1.8744,-0.351738,-0.167738,87.331,0.193274,
2,0,0,1,0,34689.4,0.182842,0.182558,-14.2701,18,0.0151488,10,-0.00260512,-1.84557,-0.385178,-0.153176,85.3213,0.182558,
2,0,0,1,0,34689.5,0.172047,0.171678,-15.2068,18,0.0148834,10,-0.00261067,-1.81796,-0.394827,-0.149433,88.7423,0.1716779,
2,0,0,1,0,34689.5,0.161241,0.160934,-16.2331,18,0.0146006,10,-0.00261245,-1.7896,-0.373147,-0.158115,100.178,0.160934,
2,0,0,1,0,34689.5,0.150443,0.150095,-17.4403,18,0.014298,10,-0.00261771,-1.75845,-0.314541,-0.187575,127.85,0.150095,
2,0,0,1,0,34689.5,0.139645,0.139386,-19.0685,18,0.0139701,10,-0.00265789,-1.71968,-0.246596,-0.239258,178.543,0.1393864,
2,0,0,1,0,34689.5,0.128849,0.128527,-21.3419,18,0.0136072,10,-0.00274301,-1.67077,-0.201459,-0.292863,244.521,0.128527,
2,0,0,1,0,34689.5,0.118043,0.117749,-24.3466,18,0.0131967,10,-0.00286678,-1.61356,-0.186038,-0.31714,301.334,0.117749,
2,0,0,1,0,34689.6,0.107245,0.106968,-27.7048,18,0.012728,10,-0.00296352,-1.55744,-0.202056,-0.291998,315.49,0.106968,
2,0,0,1,0,34689.6,0.0964468,0.0961749,-30.9781,18,0.0121987,10,-0.00297932,-1.50894,-0.244627,-0.241183,291.567,0.0961749,
2,0,0,1,0,34689.6,0.0856404,0.0854011,-34.034,18,0.0116127,10,-0.00290654,-1.46809,-0.302115,-0.19529,258.936,0.0854011,
2,0,0,1,0,34689.6,0.0748451,0.0745574,-36.5435,18,0.0109762,10,-0.00272459,-1.43719,-0.409194,-0.144186,205.288,0.0745574,
2,0,0,1,0,34689.6,0.0640471,0.0637985,-38.4606,18,0.0103001,10,-0.00245373,-1.41498,-0.595563,-0.099066,148.485,0.06379851,
2,0,0,1,0,34689.6,0.0532407,0.0529113,-39.7879,18,0.00959485,10,-0.00210523,-1.40025,-0.999228,-0.0590456,91.5206,0.0529113,
2,0,0,1,0,34689.7,0.0424426,0.0421567,-40.5231,18,0.00887139,10,-0.00170832,-1.3923,-1.88025,-0.0313787,49.5686,0.0421567,
2,0,0,1,0,34689.7,0.0316473,0.0312939,-40.8762,18,0.00813832,10,-0.00127918,-1.38853,-5.16789,-0.0114166,18.1977,0.0312939,
2,0,0,1,0,34689.7,0.0208437,0.0205467,-40.9476,18,0.00740172,10,-0.000841336,-1.38777,19.1674,0.00307814,-4.91525,0.0205467,
2,0,0,1,0,34689.7,0.0100429,0.0097093,-40.7921,18,0.00666584,10,-0.000396063,-1.38942,3.97371,0.0148476,-23.6201,0.0097093,
2,0,0,1,0,34689.7,-0.000755207,-0.00110578,-40.4569,18,0.00593441,10,4.47365e-05,-1.39301,2.28414,0.0258303,-40.7368,-0.001105783,
2,0,0,1,0,34689.8,-0.0115505,-0.0119081,-39.811,18,0.00521158,10,0.000474076,-1.4,1.27654,0.0462185,-71.7946,-0.0119081,
2,0,0,1,0,34689.8,-0.0223597,-0.0227169,-38.9463,18,0.00450242,10,0.000884739,-1.40953,1.0059,0.0586541,-89.128,-0.0227169,
2,0,0,1,0,34689.8,-0.033155,-0.033532,-37.9453,18,0.00381033,10,0.00127238,-1.42084,0.95498,0.0617814,-91.5307,-0.033532,
2,0,0,1,0,34689.8,-0.043953,-0.0443312,-36.9909,18,0.00313608,10,0.00163985,-1.43191,1.00724,0.0585758,-84.6154,-0.0443312,
2,0,0,1,0,34689.8,-0.0547594,-0.0551515,-36.2051,18,0.00247776,10,0.00199676,-1.44123,1.30096,0.0453512,-64.1012,-0.0551515,
2,0,0,1,0,34689.8,-0.0655575,-0.06592,-35.6402,18,0.00183165,10,0.0023494,-1.44806,2.10929,0.0279715,-38.9268,-0.06591998,
2,0,0,1,0,34689.9,-0.0763528,-0.076717,-35.3235,18,0.0011934,10,0.00270992,-1.45194,4.32638,0.0136373,-18.8073,-0.076717,
2,0,0,1,0,34689.9,-0.0871592,-0.0875374,-35.2397,18,0.000558843,10,0.0030848,-1.45297,-53.7908,-0.00109684,1.50868,-0.0875374,
2,0,0,1,0,34689.9,-0.0979573,-0.0983525,-35.3504,18,-7.60782e-05,10,0.0034768,-1.45161,-8.56585,-0.00688782,9.48726,-0.0983525,
2,0,0,1,1,34689.9,-0.0955546,-0.0959814,-27.1251,18,-0.000430337,10,0.00260351,-1.56663,-0.0415857,-1.41876,1525.08,-0.0959814,
2,0,0,1,1,34689.9,-0.0847538,-0.0851886,-15.1119,18,-0.000801006,10,0.00128736,-1.82068,-0.0382235,-1.54355,905.381,-0.0851886,
2,0,0,1,1,34689.9,-0.0739557,-0.0743629,-6.75851,18,-0.000993429,10,0.000502582,-2.17015,-0.0217713,-2.71,676.562,-0.0743629,
2,0,0,1,1,34690,-0.0631604,-0.0635754,-0.324337,18,-0.00105417,10,2.06199e-05,-3.489,-0.0639482,-0.922622,529.081,-0.0635754,
2,1,0,1,1,34690,-0.0523512,-0.052755,4.82837,18,-0.00101141,10,-0.000254721,-2.3162,0.0235962,2.50041,431.097,-0.052755,
2,1,0,1,1,34690,-0.0415559,-0.0419961,9.02498,18,-0.000885168,10,-0.000379014,-2.04455,0.0578843,1.01927,351.882,-0.0419961,
2,1,0,1,1,34690,-0.0307579,-0.0311757,12.4848,18,-0.000690158,10,-0.000389223,-1.90362,0.0989346,0.596353,288.077,-0.0311757,
2,1,0,1,1,34690,-0.0199515,-0.0203373,15.3301,18,-0.000438743,10,-0.000311773,-1.81445,0.148507,0.397289,236.142,-0.0203373,
2,1,0,1,1,34690.1,-0.0091534,-0.00954662,17.6272,18,-0.000141414,10,-0.00016828,-1.75382,0.209137,0.282112,193.27,-0.00954662,
2,1,0,0,1,34690.1,-7.54729e-05,-0.000401673,19.1558,18,0.000137144,10,-7.69438e-06,-1.7177, , , ,-0.000401673,