File: Figure_codes/Fig_3-5/rawdata_trumpetplot_data/after 10th/20221101_1-115_003_TrumpetPlot_ParaChange_from10_every3_08_CV_C01_25.csv
mode,ox/red,error,control changes,counter inc.,time/s,control/V,Ewe/V,<I>/mA,cycle number,(Q-Qo)/C,I Range,P/W,log(|I|),Tafel slope mV/dec,alpha_eff,dI/d(E-IR),E-IR/V,
2,0,0,0,0,50428.3,2.44065e-05,-0.000363498,-3.97092,26,0.0000000E+000,10,1.44342e-06,-2.40111, , , ,-0.000363498,
2,1,0,1,0,50428.4,0.00729419,0.0069524,0.583948,26,-9.62047e-05,10,4.05984e-06,-3.23363,0.00362394,16.2806,299.077,0.006952398,
2,1,0,1,0,50428.5,0.0147816,0.014438,2.02206,26,3.6858e-05,10,2.91945e-05,-2.69421,0.036893,1.59922,124.196,0.014438,
2,1,0,1,0,50428.6,0.0222707,0.0219291,2.713,26,0.000262711,10,5.94938e-05,-2.56655,0.083479,0.706765,74.5691,0.0219291,
2,1,0,1,0,50428.6,0.0297581,0.0294223,3.15612,26,0.000539663,10,9.28603e-05,-2.50085,0.14067,0.419421,51.6059,0.0294223,
2,1,0,1,0,50428.7,0.0372544,0.0369101,3.51987,26,0.000853901,10,0.000129919,-2.45347,0.180345,0.327151,44.8684,0.0369101,
2,1,0,1,0,50428.8,0.0447507,0.0444157,3.84639,26,0.00120013,10,0.00017084,-2.41495,0.204442,0.288591,43.2984,0.04441569,
2,1,0,1,0,50428.9,0.0522381,0.0518679,4.15297,26,0.00157576,10,0.000215406,-2.38164,0.237372,0.248554,40.2602,0.0518679,
2,1,0,1,0,50429,0.0597273,0.0593945,4.44913,26,0.00197953,10,0.000264254,-2.35172,0.272545,0.216478,37.5561,0.05939446,
2,1,0,1,0,50429.1,0.0672147,0.0668723,4.72658,26,0.00240979,10,0.000316077,-2.32545,0.281343,0.209708,38.6037,0.0668723,
2,1,0,1,0,50429.2,0.0747038,0.0743644,4.97102,26,0.00286488,10,0.000369667,-2.30355,0.383653,0.153785,29.8353,0.0743644,
2,1,0,1,0,50429.3,0.0822055,0.0818746,5.19152,26,0.003343,10,0.000425053,-2.28471,0.460232,0.128196,25.968,0.0818746,
2,1,0,1,0,50429.4,0.0896946,0.0893687,5.39158,26,0.00383936,10,0.000481838,-2.26828,0.467561,0.126187,26.5416,0.0893687,
2,1,0,1,0,50429.5,0.097182,0.0968366,5.5969,26,0.00435444,10,0.000541985,-2.25205,0.377669,0.156222,34.1495,0.0968366,
2,1,0,1,0,50429.6,0.104671,0.104344,5.89995,26,0.00489254,10,0.000615625,-2.22915,0.290957,0.202779,46.6603,0.104344,
2,1,0,1,0,50429.7,0.112159,0.111843,6.29553,26,0.00546342,10,0.000704113,-2.20097,0.251175,0.234896,57.6815,0.111843,
2,1,0,1,0,50429.8,0.119655,0.119316,6.73942,26,0.00607518,10,0.000804121,-2.17138,0.267675,0.220417,57.992,0.119316,
2,1,0,1,0,50429.9,0.127149,0.12678,7.11738,26,0.00672665,10,0.000902337,-2.14768,0.39804,0.148226,41.1646,0.12678,
2,1,0,1,0,50430,0.134639,0.134298,7.39152,26,0.00740773,10,0.000992665,-2.13127,0.587608,0.100407,28.9426,0.134298,
2,1,0,1,0,50430.1,0.142126,0.141822,7.53517,26,0.00810842,10,0.00106866,-2.12291,1.40899,0.041874,12.3012,0.141822,
2,1,0,1,0,50430.1,0.149615,0.149258,7.43788,26,0.00881342,10,0.00111017,-2.12855,-0.388033,-0.152049,-44.0292,0.149258,
2,1,0,1,0,50430.2,0.157102,0.156774,6.86064,26,0.00948757,10,0.00107557,-2.16364,-0.14314,-0.412184,-109.929,0.156774,
2,1,0,1,0,50430.3,0.164606,0.16425,5.87818,26,0.0100872,10,0.000965493,-2.23076,-0.100375,-0.587796,-134.822,0.1642503,
2,1,0,1,0,50430.4,0.172095,0.171791,4.97159,26,0.0105941,10,0.000854073,-2.30351,-0.10865,-0.543027,-105.533,0.171791,
2,1,0,1,0,50430.5,0.179582,0.179276,4.34893,26,0.0110291,10,0.000779659,-2.36162,-0.149441,-0.394806,-67.1037,0.179276,
2,1,0,1,0,50430.6,0.18707,0.186733,3.93998,26,0.0114167,10,0.000735724,-2.40451,-0.228604,-0.258088,-39.7302,0.186733,
2,1,0,1,0,50430.7,0.194559,0.194216,3.67998,26,0.0117737,10,0.000714711,-2.43416,-0.287636,-0.20512,-29.4855,0.194216,
2,1,0,1,0,50430.8,0.202062,0.201758,3.5093,26,0.0121111,10,0.000708027,-2.45478,-0.410864,-0.1436,-19.6282,0.201758,
2,1,0,1,0,50430.9,0.20955,0.209187,3.37911,26,0.012434,10,0.000706865,-2.4712,-0.529589,-0.111407,-14.7085,0.209187,
2,1,0,1,0,50431,0.217039,0.216698,3.28531,26,0.0127472,10,0.000711921,-2.48342,-0.658361,-0.0896164,-11.5214,0.216698,
2,1,0,1,0,50431.1,0.224526,0.224209,3.22668,26,0.0130531,10,0.000723449,-2.49124,-0.845867,-0.0697509,-8.78663,0.224209,
2,1,0,1,0,50431.2,0.232016,0.231725,3.17202,26,0.0133535,10,0.000735035,-2.49866,-1.71424,-0.0344176,-4.2649,0.231725,
2,1,0,1,0,50431.3,0.23951,0.239186,3.13024,26,0.01365,10,0.000748709,-2.50442,-1.5508,-0.0380449,-4.65165,0.239186,
2,1,0,1,0,50431.4,0.247006,0.246646,3.10397,26,0.013943,10,0.000765585,-2.50808,-1.20669,-0.0488942,-5.91415,0.246646,
2,1,0,1,0,50431.5,0.254494,0.254152,3.06687,26,0.0142327,10,0.00077945,-2.5133,-2.49559,-0.0236417,-2.83244,0.254152,
2,1,0,1,0,50431.6,0.261983,0.261689,3.04106,26,0.0145198,10,0.000795812,-2.51698,-1.73634,-0.0339795,-4.03286,0.261689,
2,1,0,1,0,50431.6,0.26947,0.269136,3.01946,26,0.0148044,10,0.000812646,-2.52007,-1.66976,-0.0353344,-4.1617,0.269136,
2,1,0,1,0,50431.7,0.276959,0.276652,2.99066,26,0.0150868,10,0.000827375,-2.52423,-6.0078,-0.00982057,-1.14743,0.276652,
2,1,0,1,0,50431.8,0.284461,0.284162,2.96567,26,0.0153674,10,0.00084273,-2.52788,-2.02719,-0.0291043,-3.36941,0.2841616,
2,1,0,1,0,50431.9,0.29195,0.291613,2.94606,26,0.0156451,10,0.00085911,-2.53076,-1.61074,-0.0366291,-4.20523,0.291613,
2,1,0,1,0,50432,0.299438,0.299133,2.91628,26,0.0159204,10,0.000872355,-2.53517,-0.0327634,-1.80079,-190.335,0.299133,
2,0,0,1,0,50432.1,0.29424,0.293881,-0.147608,26,0.0160042,10,-4.33791e-05,-3.83089,-0.0348986,-1.69061,213.238,0.293881,
2,0,0,1,0,50432.2,0.286753,0.286429,-0.996176,26,0.0159419,10,-0.000285334,-3.00166,-0.0345967,-1.70537,65.1152,0.286429,
2,0,0,1,0,50432.3,0.279264,0.278892,-1.33647,26,0.0158299,10,-0.000372732,-2.87404,-0.0868117,-0.679632,35.3721,0.278892,
2,0,0,1,0,50432.4,0.271776,0.271467,-1.54784,26,0.0156932,10,-0.000420186,-2.81027,-0.153646,-0.384,23.1393,0.271467,
2,0,0,1,0,50432.5,0.26428,0.263924,-1.70299,26,0.0155397,10,-0.00044946,-2.76879,-0.207015,-0.285003,18.9069,0.263924,
2,0,0,1,0,50432.6,0.256786,0.256479,-1.82644,26,0.0153734,10,-0.000468443,-2.73839,-0.252739,-0.233442,16.6232,0.256479,
2,0,0,1,0,50432.7,0.249296,0.248967,-1.92936,26,0.0151965,10,-0.000480347,-2.71459,-0.413826,-0.142572,10.7297,0.248967,
2,0,0,1,0,50432.8,0.241809,0.24145,-2.02015,26,0.0150103,10,-0.000487765,-2.69462,-0.351485,-0.167859,13.2596,0.24145,
2,0,0,1,0,50432.8,0.23432,0.233978,-2.10829,26,0.0148158,10,-0.000493293,-2.67607,-0.441591,-0.133608,11.0108,0.233978,
2,0,0,1,0,50432.9,0.226833,0.226455,-2.19506,26,0.0146135,10,-0.000497082,-2.65855,-0.503961,-0.117072,9.99894,0.226455,
2,0,0,1,0,50433,0.219329,0.218983,-2.2794,26,0.0144034,10,-0.00049915,-2.64218,-0.527795,-0.111786,9.90118,0.2189832,
2,0,0,1,0,50433.1,0.21184,0.2115,-2.34287,26,0.0141864,10,-0.000495516,-2.63025,-0.556482,-0.106023,9.69696,0.2115,
2,0,0,1,0,50433.2,0.204353,0.204004,-2.42221,26,0.0139623,10,-0.000494139,-2.61579,-0.830945,-0.0710035,6.71723,0.204004,
2,0,0,1,0,50433.3,0.196863,0.196507,-2.5001,26,0.0137311,10,-0.000491286,-2.60204,-0.612799,-0.0962795,9.39317,0.196507,
2,0,0,1,0,50433.4,0.189376,0.189043,-2.58046,26,0.0134923,10,-0.000487818,-2.5883,-0.47014,-0.125494,12.6579,0.189043,
2,0,0,1,0,50433.5,0.18188,0.181558,-2.67043,26,0.0132451,10,-0.000484838,-2.57342,-0.441348,-0.133681,13.9532,0.181558,
2,0,0,1,0,50433.6,0.174385,0.174033,-2.78173,26,0.0129888,10,-0.000484113,-2.55569,-0.464582,-0.126996,13.7791,0.174033,
2,0,0,1,0,50433.7,0.166896,0.166557,-2.91151,26,0.0127219,10,-0.000484931,-2.53588,-0.31339,-0.188264,21.3691,0.166557,
2,0,0,1,0,50433.8,0.159409,0.159051,-3.0753,26,0.0124412,10,-0.000489131,-2.51211,-0.286923,-0.20563,24.7025,0.159051,
2,0,0,1,0,50433.9,0.151919,0.151566,-3.32219,26,0.0121416,10,-0.00050353,-2.47858,-0.200608,-0.294106,38.1427,0.151566,
2,0,0,1,0,50434,0.144425,0.144041,-3.69786,26,0.0118132,10,-0.000532643,-2.43205,-0.125884,-0.468686,67.776,0.144041,
2,0,0,1,0,50434.1,0.136929,0.136585,-4.28775,26,0.0114396,10,-0.000585643,-2.36777,-0.104594,-0.564088,94.6099,0.136585,
2,0,0,1,0,50434.2,0.129441,0.129136,-5.08322,26,0.0110009,10,-0.000656425,-2.29386,-0.107173,-0.550512,109.05,0.129136,
2,0,0,1,0,50434.3,0.121952,0.121639,-5.88776,26,0.0104862,10,-0.00071618,-2.23005,-0.130435,-0.452332,103.804,0.121639,
2,0,0,1,0,50434.3,0.114465,0.114105,-6.59261,26,0.00989997,10,-0.000752251,-2.18094,-0.184677,-0.319478,82.1451,0.114105,
2,0,0,1,0,50434.4,0.106976,0.106584,-7.14219,26,0.00925484,10,-0.000761244,-2.14617,-0.27782,-0.212367,59.1336,0.1065841,
2,0,0,1,0,50434.5,0.0994721,0.0991516,-7.47265,26,0.00856649,10,-0.000740926,-2.12653,-0.580883,-0.10157,29.586,0.0991516,
2,0,0,1,0,50434.6,0.0919847,0.0916476,-7.54483,26,0.00786037,10,-0.000691465,-2.12235,4.56292,0.0129303,-3.80684,0.09164758,
2,0,0,1,0,50434.7,0.0844973,0.084119,-7.42679,26,0.00715733,10,-0.000624735,-2.1292,0.613435,0.0961797,-27.8503,0.084119,
2,0,0,1,0,50434.8,0.0770082,0.0766617,-7.21531,26,0.00647138,10,-0.000553138,-2.14175,0.631681,0.0934016,-26.2953,0.0766617,
2,0,0,1,0,50434.9,0.0695208,0.0691518,-7.02715,26,0.00580399,10,-0.00048594,-2.15322,0.755913,0.0780514,-21.4298,0.0691518,
2,0,0,1,0,50435,0.0620245,0.0616426,-6.88917,26,0.00515096,10,-0.000424666,-2.16183,0.757269,0.0779115,-20.9484,0.0616426,
2,0,0,1,0,50435.1,0.0545282,0.0542344,-6.74984,26,0.00451132,10,-0.000366074,-2.17071,0.973779,0.0605887,-15.9503,0.0542344,
2,0,0,1,0,50435.2,0.0470408,0.0467058,-6.58715,26,0.00388609,10,-0.000307658,-2.1813,0.699234,0.084378,-21.6945,0.0467058,
2,0,0,1,0,50435.3,0.0395517,0.0392014,-6.42248,26,0.00327636,10,-0.00025177,-2.1923,0.582425,0.101301,-25.3571,0.0392014,
2,0,0,1,0,50435.4,0.0320643,0.0317346,-6.22005,26,0.00268398,10,-0.00019739,-2.20621,0.50072,0.11783,-28.5737,0.0317346,
2,0,0,1,0,50435.5,0.0245751,0.0242339,-5.98343,26,0.00211172,10,-0.000145002,-2.22305,0.405345,0.145555,-34.0186,0.0242339,
2,0,0,1,0,50435.6,0.0170735,0.0167357,-5.75303,26,0.00156017,10,-9.62807e-05,-2.2401,0.430094,0.137179,-30.8273,0.0167357,
2,0,0,1,0,50435.7,0.00958429,0.00919925,-5.54475,26,0.0010306,10,-5.10075e-05,-2.25612,0.593088,0.0994794,-21.5403,0.00919925,
2,0,0,1,0,50435.8,0.0020969,0.00170577,-5.41773,26,0.000518409,10,-9.24141e-06,-2.26618,1.04955,0.0562143,-11.8304,0.00170577,
2,0,0,1,0,50435.8,0.000199195,-0.000178351,-5.3693,26,0.000390297,10,9.57621e-07,-2.27008, , , ,-0.000178351,