File: Figure_codes/Fig_3-5/rawdata_trumpetplot_data/after 10th/20221101_1-115_003_TrumpetPlot_ParaChange_from10_every3_06_CV_C01_29.csv
mode,ox/red,error,control changes,counter inc.,time/s,control/V,Ewe/V,<I>/mA,cycle number,(Q-Qo)/C,I Range,P/W,log(|I|),Tafel slope mV/dec,alpha_eff,dI/d(E-IR),E-IR/V,
2,0,0,0,0,58283.8,2.44065e-05,-0.000382585,-1.41153,30,0.0000000E+000,10,5.4003e-07,-2.85031, , , ,-0.000382585,
2,1,0,1,0,58284,0.00729063,0.00693297,0.970586,30,4.3292e-05,10,6.72904e-06,-3.01297,0.0191108,3.08727,109.526,0.00693297,
2,1,0,1,0,58284.2,0.014778,0.0143774,1.4289,30,0.000277813,10,2.05438e-05,-2.845,0.0828686,0.71197,39.5426,0.0143774,
2,1,0,1,0,58284.4,0.0222743,0.0219208,1.65516,30,0.000571394,10,3.62824e-05,-2.78116,0.147348,0.400411,25.8525,0.0219208,
2,1,0,1,0,58284.5,0.0297626,0.0294374,1.83332,30,0.000900951,10,5.39683e-05,-2.73676,0.193371,0.305113,21.7666,0.0294374,
2,1,0,1,0,58284.7,0.0372544,0.036916,1.99476,30,0.00126218,10,7.36386e-05,-2.70011,0.22447,0.262842,20.4903,0.03691604,
2,1,0,1,0,58284.9,0.0447472,0.0444036,2.15425,30,0.00165371,10,9.56566e-05,-2.6667,0.243441,0.242358,20.378,0.0444036,
2,1,0,1,0,58285.1,0.0522345,0.0519025,2.31053,30,0.00207468,10,0.000119922,-2.63629,0.25776,0.228895,20.6401,0.0519025,
2,1,0,1,0,58285.3,0.0597308,0.0593957,2.45445,30,0.00252454,10,0.000145783,-2.61005,0.297059,0.198614,19.0691,0.0593957,
2,1,0,1,0,58285.5,0.0672182,0.0668903,2.59531,30,0.00300005,10,0.000173601,-2.58581,0.348059,0.169512,17.1172,0.0668903,
2,1,0,1,0,58285.7,0.0747074,0.0743581,2.70594,30,0.00349911,10,0.000201208,-2.56768,0.427282,0.138082,14.5913,0.0743581,
2,1,0,1,0,58285.9,0.0822019,0.0818534,2.80175,30,0.00401893,10,0.000229332,-2.55257,0.609991,0.0967227,10.5987,0.08185342,
2,1,0,1,0,58286,0.0896911,0.0893333,2.90334,30,0.00455569,10,0.000259365,-2.5371,0.47009,0.125508,14.2113,0.0893333,
2,1,0,1,0,58286.2,0.097182,0.0968189,3.02388,30,0.00511288,10,0.000292768,-2.51944,0.319754,0.184517,21.8208,0.0968189,
2,1,0,1,0,58286.4,0.104675,0.104294,3.2361,30,0.00570026,10,0.000337506,-2.48998,0.230258,0.256234,32.3074,0.104294,
2,1,0,1,0,58286.6,0.112162,0.111842,3.493,30,0.00633158,10,0.000390666,-2.4568,0.238327,0.247559,33.6478,0.111842,
2,1,0,1,0,58286.8,0.119655,0.11933,3.72252,30,0.00701064,10,0.000444207,-2.42916,0.348911,0.169097,24.5569,0.11933,
2,1,0,1,0,58287,0.127146,0.126795,3.87047,30,0.00772617,10,0.000490758,-2.41224,0.631893,0.0933703,14.1078,0.126795,
2,1,0,1,0,58287.2,0.134635,0.134268,3.94906,30,0.00846192,10,0.000530231,-2.40351,1.6109,0.0366254,5.64414,0.1342677,
2,1,0,1,0,58287.4,0.14213,0.141768,3.92309,30,0.00920541,10,0.000556171,-2.40637,-0.554811,-0.106342,-16.2597,0.1417685,
2,1,0,1,0,58287.5,0.149619,0.149288,3.63146,30,0.00992065,10,0.000542134,-2.43992,-0.137697,-0.428476,-60.4779,0.149288,
2,1,0,1,0,58287.7,0.157106,0.156776,3.08635,30,0.0105534,10,0.000483865,-2.51055,-0.0945557,-0.623971,-75.0941,0.156776,
2,1,0,1,0,58287.9,0.164602,0.164259,2.58553,30,0.0110848,10,0.000424697,-2.58745,-0.105062,-0.561574,-56.8031,0.164259,
2,1,0,1,0,58288.1,0.172091,0.171745,2.25497,30,0.011538,10,0.000387279,-2.64686,-0.142448,-0.414187,-36.4282,0.171745,
2,1,0,1,0,58288.3,0.179582,0.179185,2.0429,30,0.0119414,10,0.000366056,-2.68975,-0.2247,-0.262573,-20.9823,0.179185,
2,1,0,1,0,58288.5,0.187074,0.186696,1.91898,30,0.0123143,10,0.000358266,-2.71693,-0.356537,-0.165481,-12.3971,0.1866958,
2,1,0,1,0,58288.7,0.194563,0.194208,1.84445,30,0.0126681,10,0.000358208,-2.73413,-0.507383,-0.116283,-8.34408,0.194208,
2,1,0,1,0,58288.9,0.202059,0.201697,1.78649,30,0.0130103,10,0.00036033,-2.748,-0.822606,-0.0717233,-5.00296,0.201697,
2,1,0,1,0,58289,0.209546,0.209183,1.75272,30,0.0133445,10,0.00036664,-2.75629,-0.763412,-0.0772846,-5.29574,0.209183,
2,1,0,1,0,58289.2,0.217035,0.216673,1.72731,30,0.0136726,10,0.00037426,-2.76263,-1.15332,-0.0511564,-3.44551,0.2166726,
2,1,0,1,0,58289.4,0.22453,0.224193,1.70006,30,0.0139969,10,0.000381142,-2.76953,-1.20439,-0.0489876,-3.26456,0.224193,
2,1,0,1,0,58289.6,0.232019,0.23168,1.69029,30,0.0143173,10,0.000391605,-2.77204,-2.50898,-0.0235155,-1.55051,0.23168,
2,1,0,1,0,58289.8,0.23951,0.23914,1.67569,30,0.014635,10,0.000400724,-2.77581,-2.37216,-0.0248718,-1.62675,0.23914,
2,1,0,1,0,58290,0.247003,0.246685,1.66304,30,0.0149504,10,0.000410248,-2.7791,-1.1579,-0.0509543,-3.31156,0.246685,
2,1,0,1,0,58290.2,0.25449,0.254127,1.6523,30,0.0152635,10,0.000419895,-2.78191,-2.16424,-0.0272613,-1.75699,0.254127,
2,1,0,1,0,58290.3,0.261983,0.261638,1.64298,30,0.0155747,10,0.000429865,-2.78437,-2.07676,-0.0284097,-1.82155,0.261638,
2,1,0,1,0,58290.5,0.269474,0.269083,1.62961,30,0.015884,10,0.0004385,-2.78792,-3.78775,-0.0155765,-0.993756,0.269083,
2,1,0,1,0,58290.7,0.276963,0.276622,1.62067,30,0.016191,10,0.000448314,-2.7903,-4.01207,-0.0147056,-0.928577,0.276622,
2,1,0,1,0,58290.9,0.284458,0.284101,1.608,30,0.0164961,10,0.000456835,-2.79371,-2.87642,-0.0205116,-1.28787,0.284101,
2,1,0,1,0,58291.1,0.291947,0.29162,1.59468,30,0.0167986,10,0.000465042,-2.79733,-1.33511,-0.044191,-2.75128,0.29162,
2,1,0,1,0,58291.3,0.299434,0.299116,1.58281,30,0.0170985,10,0.000473444,-2.80057,-0.0204793,-2.88096,-157.099,0.299116,
2,0,0,1,0,58291.4,0.294196,0.293816,-0.225153,30,0.0171597,10,-6.61537e-05,-3.64752,-0.00291936,-20.2099,85.3038,0.293816,
2,0,0,1,0,58291.6,0.286701,0.286358,-0.542352,30,0.017079,10,-0.000155307,-3.26572,-0.0480158,-1.22876,25.6731,0.286358,
2,0,0,1,0,58291.8,0.279212,0.278887,-0.685902,30,0.0169596,10,-0.000191289,-3.16374,-0.105315,-0.560226,15.0137,0.278887,
2,0,0,1,0,58292,0.271725,0.271355,-0.78115,30,0.0168183,10,-0.000211969,-3.10727,-0.145958,-0.404227,12.4002,0.271355,
2,0,0,1,0,58292.2,0.264228,0.263915,-0.863365,30,0.0166608,10,-0.000227855,-3.06381,-0.232876,-0.253353,8.483,0.263915,
2,0,0,1,0,58292.4,0.256741,0.256361,-0.922709,30,0.0164905,10,-0.000236547,-3.03494,-0.275136,-0.214439,7.72733,0.256361,
2,0,0,1,0,58292.6,0.249248,0.248885,-0.982886,30,0.0163089,10,-0.000244625,-3.0075,-0.334468,-0.176399,6.75883,0.248885,
2,0,0,1,0,58292.8,0.241756,0.241413,-1.03282,30,0.0161174,10,-0.000249337,-2.98597,-0.35997,-0.163903,6.59011,0.241413,
2,0,0,1,0,58292.9,0.234268,0.233894,-1.07465,30,0.0159168,10,-0.000251353,-2.96873,-0.396268,-0.148889,6.28453,0.233894,
2,0,0,1,0,58293.1,0.226772,0.226428,-1.12369,30,0.0157072,10,-0.000254435,-2.94935,-0.35522,-0.166094,7.29264,0.226428,
2,0,0,1,0,58293.3,0.219284,0.218924,-1.17308,30,0.0154897,10,-0.000256815,-2.93067,-0.400178,-0.147434,6.70567,0.218924,
2,0,0,1,0,58293.5,0.211796,0.21144,-1.20933,30,0.0152639,10,-0.000255701,-2.91746,-0.529085,-0.111513,5.27762,0.21144,
2,0,0,1,0,58293.7,0.204301,0.203911,-1.259,30,0.0150296,10,-0.000256724,-2.89997,-0.863843,-0.0682994,3.34652,0.203911,
2,0,0,1,0,58293.9,0.196812,0.196434,-1.29679,30,0.0147877,10,-0.000254734,-2.88713,-0.458298,-0.128737,6.5247,0.196434,
2,0,0,1,0,58294.1,0.189321,0.18892,-1.34561,30,0.014537,10,-0.000254213,-2.87108,-0.479665,-0.123003,6.46652,0.18892,
2,0,0,1,0,58294.3,0.181828,0.181458,-1.39914,30,0.0142771,10,-0.000253884,-2.85414,-0.428433,-0.137711,7.50015,0.181458,
2,0,0,1,0,58294.4,0.174341,0.173957,-1.45686,30,0.014007,10,-0.00025343,-2.83658,-0.375746,-0.157021,8.92943,0.173957,
2,0,0,1,0,58294.6,0.166848,0.166455,-1.53033,30,0.0137244,10,-0.000254732,-2.81521,-0.351956,-0.167635,9.99998,0.166455,
2,0,0,1,0,58294.8,0.159357,0.159005,-1.62982,30,0.0134262,10,-0.000259149,-2.78786,-0.25237,-0.233784,14.8231,0.159005,
2,0,0,1,0,58295,0.151868,0.151492,-1.76442,30,0.0131063,10,-0.000267295,-2.7534,-0.179033,-0.329549,22.7966,0.151492,
2,0,0,1,0,58295.2,0.144373,0.143997,-1.99471,30,0.0127525,10,-0.000287232,-2.70012,-0.115366,-0.511417,39.9378,0.143997,
2,0,0,1,0,58295.4,0.136884,0.136494,-2.36263,30,0.012344,10,-0.000322484,-2.6266,-0.0953084,-0.619043,56.9937,0.136494,
2,0,0,1,0,58295.6,0.129393,0.129036,-2.82313,30,0.0118561,10,-0.000364286,-2.54927,-0.102073,-0.578019,63.7356,0.129036,
2,0,0,1,0,58295.8,0.1219,0.121549,-3.28228,30,0.0112801,10,-0.000398957,-2.48382,-0.140431,-0.420134,53.685,0.121549,
2,0,0,1,0,58295.9,0.114413,0.114023,-3.65725,30,0.0106262,10,-0.000417012,-2.43685,-0.207337,-0.284561,40.4969,0.114023,
2,0,0,1,0,58296.1,0.10692,0.106548,-3.8946,30,0.00991349,10,-0.000414962,-2.40954,-0.425186,-0.138763,21.0975,0.106548,
2,0,0,1,0,58296.3,0.0994284,0.0990874,-3.97245,30,0.00917045,10,-0.00039362,-2.40094,18.1098,0.00325791,-0.504411,0.0990874,
2,0,0,1,0,58296.5,0.0919401,0.0915944,-3.91332,30,0.0084277,10,-0.000358438,-2.40746,0.700722,0.0841988,-12.8516,0.0915944,
2,0,0,1,0,58296.7,0.0844447,0.0840853,-3.79697,30,0.00770178,10,-0.000319269,-2.42056,0.67486,0.0874256,-12.9802,0.0840853,
2,0,0,1,0,58296.9,0.0769565,0.0765783,-3.70438,30,0.00699715,10,-0.000283675,-2.43128,0.74558,0.079133,-11.4251,0.0765783,
2,0,0,1,0,58297.1,0.0694682,0.0691246,-3.6219,30,0.0063086,10,-0.000250363,-2.44106,0.85772,0.068787,-9.72331,0.0691246,
2,0,0,1,0,58297.2,0.0619728,0.0615612,-3.54394,30,0.00563362,10,-0.000218169,-2.45051,0.688621,0.0856785,-11.8627,0.0615612,
2,0,0,1,0,58297.4,0.0544836,0.0541305,-3.45978,30,0.004975,10,-0.000187279,-2.46095,0.834566,0.0706955,-9.53074,0.0541305,
2,0,0,1,0,58297.6,0.0469927,0.0466422,-3.35979,30,0.00433305,10,-0.000156708,-2.47369,0.657794,0.0896938,-11.7648,0.0466422,
2,0,0,1,0,58297.8,0.0394999,0.0391478,-3.25809,30,0.00370987,10,-0.000127547,-2.48704,0.508708,0.11598,-14.7413,0.0391478,
2,0,0,1,0,58298,0.0320125,0.0316035,-3.14329,30,0.00310782,10,-9.9339e-05,-2.50262,0.456489,0.129247,-15.8316,0.0316035,
2,0,0,1,0,58298.2,0.0245198,0.0241105,-3.01555,30,0.00252788,10,-7.27064e-05,-2.52063,0.430656,0.137,-16.1682,0.0241105,
2,0,0,1,0,58298.4,0.0170289,0.0166378,-2.90838,30,0.00196988,10,-4.83893e-05,-2.53635,0.502366,0.117444,-13.3536,0.0166378,
2,0,0,1,0,58298.6,0.0095397,0.00919226,-2.82424,30,0.0014307,10,-2.59611e-05,-2.5491,0.814961,0.0723961,-7.97116,0.00919226,
2,0,0,1,0,58298.7,0.00204518,0.00165925,-2.79129,30,0.000904387,10,-4.63143e-06,-2.5542,2.69111,0.021924,-2.37128,0.00165925,
2,0,0,1,0,58298.8,0.000177222,-0.000234086,-2.76674,30,0.000773933,10,6.47655e-07,-2.55803, , , ,-0.000234086,