File: Figure_codes/Fig_3-5/rawdata_trumpetplot_data/after 10th/20221101_1-115_003_TrumpetPlot_ParaChange_from10_every3_10_CV_C01_0.csv
mode,ox/red,error,control changes,counter inc.,time/s,control/V,Ewe/V,<I>/mA,cycle number,(Q-Qo)/C,I Range,P/W,log(|I|),Tafel slope mV/dec,alpha_eff,dI/d(E-IR),E-IR/V,
2,1,0,1,0,1190.52,-2.44065e-05,-0.000344411,5.42582,1,0.0000000E+000,10,-1.86871e-06,-2.26554, , , ,-0.000344411,
2,1,0,1,0,1190.57,0.00977853,0.00943437,9.0646,1,0.000375389,10,8.55187e-05,-2.04265,0.119268,0.494682,173.761,0.00943437,
2,1,0,1,0,1190.62,0.0197755,0.0194795,10.0749,1,0.000858262,10,0.000196254,-1.99676,0.389419,0.151508,59.6065,0.0194795,
2,1,0,1,0,1190.67,0.0297726,0.0294457,10.5922,1,0.00137578,10,0.000311893,-1.97502,0.552358,0.106815,44.097,0.0294457,
2,1,0,1,0,1190.72,0.0397514,0.0394304,11.0758,1,0.00191594,10,0.000436724,-1.95562,0.405936,0.145343,62.907,0.0394304,
2,1,0,1,0,1190.77,0.0497393,0.0494154,11.7448,1,0.00248439,10,0.000580372,-1.93016,0.358955,0.164366,75.1816,0.0494154,
2,1,0,1,0,1190.82,0.0597364,0.0594232,12.5712,1,0.00309111,10,0.00074702,-1.90062,0.300127,0.196584,96.4545,0.0594232,
2,1,0,1,0,1190.87,0.0697152,0.0694086,13.5257,1,0.00374221,10,0.000938797,-1.86884,0.326798,0.18054,95.3053,0.0694086,
2,1,0,1,0,1190.92,0.0796941,0.0793972,14.5655,1,0.00444327,10,0.00115646,-1.83667,0.328035,0.179859,102.289,0.0793972,
2,1,0,1,0,1190.97,0.0896911,0.0893469,15.5735,1,0.00519726,10,0.00139144,-1.80761,0.362823,0.162614,98.7955,0.0893469,
2,1,0,1,0,1191.02,0.099679,0.0993566,16.5519,1,0.00599879,10,0.00164454,-1.78115,0.389862,0.151335,97.745,0.0993566,
2,1,0,1,0,1191.07,0.109658,0.109349,17.6001,1,0.00684989,10,0.00192455,-1.75448,0.345905,0.170567,117.096,0.109349,
2,1,0,1,0,1191.12,0.119655,0.11931,18.962,1,0.00776226,10,0.00226235,-1.72212,0.281779,0.209384,155.1,0.11931,
2,1,0,1,0,1191.17,0.129652,0.129324,20.6812,1,0.00875281,10,0.00267458,-1.68442,0.258431,0.228301,184.236,0.129324,
2,1,0,1,0,1191.22,0.139631,0.139326,22.4553,1,0.00983012,10,0.00312861,-1.64868,0.306705,0.192368,168.645,0.139326,
2,1,0,1,0,1191.27,0.149619,0.14931,24.027,1,0.0109912,10,0.00358746,-1.6193,0.392824,0.150195,140.617,0.14931,
2,1,0,1,0,1191.32,0.159616,0.15931,24.9749,1,0.0122204,10,0.00397875,-1.6025,1.60487,0.036763,35.8263,0.15931,
2,1,0,1,0,1191.37,0.169595,0.169309,24.2642,1,0.0134597,10,0.00410816,-1.61503,-0.253725,-0.232535,-219.335,0.169309,
2,1,0,1,0,1191.42,0.179573,0.179271,20.3662,1,0.0145858,10,0.00365106,-1.69109,-0.0887135,-0.665062,-527.891,0.1792707,
2,1,0,1,0,1191.47,0.18957,0.189272,15.178,1,0.0154707,10,0.00287278,-1.81879,-0.0772718,-0.763538,-452.821,0.189272,
2,1,0,1,0,1191.52,0.199558,0.199227,11.8919,1,0.0161359,10,0.0023692,-1.92475,-0.125646,-0.469572,-218.353,0.199227,
2,1,0,1,0,1191.57,0.209537,0.209267,10.3822,1,0.0166862,10,0.00217265,-1.98371,-0.219424,-0.268886,-108.9,0.2092673,
2,1,0,1,0,1191.62,0.219534,0.219199,9.55597,1,0.0171826,10,0.00209466,-2.01973,-0.359435,-0.164146,-61.332,0.219199,
2,1,0,1,0,1191.67,0.229531,0.229232,9.04926,1,0.0176474,10,0.00207438,-2.04339,-0.439123,-0.134359,-47.4101,0.229232,
2,1,0,1,0,1191.72,0.23951,0.239217,8.67154,1,0.0180891,10,0.00207438,-2.0619,-0.665473,-0.0886587,-30.0578,0.239217,
2,1,0,1,0,1191.77,0.249498,0.249219,8.40156,1,0.0185147,10,0.00209383,-2.07564,-0.731419,-0.0806651,-26.4018,0.249219,
2,1,0,1,0,1191.82,0.259495,0.259223,8.16149,1,0.0189285,10,0.00211565,-2.08823,-0.804705,-0.0733188,-23.3928,0.259223,
2,1,0,1,0,1191.87,0.269474,0.269166,7.9828,1,0.0193313,10,0.0021487,-2.09784,-1.15662,-0.0510109,-15.8859,0.269166,
2,1,0,1,0,1191.92,0.279453,0.27916,7.81478,1,0.0197256,10,0.00218157,-2.10708,-1.24628,-0.0473409,-14.4673,0.27916,
2,1,0,1,0,1191.97,0.28945,0.289149,7.67789,1,0.020113,10,0.00222006,-2.11476,-1.64004,-0.0359748,-10.7589,0.289149,
2,1,0,1,0,1192.02,0.299438,0.299177,7.54461,1,0.0204927,10,0.00225717,-2.12236,-0.0489607,-1.20505,-336.956,0.299177,
2,0,0,1,0,1192.06,0.291747,0.291414,-1.73588,1,0.0205668,10,-0.000505858,-2.76048,-0.00985246,-5.98835,350.102,0.2914139,
2,0,0,1,0,1192.11,0.28175,0.281441,-3.3757,1,0.0204288,10,-0.000950058,-2.47164,-0.0946187,-0.623555,81.6623,0.281441,
2,0,0,1,0,1192.16,0.27178,0.271449,-3.98244,1,0.0202441,10,-0.00108103,-2.39985,-0.180379,-0.327089,50.8294,0.271449,
2,0,0,1,0,1192.21,0.261783,0.261475,-4.41373,1,0.0200338,10,-0.00115408,-2.35519,-0.283064,-0.208434,35.8069,0.261475,
2,0,0,1,0,1192.26,0.251786,0.251464,-4.75231,1,0.0198044,10,-0.00119504,-2.32309,-0.330305,-0.178623,33.1676,0.251464,
2,0,0,1,0,1192.31,0.241807,0.241486,-5.06154,1,0.0195592,10,-0.00122229,-2.29572,-0.39454,-0.149541,29.5773,0.241486,
2,0,0,1,0,1192.36,0.231824,0.23147,-5.35763,1,0.0192991,10,-0.00124013,-2.27103,-0.387914,-0.152096,31.8018,0.23147,
2,0,0,1,0,1192.41,0.221822,0.221494,-5.6441,1,0.0190242,10,-0.00125014,-2.24841,-0.43127,-0.136805,30.0908,0.221494,
2,0,0,1,0,1192.46,0.211844,0.211557,-5.93356,1,0.0187353,10,-0.00125528,-2.22668,-0.510772,-0.115511,26.8049,0.211557,
2,0,0,1,0,1192.51,0.201865,0.201579,-6.27386,1,0.0184306,10,-0.00126468,-2.20247,-0.437235,-0.134939,33.0676,0.201579,
2,0,0,1,0,1192.56,0.191868,0.191553,-6.6697,1,0.018107,10,-0.0012776,-2.17589,-0.340345,-0.173353,45.2488,0.191553,
2,0,0,1,0,1192.61,0.18188,0.181567,-7.21562,1,0.0177613,10,-0.00131012,-2.14173,-0.251247,-0.234829,66.042,0.181567,
2,0,0,1,0,1192.66,0.171901,0.171566,-7.95565,1,0.0173841,10,-0.00136492,-2.09932,-0.204415,-0.288628,89.6347,0.171566,
2,0,0,1,0,1192.71,0.161904,0.161598,-9.09114,1,0.0169599,10,-0.00146911,-2.04138,-0.153558,-0.384219,136.38,0.161598,
2,0,0,1,0,1192.76,0.151907,0.151586,-10.8596,1,0.0164641,10,-0.00164617,-1.96419,-0.112731,-0.523369,222.124,0.151586,
2,0,0,1,0,1192.81,0.141928,0.14162,-13.498,1,0.0158595,10,-0.00191158,-1.86973,-0.100471,-0.587236,309.251,0.14162,
2,0,0,1,0,1192.86,0.13194,0.131657,-16.6819,1,0.0151066,10,-0.00219628,-1.77775,-0.117259,-0.50316,328.1,0.131657,
2,0,0,1,0,1192.91,0.121943,0.121655,-19.9026,1,0.0141893,10,-0.00242124,-1.70109,-0.1614,-0.36555,283.412,0.121655,
2,0,0,1,0,1192.96,0.111964,0.111692,-22.3189,1,0.0131321,10,-0.00249284,-1.65133,-0.255169,-0.23122,201.309,0.1116918,
2,0,0,1,0,1193.01,0.101985,0.101674,-23.7434,1,0.0119775,10,-0.00241408,-1.62446,-0.715163,-0.0824986,76.3372,0.101674,
2,0,0,1,0,1193.06,0.0919883,0.0916469,-23.8958,1,0.0107811,10,-0.00218998,-1.62168,1.29712,0.0454855,-42.4068,0.09164691,
2,0,0,1,0,1193.11,0.0820004,0.0816817,-22.8478,1,0.00961026,10,-0.00186625,-1.64116,0.343925,0.171549,-152.782,0.0816817,
2,0,0,1,0,1193.16,0.0720215,0.071718,-21.1387,1,0.0085126,10,-0.00151602,-1.67492,0.285596,0.206586,-170.496,0.071718,
2,0,0,1,0,1193.21,0.0620245,0.0617128,-19.6398,1,0.00749515,10,-0.00121203,-1.70686,0.344389,0.171318,-131.327,0.0617128,
2,0,0,1,0,1193.26,0.0520275,0.0517483,-18.4788,1,0.00654334,10,-0.000956248,-1.73333,0.389514,0.151471,-109.212,0.0517483,
2,0,0,1,0,1193.31,0.0420486,0.0417582,-17.409,1,0.0056478,10,-0.000726968,-1.75923,0.372943,0.158201,-107.56,0.0417582,
2,0,0,1,0,1193.36,0.0320607,0.031724,-16.223,1,0.00480766,10,-0.000514659,-1.78987,0.28302,0.208466,-131.863,0.031724,
2,0,0,1,0,1193.41,0.0220637,0.0217474,-14.8377,1,0.00403125,10,-0.000322682,-1.82863,0.251255,0.234821,-135.956,0.0217474,
2,0,0,1,0,1193.46,0.0120848,0.0117466,-13.6285,1,0.0033229,10,-0.000160089,-1.86555,0.308039,0.191534,-101.884,0.01174661,
2,0,0,1,0,1193.51,0.00210598,0.0017899,-12.8956,1,0.00266466,10,-2.30817e-05,-1.88956,0.669422,0.0881357,-44.2623,0.0017899,
2,0,0,1,0,1193.56,-0.00789103,-0.00824049,-12.4826,1,0.00203142,10,0.000102862,-1.9037,1.60486,0.0367633,-17.9444,-0.00824049,
2,0,0,1,0,1193.61,-0.017879,-0.018242,-12.442,1,0.00141031,10,0.000226967,-1.90511,-3.34209,-0.0176536,8.56653,-0.018242,
2,0,0,1,0,1193.66,-0.0278578,-0.0281998,-12.5645,1,0.000787247,10,0.000354317,-1.90085,-1.51072,-0.0390541,19.1619,-0.0281998,
2,0,0,1,0,1193.71,-0.0378548,-0.0381989,-12.8302,1,0.000152901,10,0.000490101,-1.89177,-0.997284,-0.0591607,29.5961,-0.0381989,
2,0,0,1,0,1193.76,-0.0478519,-0.048159,-13.1605,1,-0.000496827,10,0.000633798,-1.88073,-0.711581,-0.0829139,42.6493,-0.048159,
2,0,0,1,0,1193.81,-0.0578126,-0.0581556,-13.5876,1,-0.00116299,10,0.000790195,-1.86686,-0.700185,-0.0842634,44.6893,-0.0581556,
2,0,0,1,0,1193.86,-0.0678187,-0.0681782,-14.0884,1,-0.00185479,10,0.000960518,-1.85114,-0.579268,-0.101853,55.9932,-0.0681782,
2,0,0,1,0,1193.91,-0.0778157,-0.0782007,-14.6762,1,-0.00257366,10,0.00114769,-1.83338,-0.544659,-0.108325,62.0678,-0.07820075,
2,0,0,1,0,1193.96,-0.0877945,-0.0881485,-15.3997,1,-0.00332362,10,0.00135746,-1.81249,-0.462598,-0.127541,76.6377,-0.0881485,
2,0,0,1,0,1194.01,-0.0977734,-0.0981279,-16.2095,1,-0.00411213,10,0.0015906,-1.79023,-0.422104,-0.139776,88.4555,-0.0981279,
2,0,0,1,1,1194.05,-0.0936874,-0.0940855,-4.53185,1,-0.00459504,10,0.000426381,-2.34372,-0.00778212,-7.58148,1268.66,-0.0940855,
2,1,0,1,1,1194.1,-0.0837086,-0.0841031,3.64722,1,-0.00458675,10,-0.000306743,-2.43804,0.0151996,3.88169,524.687,-0.08410307,
2,1,0,1,1,1194.15,-0.0737025,-0.0740501,7.43521,1,-0.00429822,10,-0.000550578,-2.12871,0.0646377,0.91278,262.974,-0.0740501,
2,1,0,1,1,1194.2,-0.0637236,-0.0640547,9.31895,1,-0.00387475,10,-0.000596923,-2.03063,0.167249,0.352767,127.968,-0.0640547,
2,1,0,1,1,1194.25,-0.0537447,-0.0540535,10.262,1,-0.00338352,10,-0.000554698,-1.98877,0.375943,0.156939,62.7934,-0.0540535,
2,1,0,1,1,1194.3,-0.0437477,-0.0440891,10.7234,1,-0.00285732,10,-0.000472787,-1.96967,0.877339,0.0672488,28.1142,-0.04408909,
2,1,0,1,1,1194.35,-0.0337507,-0.0341203,10.9056,1,-0.00231559,10,-0.000372102,-1.96235,2.6534,0.0222357,9.47385,-0.0341203,
2,1,0,1,1,1194.4,-0.0237809,-0.024109,10.9389,1,-0.00177119,10,-0.000263727,-1.96103,70.7346,0.000834104,0.355694,-0.024109,
2,1,0,1,1,1194.45,-0.0137839,-0.0141072,10.8637,1,-0.00122582,10,-0.000153256,-1.96402,-1.86211,-0.0316845,-13.4425,-0.0141072,
2,1,0,1,1,1194.5,-0.0037869,-0.00411676,10.7685,1,-0.00068505,10,-4.43313e-05,-1.96784,-2.34075,-0.0252056,-10.5808,-0.00411676,
2,1,0,0,1,1194.52,-2.55332e-05,-0.000478022,10.7125,1,-0.000484248,10,-5.12082e-06,-1.97011, , , ,-0.000478022,