File: Figure_codes/Fig_3-5/rawdata_trumpetplot_data/after 10th/20221101_1-115_003_TrumpetPlot_ParaChange_from10_every3_12_CV_C01_22.csv
mode,ox/red,error,control changes,counter inc.,time/s,control/V,Ewe/V,<I>/mA,cycle number,(Q-Qo)/C,I Range,P/W,log(|I|),Tafel slope mV/dec,alpha_eff,dI/d(E-IR),E-IR/V,
2,1,0,1,0,44539.4,2.44065e-05,-0.000363498,15.7785,23,0.0000000E+000,10,-5.73546e-06,-1.80193, , , ,-0.000363498,
2,1,0,1,0,44539.4,0.0104008,0.0100942,19.0345,23,0.000302863,10,0.000192138,-1.72046,0.193502,0.304906,225.205,0.0100942,
2,1,0,1,0,44539.4,0.0212099,0.0208701,21.1052,23,0.000665001,10,0.000440467,-1.67561,0.28931,0.203934,167.454,0.02087008,
2,1,0,1,0,44539.4,0.0320052,0.0316364,22.7329,23,0.00106007,10,0.000719188,-1.64334,0.370807,0.159113,140.977,0.0316364,
2,1,0,1,0,44539.5,0.0428033,0.0425109,24.1491,23,0.00148242,10,0.0010266,-1.6171,0.442889,0.133216,125.512,0.04251086,
2,1,0,1,0,44539.5,0.0535986,0.053204,25.4591,23,0.00192921,10,0.00135453,-1.59416,0.485657,0.121485,120.726,0.053204,
2,1,0,1,0,44539.5,0.0644077,0.0640551,26.7506,23,0.00239935,10,0.00171351,-1.57267,0.515036,0.114555,119.629,0.06405513,
2,1,0,1,0,44539.5,0.075203,0.074848,28.0744,23,0.00289293,10,0.00210131,-1.55169,0.519453,0.113581,124.462,0.074848,
2,1,0,1,0,44539.5,0.0860011,0.0856524,29.4339,23,0.00341063,10,0.00252108,-1.53115,0.529538,0.111418,128.012,0.0856524,
2,1,0,1,0,44539.6,0.0968075,0.0964612,30.8461,23,0.00395325,10,0.00297545,-1.5108,0.548171,0.107631,129.521,0.0964612,
2,1,0,1,0,44539.6,0.107606,0.107208,32.302,23,0.00452154,10,0.00346304,-1.49077,0.54213,0.10883,137.106,0.107208,
2,1,0,1,0,44539.6,0.118401,0.117997,33.7576,23,0.00511609,10,0.00398329,-1.47163,0.566403,0.104166,137.228,0.117997,
2,1,0,1,0,44539.6,0.129207,0.128831,35.3725,23,0.00573781,10,0.00455708,-1.45133,0.519947,0.113473,156.63,0.128831,
2,1,0,1,0,44539.6,0.140005,0.139656,37.129,23,0.00639033,10,0.00518527,-1.43029,0.507015,0.116367,168.628,0.139656,
2,1,0,1,0,44539.6,0.150803,0.15041,38.9475,23,0.00707525,10,0.00585811,-1.40952,0.541307,0.108996,165.64,0.1504104,
2,1,0,1,0,44539.7,0.161604,0.161236,40.6662,23,0.00779229,10,0.00655686,-1.39077,0.623134,0.0946827,150.194,0.161236,
2,1,0,1,0,44539.7,0.172405,0.172041,42.1333,23,0.00853832,10,0.00724864,-1.37537,0.831697,0.0709393,116.543,0.172041,
2,1,0,1,0,44539.7,0.183203,0.182887,43.11,23,0.0093067,10,0.00788427,-1.36542,1.75638,0.0335918,56.4209,0.182887,
2,1,0,1,0,44539.7,0.194001,0.193634,43.2807,23,0.0100857,10,0.0083806,-1.36371,-3.3762,-0.0174753,-29.4553,0.193634,
2,1,0,1,0,44539.7,0.204808,0.204472,42.5045,23,0.0108591,10,0.00869098,-1.37157,-0.84094,-0.0701596,-116.107,0.204472,
2,1,0,1,0,44539.7,0.215603,0.215238,40.8008,23,0.0116099,10,0.00878189,-1.38933,-0.491129,-0.120131,-190.918,0.215238,
2,1,0,1,0,44539.8,0.226401,0.226087,38.3831,23,0.0123231,10,0.00867793,-1.41586,-0.360309,-0.163748,-245.004,0.226087,
2,1,0,1,0,44539.8,0.237207,0.236918,35.625,23,0.0129891,10,0.00844021,-1.44825,-0.315955,-0.186735,-259.513,0.236918,
2,1,0,1,0,44539.8,0.248005,0.247702,32.9031,23,0.0136052,10,0.00815016,-1.48276,-0.315558,-0.18697,-240.125,0.247702,
2,1,0,1,0,44539.8,0.258801,0.258484,30.438,23,0.0141745,10,0.00786773,-1.51658,-0.331331,-0.17807,-211.741,0.2584838,
2,1,0,1,0,44539.8,0.26961,0.269302,28.3563,23,0.0147029,10,0.00763641,-1.54735,-0.368113,-0.160277,-177.536,0.269302,
2,1,0,1,0,44539.9,0.280405,0.280084,26.6165,23,0.015197,10,0.00745485,-1.57485,-0.423013,-0.139476,-145.038,0.280084,
2,1,0,1,0,44539.9,0.291203,0.29085,25.1938,23,0.0156628,10,0.00732759,-1.59871,-0.474221,-0.124415,-122.445,0.29085,
2,1,0,0,0,44539.9,0.300012,0.299708,24.2206,23,0.0160257,10,0.0072591,-1.61582,0.00259154,22.7664,19144.2,0.299708,
2,1,0,1,0,44539.9,0.290843,0.290618,12.512,23,0.0162915,10,0.00363622,-1.90267,0.0325092,1.81487,890.208,0.290618,
2,1,0,1,0,44539.9,0.280047,0.279783,5.04165,23,0.0164437,10,0.00141057,-2.29743,0.0197165,2.99242,558.358,0.279783,
2,1,0,1,0,44539.9,0.269244,0.268969,0.0494374,23,0.0164863,10,1.32971e-05,-4.30594,0.105193,0.560872,384.817,0.268969,
2,0,0,1,0,44540,0.258443,0.258151,-3.49768,23,0.0164534,10,-0.000902928,-2.45622,-0.0264234,-2.23287,280.272,0.258151,
2,0,0,1,0,44540,0.247645,0.247323,-6.14484,23,0.0163653,10,-0.00151976,-2.21149,-0.0643413,-0.916985,215.782,0.247323,
2,0,0,1,0,44540,0.236849,0.236558,-8.20106,23,0.0162352,10,-0.00194003,-2.08613,-0.110913,-0.531951,168.824,0.236558,
2,0,0,1,0,44540,0.22604,0.225744,-9.8575,23,0.0160721,10,-0.00222527,-2.00623,-0.16431,-0.359076,137.507,0.225744,
2,0,0,1,0,44540,0.215245,0.21493,-11.2141,23,0.0158819,10,-0.00241023,-1.95024,-0.218813,-0.269636,117.784,0.21493,
2,0,0,1,0,44540,0.204447,0.204129,-12.4005,23,0.015669,10,-0.00253131,-1.90656,-0.280483,-0.210351,101.591,0.2041295,
2,0,0,1,0,44540.1,0.19364,0.193343,-13.4444,23,0.0154363,10,-0.00259938,-1.87146,-0.331663,-0.177891,93.2027,0.193343,
2,0,0,1,0,44540.1,0.182842,0.182529,-14.3942,23,0.0151855,10,-0.00262737,-1.84181,-0.377012,-0.156494,87.934,0.182529,
2,0,0,1,0,44540.1,0.172047,0.171728,-15.3485,23,0.0149177,10,-0.00263577,-1.81393,-0.402216,-0.146687,87.9211,0.171728,
2,0,0,1,0,44540.1,0.161241,0.160931,-16.3709,23,0.0146324,10,-0.00263457,-1.78593,-0.384186,-0.153572,98.1204,0.160931,
2,0,0,1,0,44540.1,0.150443,0.150116,-17.5462,23,0.0143275,10,-0.00263395,-1.75582,-0.328231,-0.179751,123.196,0.150116,
2,0,0,1,0,44540.2,0.139645,0.13932,-19.0918,23,0.0139984,10,-0.00265986,-1.71915,-0.261446,-0.225668,168.571,0.13932,
2,0,0,1,0,44540.2,0.128849,0.128571,-21.2389,23,0.0136364,10,-0.00273072,-1.67287,-0.210106,-0.28081,233.314,0.128571,
2,0,0,1,0,44540.2,0.118043,0.117733,-24.0867,23,0.0132291,10,-0.0028358,-1.61822,-0.193112,-0.305522,287.248,0.1177329,
2,0,0,1,0,44540.2,0.107245,0.106945,-27.2927,23,0.0127665,10,-0.00291882,-1.56395,-0.208198,-0.283384,301.62,0.1069454,
2,0,0,1,0,44540.2,0.0964468,0.0962374,-30.4456,23,0.0122462,10,-0.00293001,-1.51648,-0.243276,-0.242523,288.004,0.0962374,
2,0,0,1,0,44540.2,0.0856404,0.0853269,-33.4088,23,0.0116705,10,-0.00285067,-1.47614,-0.306034,-0.192789,250.831,0.0853269,
2,0,0,1,0,44540.3,0.0748451,0.0745839,-35.8348,23,0.0110462,10,-0.0026727,-1.4457,-0.408631,-0.144385,201.61,0.07458391,
2,0,0,1,0,44540.3,0.0640471,0.0637911,-37.7502,23,0.0103829,10,-0.00240813,-1.42308,-0.576293,-0.102378,150.574,0.0637911,
2,0,0,1,0,44540.3,0.0532407,0.0529113,-39.0976,23,0.00969041,10,-0.0020687,-1.40785,-0.919234,-0.0641839,97.7722,0.0529113,
2,0,0,1,0,44540.3,0.0424426,0.0421811,-39.9216,23,0.00897863,10,-0.00168393,-1.39879,-1.54027,-0.038305,59.6163,0.0421811,
2,0,0,1,0,44540.3,0.0316473,0.0313352,-40.3769,23,0.00825538,10,-0.00126522,-1.39387,-3.21979,-0.0183242,28.8561,0.0313352,
2,0,0,1,0,44540.4,0.0208437,0.0205032,-40.5494,23,0.00752675,10,-0.000831391,-1.39202,-29.425,-0.0020051,3.1708,0.02050318,
2,0,0,1,0,44540.4,0.0100429,0.00970718,-40.4704,23,0.00679732,10,-0.000392853,-1.39286,5.27975,0.0111748,-17.6375,0.00970718,
2,0,0,1,0,44540.4,-0.000755208,-0.00110896,-40.1894,23,0.00607114,10,4.45687e-05,-1.39589,2.50185,0.0235826,-36.9512,-0.00110896,
2,0,0,1,0,44540.4,-0.0115505,-0.0118912,-39.6116,23,0.00535253,10,0.000471028,-1.40218,1.42808,0.0413142,-63.8565,-0.0118912,
2,0,0,1,0,44540.4,-0.0223597,-0.0227328,-38.8391,23,0.00464616,10,0.000882922,-1.41073,1.12286,0.0525442,-79.6268,-0.0227328,
2,0,0,1,0,44540.4,-0.033155,-0.0335383,-37.9433,23,0.00395502,10,0.00127256,-1.42086,1.07676,0.054794,-81.1762,-0.03353833,
2,0,0,1,0,44540.5,-0.043953,-0.0443439,-37.0845,23,0.00327987,10,0.00164447,-1.43081,1.10717,0.0532888,-77.158,-0.0443439,
2,0,0,1,0,44540.5,-0.0547594,-0.05516,-36.3657,23,0.00261924,10,0.00200593,-1.43931,1.383,0.0426608,-60.5549,-0.05516,
2,0,0,1,0,44540.5,-0.0655575,-0.0659507,-35.8146,23,0.00197008,10,0.002362,-1.44594,2.09688,0.0281371,-39.3443,-0.0659507,
2,0,0,1,0,44540.5,-0.0763528,-0.0767107,-35.4859,23,0.00132872,10,0.00272215,-1.44994,4.15803,0.0141894,-19.6625,-0.0767107,
2,0,0,1,0,44540.5,-0.0871592,-0.087494,-35.3823,23,0.000691334,10,0.00309574,-1.45121,44.3625,0.00132995,-1.83682,-0.087494,
2,0,0,1,0,44540.6,-0.0979573,-0.0983249,-35.4465,23,5.42099e-05,10,0.00348528,-1.45043,-26.7058,-0.00220926,3.05192,-0.0983249,
2,0,0,1,1,44540.6,-0.0955546,-0.0960101,-27.2556,23,-0.000300963,10,0.00261681,-1.56455,-0.0422025,-1.39802,1514.05,-0.0960101,
2,0,0,1,1,44540.6,-0.0847538,-0.0851536,-15.5789,23,-0.000677208,10,0.0013266,-1.80746,-0.0405521,-1.45492,881.135,-0.0851536,
2,0,0,1,1,44540.6,-0.0739557,-0.0743545,-7.42358,23,-0.000880065,10,0.000551976,-2.12939,-0.0248097,-2.3781,662.044,-0.0743545,
2,0,0,1,1,44540.6,-0.0631604,-0.0636062,-1.09733,23,-0.000953878,10,6.97968e-05,-2.95966,-0.0212071,-2.78209,523.791,-0.0636062,
2,1,0,1,1,44540.6,-0.0523512,-0.0527646,4.0246,23,-0.00092543,10,-0.000212356,-2.39528,0.0190726,3.09343,428.231,-0.0527646,
2,1,0,1,1,44540.7,-0.0415559,-0.041993,8.23796,23,-0.000813571,10,-0.000345936,-2.08418,0.0519305,1.13613,356.87,-0.041993,
2,1,0,1,1,44540.7,-0.0307579,-0.031181,11.7469,23,-0.000632338,10,-0.000366281,-1.93008,0.0907836,0.649897,295.155,-0.031181,
2,1,0,1,1,44540.7,-0.0199515,-0.0203331,14.6723,23,-0.00039345,10,-0.000298333,-1.8335,0.137364,0.429516,244.374,-0.0203331,
2,1,0,1,1,44540.7,-0.0091534,-0.00953814,17.0725,23,-0.000106931,10,-0.00016284,-1.7677,0.193829,0.304393,201.97,-0.00953814,
2,1,0,0,1,44540.7,-7.54729e-05,-0.000516197,18.7036,23,0.000164001,10,-9.65475e-06,-1.72807, , , ,-0.000516197,