File: Figure_codes/Fig_3-5/rawdata_trumpetplot_data/after 10th/20221101_1-115_003_TrumpetPlot_ParaChange_from10_every3_10_CV_C01_3.csv
mode,ox/red,error,control changes,counter inc.,time/s,control/V,Ewe/V,<I>/mA,cycle number,(Q-Qo)/C,I Range,P/W,log(|I|),Tafel slope mV/dec,alpha_eff,dI/d(E-IR),E-IR/V,
2,1,0,0,0,7100.91,-2.44065e-05,-0.000306236,5.40228,4,0.0000000E+000,10,-1.65437e-06,-2.26742, , , ,-0.000306236,
2,1,0,1,0,7100.96,0.00977853,0.00943003,8.79265,4,0.000365431,10,8.29149e-05,-2.05588,0.113822,0.518352,176.953,0.00943003,
2,1,0,1,0,7101.01,0.0197755,0.0194665,9.97658,4,0.000838421,10,0.000194209,-2.00102,0.295193,0.19987,77.7838,0.01946649,
2,1,0,1,0,7101.06,0.0297726,0.0294275,10.7057,4,0.00135624,10,0.000315042,-1.97038,0.377709,0.156205,65.2293,0.0294275,
2,1,0,1,0,7101.11,0.0397514,0.0394431,11.3904,4,0.00190746,10,0.000449272,-1.94346,0.347195,0.169933,75.5584,0.0394431,
2,1,0,1,0,7101.16,0.0497393,0.0494049,12.1546,4,0.00249439,10,0.000600497,-1.91526,0.349642,0.168744,79.9482,0.0494049,
2,1,0,1,0,7101.21,0.0597364,0.0593529,12.9684,4,0.00312221,10,0.000769711,-1.88711,0.349362,0.168879,85.3983,0.0593529,
2,1,0,1,0,7101.26,0.0697152,0.069372,13.8039,4,0.00379006,10,0.000957603,-1.86,0.380936,0.154882,83.4794,0.069372,
2,1,0,1,0,7101.31,0.0796941,0.0793625,14.6384,4,0.00450021,10,0.00116174,-1.83451,0.420183,0.140415,80.1808,0.0793625,
2,1,0,1,0,7101.36,0.0896911,0.0893426,15.4067,4,0.00525198,10,0.00137647,-1.81229,0.464102,0.127127,76.5295,0.0893426,
2,1,0,1,0,7101.41,0.099679,0.0993868,16.2043,4,0.00604048,10,0.0016105,-1.79037,0.456967,0.129112,81.5506,0.0993868,
2,1,0,1,0,7101.46,0.109658,0.10935,17.1145,4,0.00687043,10,0.00187147,-1.76664,0.37171,0.158726,106.145,0.1093504,
2,1,0,1,0,7101.51,0.119655,0.11937,18.4056,4,0.00775715,10,0.00219707,-1.73505,0.312206,0.188978,135.646,0.11937,
2,1,0,1,0,7101.56,0.129652,0.129287,19.8359,4,0.00871327,10,0.00256452,-1.70255,0.324293,0.181934,140.884,0.129287,
2,1,0,1,0,7101.61,0.139631,0.139307,21.1525,4,0.00973744,10,0.00294669,-1.67464,0.418727,0.140903,116.253,0.139307,
2,1,0,1,0,7101.66,0.149619,0.149271,22.1807,4,0.0108201,10,0.00331092,-1.65403,0.622943,0.0947117,81.9533,0.149271,
2,1,0,1,0,7101.71,0.159616,0.159298,22.5344,4,0.011943,10,0.00358969,-1.64715,-1.206,-0.0489219,-42.9413,0.159298,
2,1,0,1,0,7101.76,0.169595,0.169271,20.9127,4,0.0130379,10,0.00353991,-1.67959,-0.160184,-0.368325,-299.836,0.169271,
2,1,0,1,0,7101.81,0.179573,0.179293,16.9904,4,0.0139886,10,0.00304626,-1.7698,-0.0896391,-0.658195,-436.208,0.179293,
2,1,0,1,0,7101.86,0.18957,0.189282,13.341,4,0.0147403,10,0.00252521,-1.87481,-0.111537,-0.52897,-276.212,0.189282,
2,1,0,1,0,7101.91,0.199558,0.199283,11.312,4,0.0153494,10,0.00225429,-1.94646,-0.188158,-0.313565,-138.315,0.199283,
2,1,0,1,0,7101.96,0.209537,0.209245,10.2066,4,0.0158832,10,0.00213569,-1.99112,-0.274078,-0.215267,-85.8894,0.209245,
2,1,0,1,0,7102.01,0.219534,0.219238,9.53494,4,0.0163752,10,0.00209042,-2.02068,-0.404436,-0.145882,-54.221,0.219238,
2,1,0,1,0,7102.06,0.229531,0.22924,9.04433,4,0.0168393,10,0.00207333,-2.04362,-0.499806,-0.118046,-41.7537,0.22924,
2,1,0,1,0,7102.11,0.23951,0.239213,8.71258,4,0.0172822,10,0.00208416,-2.05985,-0.673188,-0.0876427,-29.7933,0.239213,
2,1,0,1,0,7102.16,0.249498,0.249167,8.43357,4,0.0177098,10,0.00210136,-2.07399,-0.795737,-0.0741451,-24.4389,0.249167,
2,1,0,1,0,7102.21,0.259495,0.259208,8.21997,4,0.0181259,10,0.00213069,-2.08513,-0.739819,-0.0797492,-25.5412,0.259208,
2,1,0,1,0,7102.26,0.269474,0.269197,8.02173,4,0.0185309,10,0.00215943,-2.09573,-1.18394,-0.0498337,-15.6284,0.269197,
2,1,0,1,0,7102.31,0.279453,0.27915,7.87066,4,0.0189273,10,0.0021971,-2.10399,-1.16531,-0.0506303,-15.5217,0.27915,
2,1,0,1,0,7102.36,0.28945,0.289104,7.70119,4,0.0193165,10,0.00222645,-2.11344,-1.67038,-0.0353212,-10.6352,0.289104,
2,1,0,1,0,7102.41,0.299438,0.299124,7.5777,4,0.0196977,10,0.00226667,-2.12046,-0.0523036,-1.12803,-317.24,0.299124,
2,0,0,1,0,7102.45,0.291747,0.291423,-1.10103,4,0.0197943,10,-0.000320866,-2.9582,-0.00450138,-13.1071,378.32,0.291423,
2,0,0,1,0,7102.5,0.28175,0.281436,-3.00453,4,0.019681,10,-0.000845584,-2.52222,-0.0671663,-0.878416,102.156,0.281436,
2,0,0,1,0,7102.55,0.27178,0.271493,-3.72978,4,0.0195115,10,-0.00101261,-2.42832,-0.145893,-0.404406,58.753,0.271493,
2,0,0,1,0,7102.6,0.261783,0.261485,-4.2136,4,0.0193121,10,-0.00110179,-2.37535,-0.259376,-0.227469,37.3355,0.261485,
2,0,0,1,0,7102.65,0.251786,0.251454,-4.5841,4,0.0190918,10,-0.00115269,-2.33875,-0.312204,-0.188979,33.8186,0.251454,
2,0,0,1,0,7102.7,0.241807,0.241501,-4.90125,4,0.0188546,10,-0.00118366,-2.30969,-0.360187,-0.163804,31.4026,0.241501,
2,0,0,1,0,7102.75,0.231824,0.231536,-5.20038,4,0.0186025,10,-0.00120408,-2.28396,-0.403369,-0.146268,29.6637,0.231536,
2,0,0,1,0,7102.8,0.221822,0.221525,-5.46625,4,0.0183357,10,-0.00121091,-2.26231,-0.455382,-0.129562,27.6329,0.221525,
2,0,0,1,0,7102.85,0.211844,0.211524,-5.74094,4,0.0180561,10,-0.00121435,-2.24102,-0.544088,-0.108438,24.2968,0.211524,
2,0,0,1,0,7102.9,0.201865,0.201549,-6.02254,4,0.0177625,10,-0.00121384,-2.22022,-0.54466,-0.108325,25.481,0.2015491,
2,0,0,1,0,7102.95,0.191868,0.191538,-6.33932,4,0.0174535,10,-0.00121422,-2.19796,-0.425958,-0.138511,34.3144,0.191538,
2,0,0,1,0,7103,0.18188,0.181595,-6.73162,4,0.017128,10,-0.00122243,-2.17188,-0.3353,-0.175962,46.1593,0.1815951,
2,0,0,1,0,7103.05,0.171901,0.171625,-7.22373,4,0.0167807,10,-0.00123978,-2.14124,-0.290297,-0.20324,57.3096,0.171625,
2,0,0,1,0,7103.1,0.161904,0.161578,-7.95238,4,0.0164027,10,-0.00128493,-2.0995,-0.205561,-0.287019,89.0469,0.161578,
2,0,0,1,0,7103.15,0.151907,0.151581,-9.07311,4,0.015979,10,-0.00137531,-2.04224,-0.148383,-0.39762,141.166,0.151581,
2,0,0,1,0,7103.2,0.141928,0.141625,-10.911,4,0.0154838,10,-0.00154527,-1.96214,-0.109513,-0.53875,229.382,0.141625,
2,0,0,1,0,7103.25,0.13194,0.131653,-13.5241,4,0.0148767,10,-0.00178049,-1.86889,-0.106249,-0.555299,293.195,0.131653,
2,0,0,1,0,7103.3,0.121943,0.121659,-16.4573,4,0.0141265,10,-0.00200218,-1.78364,-0.132112,-0.44659,286.23,0.121659,
2,0,0,1,0,7103.35,0.111964,0.11166,-18.9971,4,0.0132386,10,-0.00212122,-1.72131,-0.199879,-0.295179,218.801,0.11166,
2,0,0,1,0,7103.4,0.101985,0.10163,-20.784,4,0.0122427,10,-0.00211229,-1.68227,-0.362517,-0.162751,131.752,0.10163,
2,0,0,1,0,7103.45,0.0919883,0.0916808,-21.6273,4,0.011178,10,-0.00198281,-1.665,-1.2325,-0.0478702,40.4076,0.0916808,
2,0,0,1,0,7103.5,0.0820004,0.0817024,-21.4763,4,0.0100979,10,-0.00175467,-1.66804,0.737012,0.080053,-66.989,0.0817024,
2,0,0,1,0,7103.55,0.0720215,0.0717085,-20.4292,4,0.00905026,10,-0.00146495,-1.68975,0.384127,0.153595,-122.518,0.0717085,
2,0,0,1,0,7103.6,0.0620245,0.061685,-19.2425,4,0.00805934,10,-0.00118697,-1.71574,0.404195,0.145969,-109.602,0.061685,
2,0,0,1,0,7103.65,0.0520275,0.0517076,-18.3119,4,0.00712176,10,-0.000946865,-1.73727,0.496678,0.118789,-84.9174,0.0517076,
2,0,0,1,0,7103.7,0.0420486,0.0417328,-17.5704,4,0.00622696,10,-0.000733263,-1.75522,0.590365,0.0999382,-68.523,0.0417328,
2,0,0,1,0,7103.75,0.0320607,0.0317422,-16.8436,4,0.00536817,10,-0.000534654,-1.77357,0.511288,0.115395,-75.8746,0.0317422,
2,0,0,1,0,7103.8,0.0220637,0.0217795,-16.0154,4,0.00454608,10,-0.000348809,-1.79546,0.389883,0.151328,-94.4651,0.0217795,
2,0,0,1,0,7103.85,0.0120848,0.0117641,-14.9925,4,0.00377209,10,-0.000176374,-1.82412,0.315878,0.186781,-109.378,0.0117641,
2,0,0,1,0,7103.9,0.00210598,0.00172136,-14.0565,4,0.00304962,10,-2.41962e-05,-1.85212,0.409133,0.144207,-78.8456,0.00172136,
2,0,0,1,0,7103.95,-0.00789103,-0.00819971,-13.2557,4,0.00236841,10,0.000108693,-1.8776,0.558774,0.105588,-54.7425,-0.00819971,
2,0,0,1,0,7104,-0.017879,-0.0182738,-12.8908,4,0.00171733,10,0.000235563,-1.88972,1.41526,0.0416883,-20.9481,-0.0182738,
2,0,0,1,0,7104.05,-0.0278578,-0.0281885,-12.7647,4,0.00107843,10,0.000359818,-1.89399,11.1119,0.00530961,-2.64902,-0.02818848,
2,0,0,1,0,7104.1,-0.0378548,-0.0382015,-12.877,4,0.000438069,10,0.000491922,-1.89018,-1.8814,-0.0313596,15.7407,-0.0382015,
2,0,0,1,0,7104.15,-0.0478519,-0.048192,-13.0917,4,-0.000210836,10,0.000630915,-1.883,-0.927391,-0.0636194,32.5663,-0.048192,
2,0,0,1,0,7104.2,-0.0578126,-0.058127,-13.4528,4,-0.000871814,10,0.000781968,-1.87119,-0.777297,-0.0759041,39.8345,-0.058127,
2,0,0,1,0,7104.25,-0.0678187,-0.0681452,-13.8845,4,-0.00155514,10,0.000946165,-1.85747,-0.63194,-0.0933633,50.6389,-0.0681452,
2,0,0,1,0,7104.3,-0.0778157,-0.0781504,-14.4462,4,-0.00226326,10,0.00112898,-1.84025,-0.566173,-0.104208,58.7238,-0.0781504,
2,0,0,1,0,7104.35,-0.0877945,-0.0881755,-15.1071,4,-0.00300017,10,0.00133208,-1.82082,-0.490569,-0.120268,70.959,-0.0881755,
2,0,0,1,0,7104.4,-0.0977734,-0.0981123,-15.8833,4,-0.00377333,10,0.00155835,-1.79906,-0.438099,-0.134673,83.4953,-0.0981123,
2,0,0,1,1,7104.44,-0.0936874,-0.0940862,-5.42118,4,-0.00426342,10,0.000510058,-2.26591,-0.0108509,-5.43733,1126.26,-0.0940862,
2,1,0,1,1,7104.49,-0.0837086,-0.0840987,2.23864,4,-0.00431733,10,-0.000188267,-2.65001,0.00885496,6.66293,517.63,-0.0840987,
2,1,0,1,1,7104.54,-0.0737025,-0.0740848,6.11566,4,-0.0040984,10,-0.000453078,-2.21356,0.0493478,1.1956,283.075,-0.0740848,
2,1,0,1,1,7104.59,-0.0637236,-0.0640643,8.26378,4,-0.00373437,10,-0.000529413,-2.08282,0.121536,0.485454,155.981,-0.0640643,
2,1,0,1,1,7104.64,-0.0537448,-0.0541013,9.44916,4,-0.00328941,10,-0.000511212,-2.02461,0.25331,0.232916,85.8646,-0.0541013,
2,1,0,1,1,7104.69,-0.0437477,-0.0440813,10.1166,4,-0.00279824,10,-0.000445953,-1.99497,0.498634,0.118323,46.6524,-0.0440813,
2,1,0,1,1,7104.74,-0.0337507,-0.0340917,10.448,4,-0.00228296,10,-0.00035619,-1.98097,1.19215,0.0494904,20.1971,-0.03409167,
2,1,0,1,1,7104.79,-0.0237809,-0.0241142,10.5945,4,-0.00175859,10,-0.000255478,-1.97492,2.62483,0.0224776,9.27157,-0.0241142,
2,1,0,1,1,7104.84,-0.0137839,-0.0141506,10.5958,4,-0.00122866,10,-0.000149938,-1.97486,-6.29383,-0.00937425,-3.88159,-0.01415062,
2,1,0,1,1,7104.89,-0.0037869,-0.00415407,10.5846,4,-0.000699094,10,-4.39693e-05,-1.97532,-21.6794,-0.00272147,-1.12284,-0.00415407,
2,1,0,1,1,7104.91,-2.55332e-05,-0.000306236,10.5516,4,-0.000501392,10,-3.23128e-06,-1.97668, , , ,-0.000306236,