File: Figure_codes/Fig_3-5/rawdata_trumpetplot_data/after 10th/20221101_1-115_003_TrumpetPlot_ParaChange_from10_every3_03_CV_C01_22.csv
mode,ox/red,error,control changes,counter inc.,time/s,control/V,Ewe/V,<I>/mA,cycle number,(Q-Qo)/C,I Range,P/W,log(|I|),Tafel slope mV/dec,alpha_eff,dI/d(E-IR),E-IR/V,
2,0,0,1,0,44282.9,2.44065e-05,-0.000325324,-0.105118,23,0.0000000E+000,10,3.41975e-08,-3.97832, , , ,-0.000325324,
2,1,0,1,0,44284.3,0.00729041,0.00694458,0.199628,23,0.000251664,10,1.38634e-06,-3.69978,0.08363,0.705488,5.50041,0.00694458,
2,1,0,1,0,44285.8,0.0147815,0.0144311,0.232314,23,0.000599537,10,3.35256e-06,-3.63392,0.137739,0.428345,3.89205,0.0144311,
2,1,0,1,0,44287.3,0.0222725,0.0219667,0.259154,23,0.000989713,10,5.69276e-06,-3.58644,0.163761,0.360282,3.6424,0.0219667,
2,1,0,1,0,44288.8,0.0297635,0.0294564,0.286078,23,0.0014192,10,8.42684e-06,-3.54352,0.211777,0.278595,3.09494,0.0294564,
2,1,0,1,0,44290.3,0.0372545,0.0369512,0.312121,23,0.00188739,10,1.15333e-05,-3.50568,0.227372,0.259486,3.15461,0.0369512,
2,1,0,1,0,44291.8,0.0447456,0.0444326,0.337193,23,0.00239443,10,1.49824e-05,-3.47212,0.244514,0.241295,3.16803,0.0444326,
2,1,0,1,0,44293.3,0.0522367,0.0519244,0.360427,23,0.00293848,10,1.8715e-05,-3.44318,0.234962,0.251104,3.52509,0.0519244,
2,1,0,1,0,44294.8,0.0597277,0.0593856,0.382796,23,0.0035166,10,2.27326e-05,-3.41703,0.349499,0.168813,2.51477,0.0593856,
2,1,0,1,0,44296.3,0.0672187,0.0669178,0.402752,23,0.0041256,10,2.69513e-05,-3.39496,0.358057,0.164778,2.57376,0.0669178,
2,1,0,1,0,44297.8,0.0747092,0.0744142,0.417917,23,0.00476066,10,3.1099e-05,-3.37891,0.492432,0.119813,1.95061,0.0744142,
2,1,0,0,0,44299.3,0.0822001,0.0818954,0.431042,23,0.00541858,10,3.53003e-05,-3.36548,0.460821,0.128032,2.15833,0.0818954,
2,1,0,1,0,44300.8,0.0896911,0.0893628,0.451691,23,0.00610176,10,4.03643e-05,-3.34516,0.297434,0.198363,3.51204,0.0893628,
2,1,0,0,0,44302.3,0.097182,0.0968281,0.483183,23,0.00682327,10,4.67857e-05,-3.31589,0.191314,0.308394,5.8066,0.0968281,
2,1,0,1,0,44303.8,0.104673,0.10435,0.526876,23,0.00759976,10,5.49793e-05,-3.27829,0.209447,0.281694,5.7643,0.10435,
2,1,0,0,0,44305.3,0.112164,0.111838,0.562069,23,0.00843624,10,6.28607e-05,-3.25021,0.376535,0.156692,3.42524,0.111838,
2,1,0,1,0,44306.8,0.119655,0.119355,0.586195,23,0.00931908,10,6.99655e-05,-3.23196,0.584822,0.100885,2.31107,0.119355,
2,1,0,0,0,44308.3,0.127146,0.126842,0.60136,23,0.0102334,10,7.62776e-05,-3.22087,0.838731,0.0703443,1.6538,0.1268418,
2,1,0,1,0,44309.8,0.134637,0.13432,0.597831,23,0.011162,10,8.03005e-05,-3.22342,-0.323069,-0.182623,-4.25958,0.13432,
2,1,0,1,0,44311.3,0.142127,0.141772,0.534763,23,0.0120412,10,7.58143e-05,-3.27184,-0.09991,-0.590532,-12.2568,0.141772,
2,1,0,1,0,44312.8,0.149618,0.149278,0.429814,23,0.0127853,10,6.41615e-05,-3.36672,-0.0797445,-0.739863,-12.4443,0.149278,
2,1,0,1,0,44314.3,0.157109,0.156835,0.359313,23,0.0133917,10,5.63528e-05,-3.44453,-0.122656,-0.48102,-6.77261,0.156835,
2,1,0,1,0,44315.8,0.1646,0.164259,0.328444,23,0.013925,10,5.39498e-05,-3.48354,-0.277674,-0.212479,-2.72691,0.164259,
2,1,0,1,0,44317.3,0.172091,0.171772,0.311903,23,0.0144249,10,5.35762e-05,-3.50598,-0.424126,-0.139109,-1.70292,0.171772,
2,1,0,1,0,44318.8,0.179582,0.179288,0.304589,23,0.0149072,10,5.46094e-05,-3.51629,-1.08331,-0.0544625,-0.649604,0.179288,
2,1,0,1,0,44320.3,0.187074,0.186775,0.299676,23,0.0153793,10,5.5972e-05,-3.52335,-1.22579,-0.0481322,-0.559733,0.186775,
2,1,0,1,0,44321.8,0.194564,0.194255,0.294217,23,0.0158443,10,5.71533e-05,-3.53133,-1.55683,-0.0378975,-0.436924,0.194255,
2,1,0,1,0,44323.3,0.202056,0.20173,0.292556,23,0.0163037,10,5.90174e-05,-3.53379,-1.71765,-0.0343493,-0.390986,0.20173,
2,1,0,1,0,44324.8,0.209547,0.209246,0.289281,23,0.0167594,10,6.05309e-05,-3.53868,-1.56972,-0.0375863,-0.424617,0.209246,
2,1,0,1,0,44326.3,0.217038,0.216699,0.286829,23,0.0172112,10,6.21555e-05,-3.54238,-1.39635,-0.0422531,-0.473902,0.216699,
2,1,0,1,0,44327.8,0.224529,0.224231,0.28541,23,0.0176599,10,6.39979e-05,-3.54453,-3.69263,-0.0159778,-0.177668,0.224231,
2,1,0,1,0,44329.3,0.232019,0.231766,0.282349,23,0.0181052,10,6.54388e-05,-3.54921,-1.65265,-0.0357002,-0.394411,0.231766,
2,1,0,0,0,44330.8,0.23951,0.239226,0.282708,23,0.0185483,10,6.7631e-05,-3.54866,-1.38353,-0.0426445,-0.469075,0.239226,
2,1,0,1,0,44332.3,0.247001,0.246698,0.280243,23,0.0189882,10,6.91356e-05,-3.55246,-3.2195,-0.0183258,-0.19998,0.246698,
2,1,0,0,0,44333.8,0.254492,0.25416,0.277914,23,0.0194255,10,7.06345e-05,-3.55609,-1.92545,-0.0306422,-0.333011,0.25416,
2,1,0,1,0,44335.3,0.261983,0.261684,0.276245,23,0.01986,10,7.22888e-05,-3.55871,-4.77332,-0.0123604,-0.133228,0.261684,
2,1,0,0,0,44336.8,0.269474,0.269168,0.274925,23,0.0202917,10,7.40013e-05,-3.56079,21.6146,0.00272963,0.0292539,0.2691685,
2,1,0,1,0,44338.3,0.276965,0.276653,0.272774,23,0.0207209,10,7.54638e-05,-3.5642,-57.8066,-0.00102064,-0.0108805,0.276653,
2,1,0,0,0,44339.8,0.284456,0.284142,0.2712,23,0.021147,10,7.70596e-05,-3.56671,-2.05908,-0.0286536,-0.302996,0.284142,
2,1,0,1,0,44341.3,0.291947,0.29163,0.269135,23,0.0215699,10,7.84878e-05,-3.57003,-5.50835,-0.010711,-0.112356,0.29163,
2,1,0,1,0,44342.8,0.299437,0.299152,0.267569,23,0.0219908,10,8.00439e-05,-3.57256,-0.00272292,-21.6679,-115.633,0.299152,
2,0,0,1,0,44344.1,0.293744,0.29345,-0.0163843,23,0.0220325,10,-4.80799e-06,-4.78557,-0.00414461,-14.2354,5.67889,0.29345,
2,0,0,1,0,44345.6,0.286253,0.285978,-0.0455481,23,0.0219653,10,-1.30257e-05,-4.34153,-0.0339603,-1.73732,3.11672,0.285978,
2,0,0,0,0,44347.1,0.278763,0.278434,-0.0674553,23,0.0218601,10,-1.87819e-05,-4.17098,-0.0581685,-1.01429,2.65793,0.278434,
2,0,0,1,0,44348.6,0.271272,0.270989,-0.0838157,23,0.0217271,10,-2.27131e-05,-4.07667,-0.120089,-0.491301,1.60386,0.270989,
2,0,0,0,0,44350.1,0.263781,0.263462,-0.0974948,23,0.0215712,10,-2.56862e-05,-4.01102,-0.125854,-0.468798,1.79515,0.263462,
2,0,0,1,0,44351.6,0.25629,0.255942,-0.11041,23,0.0213958,10,-2.82585e-05,-3.95699,-0.175863,-0.335488,1.4323,0.255942,
2,0,0,0,0,44353.1,0.248799,0.248465,-0.119681,23,0.0212036,10,-2.97365e-05,-3.92198,-0.247297,-0.23858,1.12404,0.248465,
2,0,0,1,0,44354.6,0.241308,0.241038,-0.131711,23,0.0209961,10,-3.17473e-05,-3.88038,-0.248826,-0.237114,1.20664,0.241038,
2,0,0,0,0,44356.1,0.233817,0.233526,-0.139891,23,0.0207736,10,-3.26682e-05,-3.85421,-0.316999,-0.18612,1.01389,0.2335261,
2,0,0,1,0,44357.6,0.226326,0.226034,-0.148476,23,0.0205374,10,-3.35607e-05,-3.82834,-0.276584,-0.213317,1.23698,0.226034,
2,0,0,0,0,44359.1,0.218835,0.218517,-0.15679,23,0.0202881,10,-3.42613e-05,-3.80468,-0.334294,-0.176492,1.08028,0.218517,
2,0,0,1,0,44360.6,0.211344,0.211019,-0.165808,23,0.020026,10,-3.49886e-05,-3.78039,-0.431014,-0.136886,0.884521,0.211019,
2,0,0,1,0,44362.1,0.203854,0.203546,-0.17362,23,0.0197501,10,-3.53396e-05,-3.7604,-0.343695,-0.171664,1.17023,0.2035457,
2,0,0,1,0,44363.6,0.196363,0.196038,-0.18399,23,0.0194606,10,-3.6069e-05,-3.73521,-0.312078,-0.189056,1.35423,0.196038,
2,0,0,1,0,44365.1,0.188871,0.188533,-0.193965,23,0.0191563,10,-3.65688e-05,-3.71228,-0.243233,-0.242566,1.83307,0.188533,
2,0,0,1,0,44366.6,0.181381,0.1811,-0.205385,23,0.018836,10,-3.71952e-05,-3.68743,-0.314514,-0.187591,1.4972,0.1811,
2,0,0,1,0,44368.1,0.173889,0.173552,-0.21889,23,0.0184971,10,-3.79888e-05,-3.65977,-0.246558,-0.239294,2.0431,0.173552,
2,0,0,1,0,44369.6,0.166398,0.166044,-0.234937,23,0.0181355,10,-3.90099e-05,-3.62905,-0.223316,-0.2642,2.43763,0.166044,
2,0,0,1,0,44371.1,0.158907,0.158602,-0.257178,23,0.0177447,10,-4.07888e-05,-3.58977,-0.165023,-0.357525,3.60898,0.158602,
2,0,0,1,0,44372.6,0.151416,0.151131,-0.292248,23,0.0173128,10,-4.41678e-05,-3.53425,-0.115735,-0.509783,5.81488,0.151131,
2,0,0,1,0,44374.1,0.143925,0.14365,-0.347757,23,0.0168144,10,-4.99553e-05,-3.45872,-0.0784702,-0.751878,10.1972,0.14365,
2,0,0,1,0,44375.6,0.136434,0.136124,-0.432236,23,0.0162096,10,-5.88379e-05,-3.36428,-0.0817519,-0.721696,12.1475,0.136124,
2,0,0,1,0,44377.1,0.128943,0.128608,-0.524489,23,0.0154682,10,-6.74534e-05,-3.28026,-0.115128,-0.512474,10.4447,0.128608,
2,0,0,0,0,44378.6,0.121453,0.121146,-0.589743,23,0.0146056,10,-7.14452e-05,-3.22934,-0.250792,-0.235255,5.39365,0.121146,
2,0,0,1,0,44380.1,0.113962,0.113648,-0.608421,23,0.0136793,10,-6.9146e-05,-3.2158,-2.55325,-0.0231078,0.549434,0.113648,
2,0,0,0,0,44381.6,0.106471,0.106165,-0.605698,23,0.0127436,10,-6.43038e-05,-3.21774,1.56347,0.0377365,-0.893925,0.106165,
2,0,0,1,0,44383.1,0.0989798,0.0986732,-0.594476,23,0.0118202,10,-5.86588e-05,-3.22587,1.17437,0.0502399,-1.16258,0.09867315,
2,0,0,0,0,44384.6,0.0914889,0.0911358,-0.580068,23,0.0109177,10,-5.28649e-05,-3.23652,0.672582,0.0877217,-1.9802,0.0911358,
2,0,0,1,0,44386.1,0.083998,0.0836663,-0.56018,23,0.0100419,10,-4.68682e-05,-3.25167,0.373183,0.158099,-3.44783,0.0836663,
2,0,0,0,0,44387.6,0.076507,0.0762212,-0.540222,23,0.00919488,10,-4.11763e-05,-3.26743,0.443841,0.132931,-2.80028,0.0762212,
2,0,0,1,0,44389.1,0.069016,0.06874,-0.521189,23,0.00837568,10,-3.58266e-05,-3.283,0.57419,0.102754,-2.10041,0.06874001,
2,0,0,0,0,44390.6,0.0615251,0.0612164,-0.505671,23,0.00758128,10,-3.09554e-05,-3.29613,0.575183,0.102576,-2.03138,0.0612164,
2,0,0,1,0,44392.1,0.0540342,0.0537215,-0.490395,23,0.00681193,10,-2.63447e-05,-3.30945,0.541741,0.108908,-2.08165,0.0537215,
2,0,0,1,0,44393.6,0.0465436,0.0462301,-0.474178,23,0.00606776,10,-2.19213e-05,-3.32406,0.564398,0.104536,-1.93123,0.0462301,
2,0,0,1,0,44395.1,0.0390526,0.0387467,-0.456185,23,0.00534944,10,-1.76756e-05,-3.34086,0.392426,0.150347,-2.6697,0.0387467,
2,0,0,1,0,44396.6,0.0315615,0.0312285,-0.43825,23,0.00465689,10,-1.36859e-05,-3.35828,0.430697,0.136987,-2.34921,0.0312285,
2,0,0,1,0,44398.1,0.0240706,0.0237662,-0.424322,23,0.00398827,10,-1.00845e-05,-3.3723,0.504237,0.117008,-1.93938,0.0237662,
2,0,0,1,0,44399.6,0.0165795,0.0163073,-0.414403,23,0.00333805,10,-6.75781e-06,-3.38258,1.42425,0.0414254,-0.671839,0.0163073,
2,0,0,1,0,44401.1,0.00908846,0.0088015,-0.410454,23,0.00269847,10,-3.61261e-06,-3.38674,-17.4784,-0.0033756,0.0540065,0.0088015,
2,0,0,1,0,44402.6,0.00159739,0.00122932,-0.417414,23,0.00205922,10,-5.13133e-07,-3.37943, , , ,0.00122932,
2,0,0,0,0,44402.8,0.000199195,-0.000159264,-0.413941,23,0.00193905,10,6.59258e-08,-3.38306, , , ,-0.000159264,