File: Figure_codes/Fig_3-5/rawdata_trumpetplot_data/after 10th/20221101_1-115_003_TrumpetPlot_ParaChange_from10_every3_11_CV_C01_11.csv
mode,ox/red,error,control changes,counter inc.,time/s,control/V,Ewe/V,<I>/mA,cycle number,(Q-Qo)/C,I Range,P/W,log(|I|),Tafel slope mV/dec,alpha_eff,dI/d(E-IR),E-IR/V,
2,1,0,1,0,22866,2.44065e-05,-0.000325324,10.1318,12,0.0000000E+000,10,-3.29612e-06,-1.99431, , , ,-0.000325324,
2,1,0,1,0,22866,0.0101427,0.00978989,14.2281,12,0.000316032,10,0.000139292,-1.84685,0.122645,0.481063,265.634,0.00978989,
2,1,0,1,0,22866,0.0205441,0.0202179,16.4144,12,0.000716565,10,0.000331866,-1.78477,0.220336,0.267773,171.021,0.0202179,
2,1,0,1,0,22866,0.0309482,0.0306173,17.9487,12,0.00116422,10,0.000549541,-1.74597,0.309305,0.19075,133.473,0.0306173,
2,1,0,1,0,22866.1,0.0413439,0.0409574,19.2219,12,0.00164788,10,0.000787277,-1.7162,0.377621,0.156241,117.189,0.0409574,
2,1,0,1,0,22866.1,0.0517425,0.0513907,20.4326,12,0.00216369,10,0.00105005,-1.68968,0.39904,0.147855,117.958,0.0513907,
2,1,0,1,0,22866.1,0.0621438,0.0617943,21.6629,12,0.00271104,10,0.00133864,-1.66428,0.425619,0.138622,117.14,0.0617943,
2,1,0,1,0,22866.1,0.0725479,0.072215,22.9409,12,0.00329079,10,0.00165667,-1.63939,0.426825,0.13823,123.727,0.072215,
2,1,0,1,0,22866.2,0.0829437,0.0825868,24.1849,12,0.00390377,10,0.00199735,-1.61646,0.449334,0.131305,124.093,0.0825868,
2,1,0,1,0,22866.2,0.0933422,0.0930021,25.5326,12,0.00455035,10,0.00237458,-1.59291,0.476944,0.123704,123.159,0.0930021,
2,1,0,1,0,22866.2,0.103749,0.103451,26.7824,12,0.00523036,10,0.00277067,-1.57215,0.514368,0.114704,119.876,0.103451,
2,1,0,1,0,22866.2,0.114148,0.113802,28.0724,12,0.00594332,10,0.0031947,-1.55172,0.483321,0.122072,133.786,0.113802,
2,1,0,1,0,22866.3,0.124543,0.124229,29.5811,12,0.00669242,10,0.00367483,-1.52899,0.438642,0.134506,155.246,0.124229,
2,1,0,1,0,22866.3,0.134942,0.134579,31.3059,12,0.00748376,10,0.0042131,-1.50437,0.421106,0.140107,171.218,0.134579,
2,1,0,1,0,22866.3,0.145349,0.144986,33.1011,12,0.00832133,10,0.00479921,-1.48016,0.460982,0.127988,165.238,0.144986,
2,1,0,1,0,22866.3,0.155747,0.155402,34.6769,12,0.00920314,10,0.00538885,-1.45996,0.592499,0.0995782,134.628,0.155402,
2,1,0,1,0,22866.4,0.166143,0.165786,35.8047,12,0.0101208,10,0.00593592,-1.44606,1.18345,0.0498544,69.5605,0.165786,
2,1,0,1,0,22866.4,0.176542,0.176203,35.9323,12,0.0110564,10,0.00633137,-1.44451,-1.37693,-0.042849,-59.9664,0.176203,
2,1,0,1,0,22866.4,0.186949,0.18662,34.4147,12,0.0119747,10,0.00642248,-1.46326,-0.339334,-0.17387,-232.887,0.1866201,
2,1,0,1,0,22866.4,0.197347,0.197,31.2073,12,0.0128303,10,0.00614784,-1.50574,-0.199095,-0.296341,-360.175,0.1970004,
2,1,0,1,0,22866.5,0.207743,0.207436,27.2679,12,0.01359,10,0.00565633,-1.56435,-0.169621,-0.347834,-370.108,0.207436,
2,1,0,1,0,22866.5,0.218141,0.217805,23.7319,12,0.0142511,10,0.00516892,-1.62467,-0.186767,-0.315901,-293.224,0.217805,
2,1,0,1,0,22866.5,0.228548,0.228245,21.1187,12,0.014832,10,0.00482024,-1.67533,-0.229489,-0.257093,-212.026,0.228245,
2,1,0,1,0,22866.6,0.238947,0.238655,19.2511,12,0.0153551,10,0.00459437,-1.71555,-0.300731,-0.196189,-147.546,0.238655,
2,1,0,1,0,22866.6,0.249343,0.248997,17.938,12,0.0158376,10,0.00446651,-1.74623,-0.385028,-0.153235,-107.441,0.248997,
2,1,0,1,0,22866.6,0.259741,0.259438,17.0031,12,0.0162912,10,0.00441125,-1.76947,-0.506293,-0.116533,-77.3311,0.259438,
2,1,0,1,0,22866.6,0.270148,0.269819,16.2879,12,0.0167234,10,0.00439477,-1.78814,-0.618943,-0.0953237,-60.6069,0.269819,
2,1,0,1,0,22866.7,0.280547,0.280203,15.7129,12,0.0171392,10,0.00440281,-1.80374,-0.724883,-0.0813925,-49.9696,0.280203,
2,1,0,1,0,22866.7,0.290942,0.290639,15.2566,12,0.0175416,10,0.00443417,-1.81654,-0.861323,-0.0684993,-40.7843,0.290639,
2,1,0,0,0,22866.7,0.300012,0.299689,14.9033,12,0.0178839,10,0.00446637,-1.82672,0.00106988,55.1466,27270.9,0.2996892,
2,1,0,1,0,22866.7,0.290704,0.290377,3.06016,12,0.0180634,10,0.0008886,-2.51426,0.00855857,6.89368,732.243,0.290377,
2,0,0,1,0,22866.8,0.280305,0.279969,-2.13434,12,0.0180666,10,-0.000597549,-2.67074,-0.0120209,-4.90813,346.037,0.279969,
2,0,0,1,0,22866.8,0.269909,0.269609,-4.81744,12,0.0179727,10,-0.00129882,-2.31718,-0.0562291,-1.04928,193.897,0.269609,
2,0,0,1,0,22866.8,0.2595,0.25921,-6.44925,12,0.0178247,10,-0.00167171,-2.19049,-0.114892,-0.513526,128.657,0.25921,
2,0,0,1,0,22866.8,0.249104,0.248776,-7.57231,12,0.0176415,10,-0.00188381,-2.12077,-0.187848,-0.314083,92.5619,0.248776,
2,0,0,1,0,22866.9,0.238705,0.238417,-8.43032,12,0.0174332,10,-0.00200993,-2.07416,-0.263719,-0.223723,73.4298,0.238417,
2,0,0,1,0,22866.9,0.22831,0.227988,-9.10327,12,0.0172049,10,-0.00207543,-2.0408,-0.335541,-0.175836,62.5632,0.2279876,
2,0,0,1,0,22866.9,0.2179,0.217587,-9.72012,12,0.0169598,10,-0.00211497,-2.01233,-0.382619,-0.1542,58.465,0.217587,
2,0,0,1,0,22866.9,0.207504,0.207187,-10.2763,12,0.0166997,10,-0.00212911,-1.98816,-0.466865,-0.126375,50.703,0.207187,
2,0,0,1,0,22867,0.197106,0.196766,-10.8119,12,0.0164253,10,-0.00212742,-1.9661,-0.484323,-0.12182,51.4881,0.196766,
2,0,0,1,0,22867,0.18671,0.18643,-11.3673,12,0.0161368,10,-0.0021192,-1.94434,-0.471848,-0.12504,55.4989,0.18643,
2,0,0,1,0,22867,0.1763,0.17599,-11.9903,12,0.0158333,10,-0.00211017,-1.92117,-0.422892,-0.139516,65.2486,0.17599,
2,0,0,1,0,22867,0.165905,0.165584,-12.734,12,0.0155123,10,-0.00210855,-1.89503,-0.370908,-0.159069,79.0735,0.165584,
2,0,0,1,0,22867.1,0.155506,0.155198,-13.7269,12,0.0151691,10,-0.00213039,-1.86243,-0.276871,-0.213096,114.312,0.155198,
2,0,0,1,0,22867.1,0.145105,0.144772,-15.1824,12,0.0147945,10,-0.00219799,-1.81866,-0.203823,-0.289468,171.799,0.1447722,
2,0,0,1,0,22867.1,0.134701,0.134387,-17.3749,12,0.0143731,10,-0.00233495,-1.76008,-0.156405,-0.377226,255.992,0.1343866,
2,0,0,1,0,22867.1,0.124305,0.123995,-20.4036,12,0.0138832,10,-0.00252993,-1.69029,-0.147374,-0.400343,318.94,0.1239946,
2,0,0,1,0,22867.2,0.113906,0.113617,-23.8237,12,0.0133081,10,-0.00270679,-1.62299,-0.168581,-0.34998,324.885,0.113617,
2,0,0,1,0,22867.2,0.103505,0.10325,-27.0481,12,0.0126462,10,-0.00279271,-1.56786,-0.214332,-0.275274,289.961,0.10325,
2,0,0,1,0,22867.2,0.0931008,0.0928727,-29.7672,12,0.011906,10,-0.00276456,-1.52626,-0.295359,-0.199757,231.783,0.0928727,
2,0,0,1,0,22867.2,0.0827051,0.0824415,-31.807,12,0.0111037,10,-0.00262221,-1.49748,-0.461424,-0.127865,158.562,0.0824415,
2,0,0,1,0,22867.3,0.0723065,0.0719817,-33.041,12,0.0102585,10,-0.00237835,-1.48095,-1.03222,-0.0571585,73.5817,0.0719817,
2,0,0,1,0,22867.3,0.0618997,0.0615929,-33.3822,12,0.00939344,10,-0.00205611,-1.47649,26.3725,0.00223718,-2.9114,0.0615929,
2,0,0,1,0,22867.3,0.0515011,0.051185,-33.1044,12,0.00852843,10,-0.00169445,-1.48011,1.78939,0.0329721,-42.5789,0.051185,
2,0,0,1,0,22867.4,0.0411053,0.0407485,-32.5631,12,0.00767463,10,-0.0013269,-1.48727,1.31538,0.044854,-57.0056,0.0407485,
2,0,0,1,0,22867.4,0.0307068,0.0303501,-31.9493,12,0.00683584,10,-0.000969665,-1.49554,1.19637,0.0493159,-61.5026,0.0303501,
2,0,0,1,0,22867.4,0.0202999,0.0199942,-31.2823,12,0.00601372,10,-0.000625464,-1.5047,1.03282,0.057125,-69.7133,0.0199942,
2,0,0,1,0,22867.4,0.00990136,0.00957675,-30.4574,12,0.00521086,10,-0.000291683,-1.51631,0.785419,0.0751191,-89.254,0.00957675,
2,0,0,1,0,22867.5,-0.000494411,-0.000855527,-29.4484,12,0.00443186,10,2.51939e-05,-1.53094,0.626919,0.0941111,-107.986,-0.000855527,
2,0,0,1,0,22867.5,-0.010893,-0.0112316,-28.1728,12,0.00368268,10,0.000316426,-1.55017,0.521562,0.113122,-124.4,-0.0112316,
2,0,0,1,0,22867.5,-0.0212998,-0.0216448,-26.9291,12,0.00296662,10,0.000582876,-1.56978,0.567321,0.103998,-109.39,-0.0216448,
2,0,0,1,0,22867.5,-0.0316984,-0.0320919,-25.9501,12,0.00228002,10,0.000832789,-1.58586,0.767894,0.0768335,-77.7974,-0.0320919,
2,0,0,1,0,22867.6,-0.0420942,-0.0424829,-25.2897,12,0.00161486,10,0.00107438,-1.59706,1.16455,0.0506633,-50.0362,-0.04248286,
2,0,0,1,0,22867.6,-0.0524927,-0.0528674,-24.9585,12,0.000962296,10,0.00131949,-1.60278,3.56246,0.0165616,-16.1499,-0.0528674,
2,0,0,1,0,22867.6,-0.0628996,-0.0632668,-24.935,12,0.000314338,10,0.00157756,-1.60319,-6.4626,-0.00912946,8.88061,-0.0632668,
2,0,0,1,0,22867.6,-0.0732982,-0.0736567,-25.1102,12,-0.000335534,10,0.00184953,-1.60015,-2.1276,-0.0277307,27.1691,-0.0736567,
2,0,0,1,0,22867.7,-0.0836939,-0.0840816,-25.4567,12,-0.000992497,10,0.00214044,-1.5942,-1.33191,-0.0442974,44.0347,-0.0840816,
2,0,0,1,0,22867.7,-0.0940925,-0.0944778,-25.9912,12,-0.0016611,10,0.00245559,-1.58517,-0.990043,-0.0595934,60.4641,-0.0944778,
2,0,0,1,1,22867.7,-0.0978574,-0.0982868,-21.3439,12,-0.00218069,10,0.00209783,-1.67073,-0.026061,-2.26392,1846.14,-0.0982868,
2,0,0,1,1,22867.7,-0.0874588,-0.0878248,-8.2165,12,-0.00254468,10,0.000721613,-2.08531,-0.0195625,-3.01598,947.456,-0.0878248,
2,0,0,1,1,22867.8,-0.077052,-0.0774922,-0.301051,12,-0.00264774,10,2.33291e-05,-3.52136,-0.0355068,-1.66165,627.064,-0.0774922,
2,1,0,1,1,22867.8,-0.0666562,-0.0671002,5.23423,12,-0.00257923,10,-0.000351218,-2.28115,0.025552,2.30902,452.013,-0.0671002,
2,1,0,1,1,22867.8,-0.0562576,-0.0566807,9.29437,12,-0.00238741,10,-0.000526811,-2.03178,0.0630382,0.935941,336.849,-0.0566807,
2,1,0,1,1,22867.8,-0.0458563,-0.0462558,12.3328,12,-0.0021039,10,-0.000570462,-1.90894,0.113383,0.520361,249.321,-0.04625579,
2,1,0,1,1,22867.9,-0.0354522,-0.0358193,14.5743,12,-0.00175264,10,-0.00052204,-1.83641,0.18177,0.324586,183.749,-0.0358193,
2,1,0,1,1,22867.9,-0.0250564,-0.0254442,16.1725,12,-0.00135175,10,-0.000411497,-1.79122,0.286023,0.206277,130.071,-0.0254442,
2,1,0,1,1,22867.9,-0.0146579,-0.015031,17.328,12,-0.000915116,10,-0.000260458,-1.76125,0.424606,0.138952,93.9069,-0.015031,
2,1,0,1,1,22867.9,-0.00425653,-0.00464224,18.1357,12,-0.000453323,10,-8.41901e-05,-1.74147,0.652169,0.0904674,63.9838,-0.00464224,
2,1,0,0,1,22868,-7.54729e-05,-0.000363498,18.3672,12,-0.000261513,10,-6.67643e-06,-1.73596, , , ,-0.000363498,