File: Figure_codes/Fig_3-5/rawdata_trumpetplot_data/after 10th/20221101_1-115_003_TrumpetPlot_ParaChange_from10_every3_11_CV_C01_29.csv
mode,ox/red,error,control changes,counter inc.,time/s,control/V,Ewe/V,<I>/mA,cycle number,(Q-Qo)/C,I Range,P/W,log(|I|),Tafel slope mV/dec,alpha_eff,dI/d(E-IR),E-IR/V,
2,1,0,1,0,58328.3,2.44065e-05,-0.000363498,9.25409,30,0.0000000E+000,10,-3.36385e-06,-2.03367, , , ,-0.000363498,
2,1,0,1,0,58328.3,0.0101427,0.00974324,12.2622,30,0.000277475,10,0.000119473,-1.91143,0.137419,0.429344,204.762,0.009743236,
2,1,0,1,0,58328.4,0.0205441,0.0201755,14.0254,30,0.000620648,10,0.000282969,-1.85309,0.223406,0.264093,144.303,0.0201755,
2,1,0,1,0,58328.4,0.0309482,0.0305686,15.3634,30,0.00100344,10,0.000469637,-1.81351,0.302787,0.194857,116.664,0.0305686,
2,1,0,1,0,58328.4,0.0413439,0.0409934,16.4691,30,0.00141767,10,0.000675123,-1.78333,0.382775,0.154138,99.019,0.0409934,
2,1,0,1,0,58328.4,0.0517425,0.0513833,17.4667,30,0.0018592,10,0.000897497,-1.75779,0.422161,0.139757,95.3275,0.0513833,
2,1,0,1,0,58328.5,0.0621438,0.061788,18.4449,30,0.0023262,10,0.00113967,-1.73412,0.460602,0.128093,92.1276,0.061788,
2,1,0,1,0,58328.5,0.0725479,0.0721747,19.4023,30,0.00281814,10,0.00140036,-1.71215,0.490208,0.120357,91.0952,0.0721747,
2,1,0,1,0,58328.5,0.0829437,0.0825327,20.3623,30,0.00333508,10,0.00168056,-1.69117,0.504406,0.116969,92.9769,0.0825327,
2,1,0,1,0,58328.5,0.0933422,0.0929501,21.3591,30,0.00387755,10,0.00198533,-1.67042,0.514952,0.114574,95.4693,0.09295015,
2,1,0,1,0,58328.6,0.103749,0.103352,22.3217,30,0.00444547,10,0.00230699,-1.65127,0.562629,0.104865,91.3267,0.103352,
2,1,0,1,0,58328.6,0.114148,0.113725,23.3348,30,0.00503877,10,0.00265374,-1.632,0.532978,0.110699,100.805,0.113725,
2,1,0,1,0,58328.6,0.124543,0.124135,24.428,30,0.00565951,10,0.00303237,-1.61211,0.508609,0.116003,110.584,0.1241346,
2,1,0,1,0,58328.6,0.134942,0.134559,25.6449,30,0.00631035,10,0.00345076,-1.591,0.488387,0.120806,120.915,0.134559,
2,1,0,1,0,58328.7,0.145349,0.144957,26.9124,30,0.00699373,10,0.00390114,-1.57005,0.518302,0.113833,119.511,0.144957,
2,1,0,1,0,58328.7,0.155747,0.155341,28.0896,30,0.00770908,10,0.00436348,-1.55145,0.59766,0.0987184,108.165,0.155341,
2,1,0,1,0,58328.7,0.166143,0.165756,29.0569,30,0.00845284,10,0.00481635,-1.53675,0.882249,0.0668745,75.7878,0.165756,
2,1,0,1,0,58328.7,0.176542,0.176163,29.5719,30,0.0092165,10,0.00520949,-1.52912,4.24109,0.0139115,16.0363,0.176163,
2,1,0,1,0,58328.8,0.186949,0.18658,29.3722,30,0.0099844,10,0.00548025,-1.53206,-1.16753,-0.050534,-57.8613,0.18658,
2,1,0,1,0,58328.8,0.197347,0.19694,28.4021,30,0.0107369,10,0.00559352,-1.54665,-0.520876,-0.113271,-125.386,0.19694,
2,1,0,1,0,58328.8,0.207743,0.207354,26.8036,30,0.0114554,10,0.00555784,-1.57181,-0.351677,-0.167768,-175.289,0.207354,
2,1,0,1,0,58328.8,0.218141,0.217773,24.8607,30,0.0121272,10,0.00541399,-1.60449,-0.303941,-0.194116,-188.399,0.217773,
2,1,0,1,0,58328.9,0.228548,0.228205,22.9506,30,0.0127483,10,0.00523744,-1.63921,-0.300724,-0.196193,-175.718,0.228205,
2,1,0,1,0,58328.9,0.238947,0.238601,21.2403,30,0.013322,10,0.00506795,-1.67284,-0.324356,-0.181899,-150.784,0.238601,
2,1,0,1,0,58328.9,0.249343,0.248983,19.7945,30,0.0138548,10,0.00492848,-1.70346,-0.363157,-0.162464,-125.641,0.248983,
2,1,0,1,0,58329,0.259741,0.259369,18.6219,30,0.0143537,10,0.00482995,-1.72998,-0.423098,-0.139448,-101.407,0.259369,
2,1,0,1,0,58329,0.270148,0.269759,17.6595,30,0.0148248,10,0.00476382,-1.75302,-0.48931,-0.120578,-83.1207,0.269759,
2,1,0,1,0,58329,0.280547,0.280159,16.8587,30,0.0152732,10,0.0047231,-1.77318,-0.546351,-0.107989,-71.0739,0.280159,
2,1,0,1,0,58329,0.290942,0.290582,16.1835,30,0.0157025,10,0.00470264,-1.79093,-0.634851,-0.0929352,-58.7316,0.290582,
2,1,0,0,0,58329.1,0.300012,0.299689,15.6755,30,0.0160641,10,0.00469777,-1.80478,0.00245,24.0816,13329,0.2996892,
2,1,0,1,0,58329.1,0.290704,0.290385,7.013,30,0.01631,10,0.00203647,-2.1541,0.0264095,2.23405,610.893,0.2903851,
2,1,0,1,0,58329.1,0.280305,0.279993,2.13396,30,0.016423,10,0.000597495,-2.67081,0.0124041,4.75649,366.517,0.279993,
2,0,0,1,0,58329.1,0.269909,0.269564,-0.999238,30,0.0164348,10,-0.000269359,-3.00033,-0.00609443,-9.68098,247.417,0.269564,
2,0,0,1,0,58329.2,0.2595,0.259141,-3.17475,30,0.0163789,10,-0.000822709,-2.49829,-0.0406262,-1.45227,176.166,0.2591413,
2,0,0,1,0,58329.2,0.249104,0.248716,-4.77497,30,0.0162745,10,-0.00118761,-2.32103,-0.0818284,-0.721021,133.62,0.248716,
2,0,0,1,0,58329.2,0.238705,0.238305,-6.02294,30,0.0161334,10,-0.0014353,-2.22019,-0.129684,-0.454953,106.495,0.238305,
2,0,0,1,0,58329.2,0.22831,0.227945,-7.01179,30,0.0159635,10,-0.0015983,-2.15417,-0.186893,-0.315689,86.2973,0.227945,
2,0,0,1,0,58329.3,0.2179,0.217564,-7.85478,30,0.0157699,10,-0.00170892,-2.10487,-0.240567,-0.245254,75.07,0.217564,
2,0,0,1,0,58329.3,0.207504,0.207162,-8.57134,30,0.0155561,10,-0.00177566,-2.06695,-0.298192,-0.197859,66.1912,0.207162,
2,0,0,1,0,58329.3,0.197106,0.196735,-9.22419,30,0.0153245,10,-0.00181472,-2.03507,-0.348182,-0.169452,61.0089,0.196735,
2,0,0,1,0,58329.3,0.18671,0.186347,-9.82906,30,0.0150766,10,-0.00183161,-2.00749,-0.399546,-0.147668,56.6218,0.186347,
2,0,0,1,0,58329.4,0.1763,0.175882,-10.4184,30,0.0148134,10,-0.00183241,-1.9822,-0.412626,-0.142987,58.1403,0.175882,
2,0,0,1,0,58329.4,0.165905,0.165511,-11.0407,30,0.0145345,10,-0.00182735,-1.957,-0.415422,-0.142024,61.183,0.165511,
2,0,0,1,0,58329.4,0.155506,0.155122,-11.7343,30,0.0142386,10,-0.00182024,-1.93054,-0.36858,-0.160074,73.3428,0.155122,
2,0,0,1,0,58329.4,0.145105,0.144749,-12.6128,30,0.0139226,10,-0.00182569,-1.89919,-0.289402,-0.203869,100.557,0.1447489,
2,0,0,1,0,58329.5,0.134701,0.134334,-13.874,30,0.0135791,10,-0.00186374,-1.8578,-0.21916,-0.269209,145.877,0.134334,
2,0,0,1,0,58329.5,0.124305,0.123958,-15.6743,30,0.0131961,10,-0.00194295,-1.80481,-0.180439,-0.32698,200.17,0.123958,
2,0,0,1,0,58329.5,0.113906,0.113592,-17.8964,30,0.01276,10,-0.00203289,-1.74723,-0.18396,-0.320722,224.112,0.113592,
2,0,0,1,0,58329.5,0.103505,0.103177,-20.2377,30,0.0122638,10,-0.00208806,-1.69384,-0.21327,-0.276645,218.246,0.103177,
2,0,0,1,0,58329.6,0.0931008,0.0927762,-22.4163,30,0.0117088,10,-0.0020797,-1.64944,-0.260455,-0.226527,198.012,0.0927762,
2,0,0,1,0,58329.6,0.0827051,0.082398,-24.2884,30,0.0111005,10,-0.00200132,-1.6146,-0.354088,-0.166625,157.78,0.082398,
2,0,0,1,0,58329.6,0.0723065,0.0719806,-25.7112,30,0.0104495,10,-0.0018507,-1.58988,-0.505811,-0.116644,116.94,0.0719806,
2,0,0,1,0,58329.6,0.0618997,0.0615346,-26.7021,30,0.00976706,10,-0.0016431,-1.57345,-0.867989,-0.0679732,70.7491,0.06153455,
2,0,0,1,0,58329.7,0.0515011,0.0511394,-27.2454,30,0.00906504,10,-0.00139331,-1.56471,-1.74244,-0.0338606,35.9724,0.0511394,
2,0,0,1,0,58329.7,0.0411053,0.0407304,-27.4819,30,0.008353,10,-0.00111935,-1.56095,-5.2166,-0.01131,12.1313,0.0407304,
2,0,0,1,0,58329.7,0.0307068,0.0303469,-27.5358,30,0.0076372,10,-0.000835626,-1.5601,33.6523,0.00175322,-1.88412,0.0303469,
2,0,0,1,0,58329.8,0.0202999,0.0199306,-27.4589,30,0.00692208,10,-0.000547271,-1.56132,3.99861,0.0147551,-15.8007,0.01993056,
2,0,0,1,0,58329.8,0.00990136,0.00953858,-27.2118,30,0.00621112,10,-0.000259562,-1.56524,2.14662,0.0274851,-29.1926,0.00953858,
2,0,0,1,0,58329.8,-0.000494411,-0.000903245,-26.8526,30,0.00550803,10,2.42545e-05,-1.57101,1.4739,0.0400299,-41.9074,-0.000903245,
2,0,0,1,0,58329.8,-0.010893,-0.0112899,-26.291,30,0.00481712,10,0.000296824,-1.58019,1.0347,0.0570214,-58.467,-0.0112899,
2,0,0,1,0,58329.9,-0.0212998,-0.0217254,-25.6413,30,0.00414202,10,0.000557068,-1.59106,0.949636,0.0621291,-62.186,-0.0217254,
2,0,0,1,0,58329.9,-0.0316984,-0.0321291,-25.0206,30,0.0034836,10,0.00080389,-1.6017,1.02933,0.0573186,-55.9714,-0.0321291,
2,0,0,1,0,58329.9,-0.0420942,-0.0425444,-24.5048,30,0.00284011,10,0.00104254,-1.61075,1.27889,0.0461338,-44.1293,-0.0425444,
2,0,0,1,0,58329.9,-0.0524927,-0.0528399,-24.1296,30,0.00220806,10,0.001275,-1.61745,1.88171,0.0313544,-29.5573,-0.05283986,
2,0,0,1,0,58330,-0.0628996,-0.0632774,-23.9403,30,0.00158341,10,0.00151488,-1.62087,4.77687,0.0123512,-11.5422,-0.0632774,
2,0,0,1,0,58330,-0.0732982,-0.0736875,-23.8902,30,0.000962032,10,0.00176041,-1.62178,-33.8489,-0.00174304,1.62491,-0.0736875,
2,0,0,1,0,58330,-0.0836939,-0.084089,-23.9694,30,0.00034027,10,0.00201556,-1.62034,-4.03352,-0.0146274,13.6809,-0.084089,
2,0,0,1,0,58330,-0.0940925,-0.0944948,-24.1646,30,-0.00028519,10,0.00228343,-1.61682,-2.18849,-0.0269592,25.437,-0.0944948,
2,0,0,1,1,58330.1,-0.0978574,-0.0983091,-20.6468,30,-0.000768791,10,0.00202977,-1.68515,-0.0347117,-1.69972,1356.01,-0.0983091,
2,0,0,1,1,58330.1,-0.0874588,-0.0879096,-11.0857,30,-0.00116776,10,0.000974538,-1.95524,-0.0359947,-1.63913,707.695,-0.0879096,
2,0,0,1,1,58330.1,-0.0770519,-0.0774646,-4.88232,30,-0.00137039,10,0.000378207,-2.31137,-0.0215277,-2.74065,508.852,-0.07746464,
2,0,0,1,1,58330.1,-0.0666562,-0.0670907,-0.183774,30,-0.00143321,10,1.23295e-05,-3.73572,-0.039549,-1.49182,394.629,-0.0670907,
2,1,0,1,1,58330.2,-0.0562576,-0.0567326,3.51249,30,-0.00138783,10,-0.000199273,-2.45438,0.024677,2.39089,315.585,-0.0567326,
2,1,0,1,1,58330.2,-0.0458563,-0.0463385,6.51329,30,-0.00125588,10,-0.000301816,-2.1862,0.0571232,1.03285,260.306,-0.0463385,
2,1,0,1,1,58330.2,-0.0354522,-0.0358818,8.97038,30,-0.00105337,10,-0.000321874,-2.04719,0.0967087,0.610079,212.245,-0.0358818,
2,1,0,1,1,58330.2,-0.0250564,-0.0255164,10.9404,30,-0.000793461,10,-0.000279158,-1.96097,0.146743,0.402064,171.26,-0.0255164,
2,1,0,1,1,58330.3,-0.0146579,-0.0150554,12.5348,30,-0.000487319,10,-0.000188718,-1.90188,0.208376,0.283142,138.346,-0.0150554,
2,1,0,1,1,58330.3,-0.00425653,-0.00467829,13.812,30,-0.000144,10,-6.46168e-05,-1.85974,0.287826,0.204985,110.431,-0.00467829,
2,1,0,0,1,58330.3,-7.54729e-05,-0.000554371,14.2412,30,3.49385e-06,10,-7.89492e-06,-1.84645, , , ,-0.000554371,