File: Figure_codes/Fig_3-5/rawdata_trumpetplot_data/after 10th/20221101_1-115_003_TrumpetPlot_ParaChange_from10_every3_04_CV_C01_22.csv
mode,ox/red,error,control changes,counter inc.,time/s,control/V,Ewe/V,<I>/mA,cycle number,(Q-Qo)/C,I Range,P/W,log(|I|),Tafel slope mV/dec,alpha_eff,dI/d(E-IR),E-IR/V,
2,0,0,1,0,44402.9,2.44065e-05,-0.000382585,-0.376704,23,0.0000000E+000,10,1.44121e-07,-3.424, , , ,-0.000382585,
2,1,0,1,0,44403.6,0.00729063,0.00695755,0.352757,23,0.00017794,10,2.45432e-06,-3.45252,0.0594753,0.992009,13.5144,0.00695755,
2,1,0,1,0,44404.4,0.0147814,0.0144713,0.425035,23,0.000483668,10,6.1508e-06,-3.37158,0.118773,0.496746,8.21081,0.0144713,
2,1,0,1,0,44405.1,0.0222725,0.021957,0.480296,23,0.000834754,10,1.05459e-05,-3.31849,0.154642,0.381527,7.13442,0.021957,
2,1,0,1,0,44405.9,0.0297635,0.0294371,0.530436,23,0.00122494,10,1.56145e-05,-3.27537,0.199091,0.296346,6.1272,0.0294371,
2,1,0,1,0,44406.6,0.0372544,0.0369352,0.579755,23,0.00165275,10,2.14134e-05,-3.23676,0.199285,0.296059,6.72122,0.03693524,
2,1,0,1,0,44407.4,0.0447458,0.0444212,0.630664,23,0.00211867,10,2.80148e-05,-3.2002,0.233256,0.252941,6.22077,0.0444212,
2,1,0,1,0,44408.1,0.0522363,0.0519029,0.679465,23,0.00262123,10,3.52662e-05,-3.16783,0.245914,0.239921,6.3626,0.0519029,
2,1,0,1,0,44408.9,0.0597282,0.0594219,0.720896,23,0.00315731,10,4.2837e-05,-3.14213,0.299875,0.196749,5.52494,0.0594219,
2,1,0,1,0,44409.6,0.0672182,0.0668652,0.759747,23,0.00372318,10,5.08006e-05,-3.11933,0.411147,0.143501,4.23154,0.0668652,
2,1,0,1,0,44410.4,0.0747092,0.0743824,0.789499,23,0.00431433,10,5.87249e-05,-3.10265,0.504942,0.116845,3.59414,0.0743824,
2,1,0,1,0,44411.1,0.0822001,0.0818604,0.814124,23,0.00492677,10,6.66446e-05,-3.08931,0.610385,0.0966603,3.07666,0.0818604,
2,1,0,1,0,44411.9,0.0896911,0.0893649,0.848626,23,0.00556119,10,7.58374e-05,-3.07128,0.380216,0.155175,5.15594,0.0893649,
2,1,0,1,0,44412.6,0.097182,0.0968864,0.904464,23,0.00622918,10,8.76303e-05,-3.04361,0.209902,0.281083,9.93416,0.0968864,
2,1,0,1,0,44413.3,0.104673,0.104337,0.985744,23,0.00694773,10,0.000102849,-3.00624,0.200667,0.29402,11.2783,0.104337,
2,1,0,1,0,44414.1,0.112164,0.111865,1.06105,23,0.00772752,10,0.000118694,-2.97426,0.29107,0.202701,8.3926,0.111865,
2,1,0,1,0,44414.8,0.119655,0.119328,1.11424,23,0.00855658,10,0.00013296,-2.95302,0.608186,0.0970098,4.21494,0.119328,
2,1,0,1,0,44415.6,0.127146,0.126792,1.14094,23,0.00941615,10,0.000144661,-2.94274,0.732839,0.0805088,3.59504,0.126792,
2,1,0,1,0,44416.3,0.134637,0.134321,1.14828,23,0.010291,10,0.000154238,-2.93995,-0.574712,-0.10266,-4.59468,0.134321,
2,1,0,1,0,44417.1,0.142127,0.141819,1.05479,23,0.0111362,10,0.000149589,-2.97683,-0.122483,-0.4817,-19.6973,0.141819,
2,1,0,1,0,44417.8,0.149619,0.149294,0.857469,23,0.0118665,10,0.000128015,-3.06678,-0.0726291,-0.812346,-27.153,0.1492938,
2,1,0,1,0,44418.6,0.157109,0.156796,0.692221,23,0.0124523,10,0.000108538,-3.15976,-0.100046,-0.589731,-15.9809,0.156796,
2,1,0,1,0,44419.3,0.164601,0.164238,0.614407,23,0.0129493,10,0.000100909,-3.21154,-0.19872,-0.2969,-7.11326,0.1642381,
2,1,0,1,0,44420.1,0.172091,0.171784,0.57344,23,0.0134038,10,9.85077e-05,-3.24151,-0.378092,-0.156047,-3.5052,0.171784,
2,1,0,1,0,44420.8,0.179582,0.179246,0.554185,23,0.0138372,10,9.93354e-05,-3.25635,-0.589175,-0.10014,-2.1721,0.179246,
2,1,0,1,0,44421.6,0.187074,0.186757,0.544059,23,0.0142589,10,0.000101607,-3.26435,-0.895441,-0.0658893,-1.39354,0.186757,
2,1,0,1,0,44422.3,0.194564,0.194231,0.53642,23,0.0146731,10,0.000104189,-3.2705,-1.88685,-0.0312691,-0.652457,0.194231,
2,1,0,1,0,44423.1,0.202056,0.201718,0.526847,23,0.0150817,10,0.000106274,-3.27832,-1.16024,-0.0508516,-1.04819,0.201718,
2,1,0,1,0,44423.8,0.209546,0.209242,0.523358,23,0.0154865,10,0.000109508,-3.2812,-1.28073,-0.0460677,-0.941764,0.209242,
2,1,0,1,0,44424.6,0.217038,0.216704,0.517348,23,0.0158873,10,0.000112111,-3.28622,-2.65599,-0.0222139,-0.450167,0.216704,
2,1,0,1,0,44425.3,0.224528,0.224186,0.514824,23,0.0162852,10,0.000115416,-3.28834,-1.25741,-0.0469218,-0.942124,0.224186,
2,1,0,1,0,44426.1,0.232019,0.231686,0.5114,23,0.01668,10,0.000118484,-3.29124,-4.79088,-0.0123151,-0.245311,0.231686,
2,1,0,1,0,44426.8,0.23951,0.239193,0.508214,23,0.0170726,10,0.000121561,-3.29395,-2.47637,-0.0238252,-0.471821,0.2391929,
2,1,0,1,0,44427.6,0.247001,0.246648,0.505631,23,0.0174623,10,0.000124713,-3.29617,-1.21315,-0.0486338,-0.955685,0.246648,
2,1,0,1,0,44428.3,0.254492,0.254239,0.500349,23,0.0178497,10,0.000127208,-3.30073,-2.09328,-0.0281854,-0.551186,0.254239,
2,1,0,1,0,44429.1,0.261983,0.261669,0.49602,23,0.0182343,10,0.000129793,-3.3045,-1.32722,-0.0444538,-0.861807,0.261669,
2,1,0,1,0,44429.8,0.269474,0.269161,0.4937,23,0.0186164,10,0.000132885,-3.30654,-11.7855,-0.00500617,-0.0963818,0.269161,
2,1,0,1,0,44430.6,0.276965,0.276652,0.488155,23,0.0189954,10,0.000135049,-3.31144,-1.84527,-0.0319736,-0.61184,0.2766518,
2,1,0,1,0,44431.3,0.284456,0.284186,0.486857,23,0.0193716,10,0.000138358,-3.3126,-3.67267,-0.0160646,-0.304275,0.284186,
2,1,0,1,0,44432.1,0.291947,0.291624,0.480508,23,0.0197444,10,0.000140127,-3.3183,-0.872282,-0.0676387,-1.26805,0.291624,
2,1,0,1,0,44432.8,0.299437,0.299153,0.477145,23,0.020114,10,0.00014274,-3.32135,-0.00261076,-22.5988,-217.645,0.299153,
2,0,0,1,0,44433.5,0.293745,0.293399,-0.0724392,23,0.0201376,10,-2.12536e-05,-4.14003,-0.0142428,-4.14243,10.6974,0.293399,
2,0,0,1,0,44434.3,0.286253,0.285909,-0.127813,23,0.0200499,10,-3.65428e-05,-3.89343,-0.0520949,-1.13255,5.62114,0.2859093,
2,0,0,1,0,44435,0.278763,0.27844,-0.162891,23,0.0199292,10,-4.53554e-05,-3.7881,-0.091907,-0.641953,4.10029,0.27844,
2,0,0,1,0,44435.8,0.271272,0.270998,-0.192446,23,0.0197845,10,-5.21524e-05,-3.71569,-0.114693,-0.514416,3.84559,0.270998,
2,0,0,1,0,44436.5,0.263781,0.263521,-0.21413,23,0.0196203,10,-5.64277e-05,-3.66932,-0.145006,-0.40688,3.42754,0.263521,
2,0,0,1,0,44437.3,0.25629,0.255935,-0.238155,23,0.0194392,10,-6.09521e-05,-3.62314,-0.289339,-0.203913,1.87987,0.255935,
2,0,0,1,0,44438,0.248799,0.248439,-0.254645,23,0.0192439,10,-6.32636e-05,-3.59407,-0.25903,-0.227773,2.26393,0.2484386,
2,0,0,1,0,44438.8,0.241308,0.241032,-0.272077,23,0.0190356,10,-6.55791e-05,-3.56531,-0.290316,-0.203227,2.15607,0.241032,
2,0,0,1,0,44439.5,0.233817,0.233492,-0.286876,23,0.0188153,10,-6.69833e-05,-3.54231,-0.343446,-0.171788,1.9192,0.233492,
2,0,0,1,0,44440.3,0.226326,0.22603,-0.301399,23,0.0185835,10,-6.81252e-05,-3.52086,-0.286368,-0.206028,2.4283,0.2260301,
2,0,0,1,0,44441,0.218835,0.218523,-0.316413,23,0.0183405,10,-6.91438e-05,-3.49975,-0.351487,-0.167858,2.06885,0.218523,
2,0,0,1,0,44441.8,0.211344,0.211052,-0.330168,23,0.0180862,10,-6.96825e-05,-3.48127,-0.439857,-0.134134,1.73164,0.211052,
2,0,0,1,0,44442.5,0.203854,0.203498,-0.345578,23,0.0178206,10,-7.03243e-05,-3.46145,-0.517611,-0.113985,1.54526,0.203498,
2,0,0,1,0,44443.2,0.196362,0.196042,-0.360894,23,0.0175438,10,-7.07504e-05,-3.44262,-0.331491,-0.177984,2.51517,0.196042,
2,0,0,1,0,44444,0.188872,0.188554,-0.378336,23,0.0172548,10,-7.13368e-05,-3.42212,-0.337345,-0.174895,2.58077,0.188554,
2,0,0,1,0,44444.7,0.18138,0.181057,-0.398367,23,0.0169526,10,-7.21273e-05,-3.39972,-0.390445,-0.15111,2.3441,0.181057,
2,0,0,1,0,44445.5,0.17389,0.173541,-0.41984,23,0.0166353,10,-7.28596e-05,-3.37692,-0.299435,-0.197038,3.22451,0.173541,
2,0,0,1,0,44446.2,0.166398,0.166121,-0.447174,23,0.0162994,10,-7.42851e-05,-3.34952,-0.285243,-0.206841,3.61684,0.166121,
2,0,0,1,0,44447,0.158907,0.158557,-0.485106,23,0.0159387,10,-7.69172e-05,-3.31416,-0.170389,-0.346266,6.57839,0.1585575,
2,0,0,1,0,44447.7,0.151417,0.151085,-0.546427,23,0.0155417,10,-8.25569e-05,-3.26247,-0.127891,-0.46133,9.85105,0.151085,
2,0,0,1,0,44448.5,0.143925,0.143595,-0.649,23,0.0150853,10,-9.31929e-05,-3.18776,-0.0824029,-0.715994,18.1328,0.143595,
2,0,0,1,0,44449.2,0.136435,0.136108,-0.801458,23,0.0145324,10,-0.000109085,-3.09612,-0.0812192,-0.726429,22.7259,0.136108,
2,0,0,1,0,44450,0.128943,0.128637,-0.971175,23,0.0138553,10,-0.000124929,-3.0127,-0.107283,-0.549948,20.7543,0.128637,
2,0,0,1,0,44450.7,0.121453,0.121139,-1.10139,23,0.0130628,10,-0.000133421,-2.95806,-0.199542,-0.295677,12.672,0.121139,
2,0,0,1,0,44451.5,0.113962,0.113626,-1.16027,23,0.0121976,10,-0.000131837,-2.93544,-0.910096,-0.0648283,2.93591,0.113626,
2,0,0,1,0,44452.2,0.106471,0.106161,-1.1598,23,0.0113123,10,-0.000123126,-2.93562,1.16661,0.0505741,-2.29426,0.106161,
2,0,0,1,0,44453,0.0989798,0.0986806,-1.13462,23,0.01044,10,-0.000111965,-2.94515,0.740654,0.0796593,-3.51937,0.0986806,
2,0,0,1,0,44453.7,0.0914889,0.0911729,-1.1039,23,0.00959027,10,-0.000100646,-2.95707,0.658519,0.089595,-3.85339,0.0911729,
2,0,0,1,0,44454.5,0.083998,0.0836864,-1.07079,23,0.00876385,10,-8.96105e-05,-2.9703,0.47692,0.12371,-5.16488,0.0836864,
2,0,0,1,0,44455.2,0.076507,0.0761491,-1.03985,23,0.00796103,10,-7.91838e-05,-2.98303,0.616377,0.0957207,-3.88612,0.0761491,
2,0,0,1,0,44456,0.069016,0.0687156,-1.00602,23,0.00718236,10,-6.9129e-05,-2.99739,0.486405,0.121298,-4.77587,0.0687156,
2,0,0,1,0,44456.7,0.0615251,0.0612143,-0.976794,23,0.00642621,10,-5.97938e-05,-3.0102,0.570233,0.103466,-3.95219,0.0612143,
2,0,0,1,0,44457.5,0.0540342,0.053731,-0.947593,23,0.00569362,10,-5.09151e-05,-3.02338,0.59361,0.0993918,-3.66635,0.053731,
2,0,0,1,0,44458.2,0.0465441,0.0462313,-0.912993,23,0.00498473,10,-4.22089e-05,-3.03953,0.536,0.110075,-3.92583,0.0462313,
2,0,0,1,0,44459,0.0390523,0.0386775,-0.880503,23,0.00430131,10,-3.40556e-05,-3.05527,0.383633,0.153793,-5.27395,0.0386775,
2,0,0,1,0,44459.7,0.0315618,0.031238,-0.846213,23,0.00364352,10,-2.6434e-05,-3.07252,0.438665,0.134499,-4.44295,0.031238,
2,0,0,1,0,44460.5,0.0240704,0.0237098,-0.810501,23,0.00301034,10,-1.92169e-05,-3.09125,0.433319,0.136158,-4.32668,0.0237098,
2,0,0,1,0,44461.2,0.0165796,0.0162471,-0.789908,23,0.00239823,10,-1.28337e-05,-3.10242,0.836854,0.0705021,-2.17551,0.0162471,
2,0,0,1,0,44462,0.00908846,0.00876872,-0.776621,23,0.00180031,10,-6.80997e-06,-3.10979,1.77312,0.0332747,-1.00809,0.00876872,
2,0,0,1,0,44462.7,0.00159728,0.00122471,-0.78241,23,0.00120779,10,-9.58227e-07,-3.10657, , , ,0.00122471,
2,0,0,1,0,44462.9,0.000199195,-0.000199347,-0.774473,23,0.00109675,10,1.54389e-07,-3.11099, , , ,-0.000199347,