File: Figure_codes/Fig_3-5/rawdata_trumpetplot_data/after 10th/20221101_1-115_003_TrumpetPlot_ParaChange_from10_every3_10_CV_C01_15.csv
mode,ox/red,error,control changes,counter inc.,time/s,control/V,Ewe/V,<I>/mA,cycle number,(Q-Qo)/C,I Range,P/W,log(|I|),Tafel slope mV/dec,alpha_eff,dI/d(E-IR),E-IR/V,
2,1,0,0,0,30742.5,-2.44065e-05,-0.000172625,5.18539,16,0.0000000E+000,10,-8.95129e-07,-2.28522, , , ,-0.000172625,
2,1,0,1,0,30742.5,0.00977853,0.00947775,7.73876,16,0.000328041,10,7.3346e-05,-2.11133,0.115246,0.511947,153.945,0.00947775,
2,1,0,1,0,30742.6,0.0197755,0.0194847,8.87718,16,0.000746297,10,0.000172969,-2.05172,0.233941,0.2522,87.4526,0.01948471,
2,1,0,1,0,30742.6,0.0297726,0.0294439,9.65173,16,0.00121063,10,0.000284185,-2.0154,0.331737,0.177852,66.8973,0.0294439,
2,1,0,1,0,30742.7,0.0397514,0.0394145,10.2918,16,0.00170847,10,0.000405647,-1.98751,0.350019,0.168562,67.7791,0.0394145,
2,1,0,1,0,30742.7,0.0497393,0.0494041,10.9563,16,0.00223861,10,0.000541287,-1.96033,0.380328,0.155129,66.2346,0.0494041,
2,1,0,1,0,30742.8,0.0597364,0.0593954,11.6139,16,0.00280262,10,0.000689813,-1.93502,0.373157,0.15811,71.7042,0.0593954,
2,1,0,1,0,30742.8,0.0697152,0.069411,12.319,16,0.00339999,10,0.000855073,-1.90942,0.424024,0.139143,66.8725,0.069411,
2,1,0,1,0,30742.9,0.0796941,0.0793625,12.9917,16,0.00403156,10,0.00103105,-1.88633,0.431185,0.136832,69.4109,0.0793625,
2,1,0,1,0,30742.9,0.0896911,0.0893755,13.6507,16,0.00469829,10,0.00122004,-1.86484,0.496785,0.118764,63.2614,0.0893755,
2,1,0,1,0,30743,0.099679,0.0993407,14.2621,16,0.00539471,10,0.00141681,-1.84582,0.56121,0.10513,58.5078,0.0993407,
2,1,0,1,0,30743,0.109658,0.109323,14.9182,16,0.00612191,10,0.0016309,-1.82628,0.464889,0.126912,73.8556,0.109323,
2,1,0,1,0,30743.1,0.119655,0.119321,15.758,16,0.00688797,10,0.00188026,-1.8025,0.379319,0.155542,95.7479,0.119321,
2,1,0,1,0,30743.1,0.129652,0.129286,16.7809,16,0.00770139,10,0.00216955,-1.77518,0.375416,0.157159,102.868,0.129286,
2,1,0,1,0,30743.2,0.139631,0.139281,17.7571,16,0.00856421,10,0.00247323,-1.75063,0.458851,0.128582,89.1784,0.1392809,
2,1,0,1,0,30743.2,0.149619,0.149287,18.5581,16,0.00947154,10,0.00277048,-1.73147,0.652497,0.0904219,65.3882,0.149287,
2,1,0,1,0,30743.3,0.159616,0.159289,18.8852,16,0.0104104,10,0.00300821,-1.72388,-6.14885,-0.0095953,-7.07076,0.1592889,
2,1,0,1,0,30743.3,0.169595,0.169271,18.245,16,0.0113421,10,0.00308835,-1.73886,-0.313475,-0.188213,-133.7,0.169271,
2,1,0,1,0,30743.4,0.179573,0.179253,16.2704,16,0.0122076,10,0.00291653,-1.7886,-0.153948,-0.383246,-243.42,0.179253,
2,1,0,1,0,30743.4,0.18957,0.18925,13.8411,16,0.0129597,10,0.00261942,-1.85883,-0.138309,-0.42658,-230.319,0.18925,
2,1,0,1,0,30743.5,0.199558,0.199244,11.8812,16,0.0135984,10,0.00236726,-1.92514,-0.17217,-0.342684,-159.097,0.1992445,
2,1,0,1,0,30743.5,0.209537,0.209228,10.573,16,0.0141561,10,0.00221217,-1.9758,-0.220172,-0.267973,-110.552,0.209228,
2,1,0,1,0,30743.6,0.219534,0.219202,9.67459,16,0.0146607,10,0.00212069,-2.01437,-0.313014,-0.18849,-71.2885,0.219202,
2,1,0,1,0,30743.6,0.229531,0.229217,9.07742,16,0.0151288,10,0.0020807,-2.04204,-0.402465,-0.146597,-51.9353,0.229217,
2,1,0,1,0,30743.7,0.23951,0.239184,8.64278,16,0.0155705,10,0.00206721,-2.06335,-0.576929,-0.102266,-34.5593,0.239184,
2,1,0,1,0,30743.7,0.249498,0.249162,8.33242,16,0.0159938,10,0.00207612,-2.07923,-0.661056,-0.0892512,-29.0054,0.249162,
2,1,0,1,0,30743.8,0.259495,0.259192,8.081,16,0.0164039,10,0.00209453,-2.09253,-0.764305,-0.0771943,-24.3632,0.259192,
2,1,0,1,0,30743.8,0.269474,0.26916,7.8908,16,0.0168022,10,0.00212388,-2.10288,-0.998683,-0.0590778,-18.1849,0.26916,
2,1,0,1,0,30743.9,0.279453,0.279158,7.71524,16,0.0171915,10,0.00215377,-2.11265,-1.07157,-0.0550591,-16.5991,0.279158,
2,1,0,1,0,30743.9,0.28945,0.289163,7.57297,16,0.0175737,10,0.00218983,-2.12073,-1.5399,-0.0383142,-11.3241,0.289163,
2,1,0,1,0,30744,0.299438,0.299113,7.43958,16,0.0179482,10,0.00222527,-2.12845,-0.065086,-0.906492,-253.611,0.2991125,
2,1,0,1,0,30744,0.291747,0.291436,0.67246,16,0.0181007,10,0.000195979,-3.17233,0.00259282,22.7552,403.348,0.291436,
2,0,0,1,0,30744.1,0.28175,0.281439,-1.79566,16,0.0180625,10,-0.000505369,-2.74578,-0.026101,-2.26045,154.265,0.281439,
2,0,0,1,0,30744.1,0.27178,0.271463,-2.90239,16,0.0179425,10,-0.000787892,-2.53724,-0.0789238,-0.747557,84.3756,0.271463,
2,0,0,1,0,30744.2,0.261783,0.261406,-3.57499,16,0.0177794,10,-0.000934524,-2.44673,-0.157394,-0.374856,52.1593,0.261406,
2,0,0,1,0,30744.2,0.251786,0.251438,-4.04359,16,0.0175884,10,-0.00101671,-2.39323,-0.219699,-0.268549,42.3629,0.251438,
2,0,0,1,0,30744.3,0.241807,0.241498,-4.41332,16,0.0173767,10,-0.00106581,-2.35523,-0.293577,-0.200969,34.6873,0.241498,
2,0,0,1,0,30744.3,0.231824,0.231488,-4.74196,16,0.017148,10,-0.00109771,-2.32404,-0.341731,-0.172651,31.9165,0.231488,
2,0,0,1,0,30744.4,0.221822,0.221475,-5.02273,16,0.0169038,10,-0.00111241,-2.29906,-0.42446,-0.139,27.2298,0.221475,
2,0,0,1,0,30744.4,0.211843,0.21153,-5.28952,16,0.0166464,10,-0.00111889,-2.27658,-0.499792,-0.118049,24.3397,0.21153,
2,0,0,1,0,30744.5,0.201865,0.201535,-5.54419,16,0.0163761,10,-0.00111735,-2.25616,-0.523686,-0.112663,24.4036,0.2015352,
2,0,0,1,0,30744.5,0.191868,0.19153,-5.80658,16,0.0160921,10,-0.00111213,-2.23608,-0.482578,-0.12226,27.742,0.19153,
2,0,0,1,0,30744.6,0.18188,0.181562,-6.10318,16,0.0157951,10,-0.0011081,-2.21444,-0.395314,-0.149249,35.5267,0.181562,
2,0,0,1,0,30744.6,0.171901,0.171594,-6.44069,16,0.0154826,10,-0.00110518,-2.19107,-0.381278,-0.154743,38.8564,0.171594,
2,0,0,1,0,30744.7,0.161904,0.161562,-6.87274,16,0.0151504,10,-0.00111037,-2.16287,-0.301832,-0.195473,52.4434,0.161562,
2,0,0,1,0,30744.7,0.151907,0.151583,-7.50117,16,0.0147919,10,-0.00113705,-2.12487,-0.221218,-0.266705,78.1977,0.151583,
2,0,0,1,0,30744.8,0.141928,0.141561,-8.52857,16,0.014394,10,-0.00120731,-2.06912,-0.151581,-0.389231,129.745,0.141561,
2,0,0,1,0,30744.8,0.13194,0.131588,-10.1391,16,0.0139307,10,-0.00133419,-1.994,-0.124543,-0.473732,187.411,0.131588,
2,0,0,1,0,30744.9,0.121943,0.121591,-12.1665,16,0.0133738,10,-0.00147933,-1.91484,-0.135301,-0.436065,206.944,0.121591,
2,0,0,1,0,30744.9,0.111964,0.111638,-14.1509,16,0.0127164,10,-0.00157979,-1.84922,-0.176176,-0.334893,184.806,0.111638,
2,0,0,1,0,30745,0.101985,0.101676,-15.7927,16,0.0119673,10,-0.00160574,-1.80154,-0.259805,-0.227094,139.899,0.101676,
2,0,0,1,0,30745,0.0919883,0.0916547,-16.9615,16,0.0111462,10,-0.0015546,-1.77054,-0.419224,-0.140736,93.1031,0.0916547,
2,0,0,1,0,30745.1,0.0820004,0.0817048,-17.5448,16,0.0102822,10,-0.00143349,-1.75585,-1.69517,-0.0348047,23.8183,0.0817048,
2,0,0,1,0,30745.1,0.0720215,0.0716842,-17.5149,16,0.0094054,10,-0.00125554,-1.75659,1.5655,0.0376876,-25.7445,0.0716842,
2,0,0,1,0,30745.2,0.0620245,0.0617059,-17.141,16,0.00853834,10,-0.0010577,-1.76596,0.900399,0.0655265,-43.8634,0.0617059,
2,0,0,1,0,30745.2,0.0520275,0.051692,-16.7504,16,0.00769116,10,-0.00086586,-1.77598,0.942847,0.0625765,-40.8715,0.051692,
2,0,0,1,0,30745.3,0.0420486,0.0417042,-16.359,16,0.00686515,10,-0.000682236,-1.78624,1.02605,0.0575019,-36.75,0.0417042,
2,0,0,1,0,30745.3,0.0320607,0.0317292,-15.9621,16,0.00605855,10,-0.000506465,-1.79691,0.855853,0.068937,-42.9003,0.0317292,
2,0,0,1,0,30745.4,0.0220637,0.0217596,-15.4598,16,0.00527263,10,-0.000336398,-1.8108,0.648088,0.091037,-54.9681,0.02175957,
2,0,0,1,0,30745.4,0.0120848,0.0117538,-14.8665,16,0.00451559,10,-0.000174737,-1.82779,0.477614,0.123531,-71.5839,0.0117538,
2,0,0,1,0,30745.5,0.00210598,0.00173264,-14.1824,16,0.00379189,10,-2.4573e-05,-1.84825,0.51909,0.11366,-62.8539,0.00173264,
2,0,0,1,0,30745.5,-0.00789103,-0.00822227,-13.5012,16,0.00310036,10,0.000111011,-1.86963,0.524364,0.112517,-59.2807,-0.00822227,
2,0,0,1,0,30745.6,-0.017879,-0.0182459,-13.009,16,0.00243981,10,0.000237361,-1.88576,0.780285,0.0756134,-38.4058,-0.0182459,
2,0,0,1,0,30745.6,-0.0278578,-0.0282327,-12.721,16,0.00179884,10,0.000359147,-1.89548,1.31162,0.0449825,-22.3294,-0.0282327,
2,0,0,1,0,30745.7,-0.0378548,-0.0382527,-12.6162,16,0.00116612,10,0.000482605,-1.89907,12.3262,0.00478656,-2.35849,-0.0382527,
2,0,0,1,0,30745.7,-0.0478519,-0.0482189,-12.6753,16,0.000534255,10,0.000611189,-1.89704,-1.75441,-0.0336295,16.6323,-0.0482189,
2,0,0,1,0,30745.8,-0.0578126,-0.0581877,-12.8416,16,-0.000100808,10,0.000747225,-1.89138,-1.27914,-0.0461249,23.1423,-0.0581877,
2,0,0,1,0,30745.8,-0.0678187,-0.0682016,-13.1318,16,-0.00074979,10,0.000895608,-1.88168,-0.886066,-0.0665865,34.1042,-0.0682016,
2,0,0,1,0,30745.9,-0.0778157,-0.0782172,-13.4933,16,-0.00141504,10,0.00105541,-1.86988,-0.748009,-0.0788761,41.5661,-0.0782172,
2,0,0,1,0,30745.9,-0.0877945,-0.0881302,-13.9779,16,-0.00210001,10,0.00123188,-1.85456,-0.613749,-0.0961305,52.4138,-0.0881302,
2,0,0,1,0,30746,-0.0977734,-0.0981314,-14.5273,16,-0.00281103,10,0.00142558,-1.83782,-0.549342,-0.107401,60.9669,-0.0981314,
2,0,0,1,1,30746,-0.0936874,-0.0940552,-7.04628,16,-0.00329598,10,0.000662739,-2.15204,-0.0197619,-2.98555,821.034,-0.09405522,
2,0,0,1,1,30746.1,-0.0837086,-0.0841057,-0.995953,16,-0.00348146,10,8.37653e-05,-3.00176,-0.00321133,-18.3725,458.656,-0.0841057,
2,1,0,1,1,30746.1,-0.0737025,-0.0740718,2.72517,16,-0.00343112,10,-0.000201858,-2.56461,0.0203174,2.90392,299.489,-0.0740718,
2,1,0,1,1,30746.2,-0.0637236,-0.0641183,5.20107,16,-0.00322934,10,-0.000333484,-2.28391,0.0581641,1.01437,205.201,-0.0641183,
2,1,0,1,1,30746.2,-0.0537447,-0.0541646,6.91881,16,-0.00292403,10,-0.000374755,-2.15997,0.115407,0.511236,137.489,-0.0541646,
2,1,0,1,1,30746.3,-0.0437477,-0.0441403,8.07597,16,-0.00254707,10,-0.000356476,-2.09281,0.19813,0.297785,93.8605,-0.0441403,
2,1,0,1,1,30746.3,-0.0337507,-0.034129,8.86993,16,-0.00212177,10,-0.000302722,-2.05208,0.320344,0.184177,63.6906,-0.034129,
2,1,0,1,1,30746.4,-0.0237809,-0.0241298,9.37274,16,-0.00166662,10,-0.000226163,-2.02813,0.526848,0.111987,40.9383,-0.0241298,
2,1,0,1,1,30746.4,-0.0137839,-0.0141645,9.67224,16,-0.00118982,10,-0.000137002,-2.01447,1.03106,0.0572227,21.5882,-0.0141645,
2,1,0,1,1,30746.5,-0.0037869,-0.00419137,9.83766,16,-0.000701535,10,-4.12333e-05,-2.00711,1.91822,0.0307578,11.816,-0.00419137,
2,1,0,1,1,30746.5,-2.55332e-05,-0.000535284,9.85896,16,-0.000517103,10,-5.27734e-06,-2.00617, , , ,-0.000535284,