File: Figure_codes/Fig_3-5/rawdata_trumpetplot_data/after 10th/20221101_1-115_003_TrumpetPlot_ParaChange_from10_every3_14_CV_C01_22.csv
mode,ox/red,error,control changes,counter inc.,time/s,control/V,Ewe/V,<I>/mA,cycle number,(Q-Qo)/C,I Range,P/W,log(|I|),Tafel slope mV/dec,alpha_eff,dI/d(E-IR),E-IR/V,
2,1,0,1,0,44542,2.44065e-05,-0.0002108,34.2222,23,0.0000000E+000,10,-7.21402e-06,-1.46569, , , ,-0.0002108,
2,1,0,1,0,44542,0.0133084,0.0129754,38.0802,23,0.000478243,10,0.000494104,-1.4193,0.39263,0.150269,222.418,0.0129754,
2,1,0,1,0,44542,0.0273414,0.0270162,40.7951,23,0.00103136,10,0.00110213,-1.38939,0.533909,0.110506,175.497,0.0270162,
2,1,0,1,0,44542,0.0413245,0.0410104,43.0331,23,0.00161883,10,0.0017648,-1.3662,0.665412,0.0886669,148.713,0.0410104,
2,1,0,1,0,44542,0.0553076,0.0549547,44.992,23,0.00223539,10,0.00247252,-1.34686,0.762245,0.0774029,135.847,0.0549547,
2,1,0,1,0,44542,0.0693407,0.0689691,46.8021,23,0.00287828,10,0.00322789,-1.32974,0.859091,0.0686772,125.33,0.0689691,
2,1,0,1,0,44542.1,0.0833238,0.0829208,48.4851,23,0.00354553,10,0.00402042,-1.31439,0.913849,0.0645621,122.196,0.0829208,
2,1,0,1,0,44542.1,0.0973069,0.0969193,50.2304,23,0.00423668,10,0.00486829,-1.29903,0.896659,0.0657998,129.025,0.0969193,
2,1,0,1,0,44542.1,0.11134,0.110919,52.0148,23,0.00495266,10,0.00576942,-1.28387,0.906723,0.0650695,132.16,0.110919,
2,1,0,1,0,44542.1,0.125323,0.124947,53.9663,23,0.00569435,10,0.00674292,-1.26788,0.871888,0.0676692,142.509,0.124947,
2,1,0,1,0,44542.1,0.139306,0.138923,56.0119,23,0.00646418,10,0.00778134,-1.25172,0.828641,0.0712009,155.788,0.138923,
2,1,0,1,0,44542.1,0.153339,0.152954,58.3128,23,0.00726453,10,0.00891919,-1.23424,0.797832,0.0739504,168.345,0.152954,
2,1,0,1,0,44542.1,0.167322,0.166945,60.7287,23,0.00809805,10,0.0101384,-1.21661,0.814459,0.0724407,171.62,0.166945,
2,1,0,1,0,44542.2,0.181305,0.180948,63.0337,23,0.00896504,10,0.0114058,-1.20043,0.935587,0.063062,155.034,0.180948,
2,1,0,1,0,44542.2,0.195338,0.194982,64.9908,23,0.00986209,10,0.0126721,-1.18715,1.326,0.0444949,112.631,0.194982,
2,1,0,1,0,44542.2,0.209322,0.208955,66.173,23,0.0107813,10,0.0138272,-1.17932,3.014,0.0195753,50.4184,0.208955,
2,1,0,1,0,44542.2,0.223305,0.222971,66.3394,23,0.0117101,10,0.0147918,-1.17823,-6.39782,-0.00922189,-23.8222,0.222971,
2,1,0,1,0,44542.2,0.237338,0.236996,65.4751,23,0.0126341,10,0.0155173,-1.18392,-1.45214,-0.0406297,-103.55,0.236996,
2,1,0,1,0,44542.2,0.251321,0.251007,63.5203,23,0.0135381,10,0.015944,-1.19709,-0.84189,-0.0700804,-173.291,0.2510069,
2,1,0,1,0,44542.2,0.265304,0.265028,60.6475,23,0.014408,10,0.0160733,-1.21719,-0.612657,-0.0963018,-227.578,0.265028,
2,1,0,1,0,44542.3,0.279337,0.27904,57.1743,23,0.0152331,10,0.0159539,-1.2428,-0.496728,-0.118777,-264.745,0.2790398,
2,1,0,1,0,44542.3,0.29332,0.293032,53.426,23,0.0160069,10,0.0156555,-1.27225,-0.465574,-0.126725,-265.203,0.2930319,
2,1,0,1,0,44542.3,0.298714,0.298598,48.7089,23,0.016423,10,0.0145444,-1.31239,0.0531405,1.11026,1893.73,0.298598,
2,1,0,1,0,44542.3,0.28473,0.284496,29.6051,23,0.016955,10,0.00842252,-1.52863,0.0650637,0.906803,1052.73,0.284496,
2,1,0,1,0,44542.3,0.270747,0.27052,17.3214,23,0.0172777,10,0.00468581,-1.76142,0.0525313,1.12314,750.124,0.27052,
2,1,0,1,0,44542.3,0.256714,0.256458,8.18086,23,0.0174522,10,0.00209805,-2.0872,0.0308717,1.91113,570.063,0.256458,
2,1,0,1,0,44542.3,0.242731,0.242473,1.18196,23,0.0175151,10,0.000286594,-2.9274,0.0433472,1.3611,442.16,0.242473,
2,0,0,1,0,44542.3,0.228748,0.228469,-4.33752,23,0.017491,10,-0.00099099,-2.36276,-0.0222991,-2.64585,354.663,0.228469,
2,0,0,1,0,44542.4,0.214715,0.214412,-8.82551,23,0.0173971,10,-0.0018923,-2.05426,-0.0679078,-0.868825,287.97,0.2144123,
2,0,0,1,0,44542.4,0.200732,0.200381,-12.5044,23,0.0172467,10,-0.00250565,-1.90294,-0.117119,-0.503762,242.127,0.200381,
2,0,0,1,0,44542.4,0.186735,0.18643,-15.6604,23,0.0170488,10,-0.00291957,-1.8052,-0.169179,-0.348744,211.567,0.18643,
2,0,0,1,0,44542.4,0.172716,0.172401,-18.4694,23,0.0168092,10,-0.00318415,-1.73355,-0.222584,-0.265068,190.299,0.1724011,
2,0,0,1,0,44542.4,0.158733,0.158397,-21.1147,23,0.016532,10,-0.00334452,-1.67541,-0.252658,-0.233517,192.301,0.158397,
2,0,0,1,0,44542.4,0.144719,0.144398,-23.9485,23,0.0162168,10,-0.00345812,-1.62072,-0.253585,-0.232663,217.821,0.144398,
2,0,0,1,0,44542.4,0.130717,0.130426,-27.2881,23,0.0158585,10,-0.00355908,-1.56403,-0.236485,-0.249487,266.6,0.130426,
2,0,0,1,0,44542.5,0.116733,0.116474,-31.4976,23,0.0154477,10,-0.00366865,-1.50172,-0.220192,-0.267948,329.747,0.1164742,
2,0,0,1,0,44542.5,0.102703,0.102467,-36.4294,23,0.0149725,10,-0.00373282,-1.43855,-0.231798,-0.254532,361.071,0.102467,
2,0,0,1,0,44542.5,0.0887172,0.0884402,-41.4139,23,0.0144269,10,-0.00366265,-1.38285,-0.275887,-0.213856,344.543,0.0884402,
2,0,0,1,0,44542.5,0.0747341,0.0744524,-45.9968,23,0.0138139,10,-0.00342457,-1.33727,-0.349934,-0.168603,301.328,0.0744524,
2,0,0,1,0,44542.5,0.0607011,0.0604582,-49.9189,23,0.013142,10,-0.00301801,-1.30174,-0.447307,-0.131901,255.811,0.0604582,
2,0,0,1,0,44542.5,0.046718,0.0464927,-52.9786,23,0.0124205,10,-0.00246312,-1.2759,-0.632724,-0.0932476,192.336,0.0464927,
2,0,0,1,0,44542.5,0.0327349,0.0324837,-55.3526,23,0.0116614,10,-0.00179806,-1.25686,-0.85023,-0.069393,149.624,0.0324837,
2,0,0,1,0,44542.6,0.0187018,0.018393,-57.2058,23,0.0108729,10,-0.00105219,-1.24256,-1.21523,-0.0485505,108.126,0.018393,
2,0,0,1,0,44542.6,0.00471873,0.00440091,-58.3801,23,0.010063,10,-0.000256926,-1.23373,-1.97413,-0.0298865,68.0283,0.004400908,
2,0,0,1,0,44542.6,-0.00926438,-0.00959964,-59.0915,23,0.00923976,10,0.000567257,-1.22848,-4.70975,-0.0125272,28.8492,-0.00959964,
2,0,0,1,0,44542.6,-0.0232974,-0.0236744,-59.3141,23,0.0084106,10,0.00140423,-1.22684,46.5739,0.00126681,-2.92667,-0.0236744,
2,0,0,1,0,44542.6,-0.0372805,-0.0376516,-58.9993,23,0.00758209,10,0.00222142,-1.22915,4.08927,0.014428,-33.1944,-0.0376516,
2,0,0,1,0,44542.6,-0.0512637,-0.0516405,-58.3981,23,0.00676011,10,0.00301571,-1.2336,2.6577,0.0221996,-50.5679,-0.05164054,
2,0,0,1,0,44542.6,-0.0652967,-0.06571,-57.6863,23,0.00594777,10,0.00379056,-1.23893,2.50854,0.0235196,-52.9081,-0.06571,
2,0,0,1,0,44542.7,-0.0792798,-0.0796607,-56.9029,23,0.00514587,10,0.00453293,-1.24487,2.57968,0.022871,-50.8113,-0.0796607,
2,0,0,1,0,44542.7,-0.0932629,-0.0936475,-56.2526,23,0.00435398,10,0.00526792,-1.24986,3.3383,0.0176737,-38.8265,-0.0936475,
2,0,0,1,0,44542.7,-0.107296,-0.107712,-55.849,23,0.00356967,10,0.00601559,-1.25298,5.52814,0.0106727,-23.2609,-0.1077117,
2,0,0,1,0,44542.7,-0.121279,-0.121628,-55.5854,23,0.00279008,10,0.00676077,-1.25504,12.6401,0.00466769,-10.1312,-0.121628,
2,0,0,1,0,44542.7,-0.135262,-0.135572,-55.541,23,0.00201243,10,0.00752979,-1.25539,-32.4681,-0.00181717,3.9417,-0.135572,
2,0,0,1,0,44542.7,-0.149295,-0.149677,-55.7371,23,0.00123365,10,0.00834257,-1.25386,-6.98424,-0.00844759,18.3771,-0.149677,
2,0,0,1,0,44542.7,-0.163278,-0.163636,-56.0472,23,0.000451317,10,0.00917136,-1.25145,-5.0694,-0.0116385,25.4582,-0.163636,
2,0,0,1,0,44542.8,-0.177261,-0.177622,-56.4237,23,-0.00033591,10,0.0100221,-1.24854,-4.43086,-0.0133157,29.3254,-0.177622,
2,0,0,1,0,44542.8,-0.191295,-0.191649,-56.8815,23,-0.00112901,10,0.0109013,-1.24503,-4.21736,-0.0139898,31.0385,-0.191649,
2,0,0,0,1,44542.8,-0.199984,-0.200551,-56.7695,23,-0.00165901,10,0.0113852,-1.24588,-0.0402162,-1.46707,2881.86,-0.200551,
2,0,0,1,1,44542.8,-0.186686,-0.187091,-37.2978,23,-0.00225193,10,0.00697806,-1.42832,-0.0829686,-0.711112,1049.12,-0.187091,
2,0,0,1,1,44542.8,-0.172667,-0.173028,-25.3055,23,-0.00268428,10,0.00437858,-1.59678,-0.0787538,-0.74917,738.833,-0.173028,
2,0,0,1,1,44542.8,-0.158684,-0.15912,-16.103,23,-0.0029709,10,0.00256231,-1.79309,-0.0611161,-0.965376,597.692,-0.1591202,
2,0,0,1,1,44542.8,-0.14467,-0.145133,-8.38392,23,-0.00314034,10,0.00121679,-2.07655,-0.0355272,-1.6607,510.528,-0.145133,
2,0,0,1,1,44542.8,-0.130668,-0.131092,-1.73421,23,-0.00320954,10,0.00022734,-2.7609,-0.0319913,-1.84425,447.316,-0.131092,
2,1,0,1,1,44542.9,-0.116685,-0.117157,4.17333,23,-0.00319118,10,-0.000488933,-2.37952,0.0172721,3.41592,403.723,-0.117157,
2,1,0,1,1,44542.9,-0.102654,-0.10313,9.60854,23,-0.00309396,10,-0.000990925,-2.01734,0.0574238,1.02745,368.616,-0.10313,
2,1,0,1,1,44542.9,-0.0886685,-0.0891376,14.5461,23,-0.00292396,10,-0.00129661,-1.83725,0.0968019,0.609492,340.624,-0.0891376,
2,1,0,1,1,44542.9,-0.0746854,-0.0750999,19.122,23,-0.00268737,10,-0.00143606,-1.71847,0.139338,0.42343,313.137,-0.0750999,
2,1,0,1,1,44542.9,-0.0606523,-0.0611004,23.3684,23,-0.00238938,10,-0.00142782,-1.63137,0.18525,0.318489,288.348,-0.0611004,
2,1,0,1,1,44542.9,-0.0466692,-0.0470044,27.2016,23,-0.00203477,10,-0.0012786,-1.56541,0.237807,0.2481,262.265,-0.0470044,
2,1,0,1,1,44542.9,-0.0326861,-0.0330728,30.712,23,-0.00162864,10,-0.00101573,-1.51269,0.294168,0.200566,239.728,-0.0330728,
2,1,0,1,1,44543,-0.018653,-0.0190638,33.953,23,-0.00117542,10,-0.000647273,-1.46912,0.35804,0.164786,217.655,-0.0190638,
2,1,0,1,1,44543,-0.00466992,-0.00511094,36.8024,23,-0.000679461,10,-0.000188095,-1.43412, , , ,-0.00511094,
2,1,0,0,1,44543,-0.000175352,-0.000554371,37.658,23,-0.000511886,10,-2.08765e-05,-1.42414, , , ,-0.000554371,