File: Figure_codes/Fig_3-5/rawdata_trumpetplot_data/after 10th/20221101_1-115_003_TrumpetPlot_ParaChange_from10_every3_09_CV_C01_29.csv
mode,ox/red,error,control changes,counter inc.,time/s,control/V,Ewe/V,<I>/mA,cycle number,(Q-Qo)/C,I Range,P/W,log(|I|),Tafel slope mV/dec,alpha_eff,dI/d(E-IR),E-IR/V,
2,0,0,0,0,58316.3,2.44065e-05,-0.000401673,-5.30023,30,0.0000000E+000,10,2.12896e-06,-2.27571, , , ,-0.000401673,
2,1,0,1,0,58316.4,0.00978761,0.00939576,0.632859,30,-0.000149501,10,5.94619e-06,-3.19869,0.00200329,29.4516,282.599,0.00939576,
2,1,0,1,0,58316.5,0.0197755,0.0193969,2.51985,30,2.16221e-05,10,4.88771e-05,-2.59863,0.0464686,1.26967,123.789,0.0193969,
2,1,0,1,0,58316.6,0.0297635,0.0294019,3.47663,30,0.000325782,10,0.000102219,-2.45884,0.10774,0.547613,74.0591,0.0294019,
2,1,0,1,0,58316.7,0.0397514,0.0393485,4.12496,30,0.000707423,10,0.000162311,-2.38458,0.154442,0.382021,61.5034,0.0393485,
2,1,0,1,0,58316.8,0.0497484,0.0493863,4.67697,30,0.00114795,10,0.000230978,-2.33004,0.207294,0.28462,51.8294,0.0493863,
2,1,0,1,0,58316.9,0.0597273,0.0593564,5.15757,30,0.00163908,10,0.000306135,-2.28756,0.248634,0.237297,47.7243,0.0593564,
2,1,0,1,0,58317,0.0697152,0.0693749,5.59935,30,0.00217733,10,0.000388454,-2.25186,0.309133,0.190856,41.6939,0.0693749,
2,1,0,1,0,58317.1,0.0797031,0.0793647,5.9921,30,0.0027573,10,0.000475561,-2.22242,0.391159,0.150834,35.2519,0.0793647,
2,1,0,1,0,58317.2,0.0896911,0.0893253,6.32633,30,0.00337351,10,0.000565101,-2.19885,0.441022,0.13378,33.0646,0.0893253,
2,1,0,1,0,58317.3,0.099679,0.0992673,6.68548,30,0.00402235,10,0.00066365,-2.17487,0.396854,0.148669,38.7219,0.0992673,
2,1,0,1,0,58317.4,0.109667,0.109317,7.17166,30,0.00471275,10,0.000783981,-2.14438,0.287456,0.205249,57.4668,0.109317,
2,1,0,1,0,58317.5,0.119655,0.119326,7.80878,30,0.00546075,10,0.000931787,-2.10742,0.298969,0.197345,60.105,0.119326,
2,1,0,1,0,58317.6,0.129643,0.129299,8.38531,30,0.00627123,10,0.00108421,-2.07648,0.400421,0.147345,48.2053,0.129299,
2,1,0,1,0,58317.7,0.139631,0.139296,8.76107,30,0.00713018,10,0.00122038,-2.05744,0.707152,0.0834332,28.5455,0.139296,
2,1,0,1,0,58317.8,0.149619,0.149259,8.85429,30,0.00801332,10,0.00132158,-2.05285,-1.03146,-0.0572004,-19.7125,0.149259,
2,1,0,1,0,58317.9,0.159607,0.15923,8.2143,30,0.0088732,10,0.00130796,-2.08543,-0.172337,-0.342352,-109.592,0.1592299,
2,1,0,1,0,58318,0.169595,0.169258,6.94573,30,0.00963256,10,0.00117562,-2.15828,-0.120968,-0.487731,-132.218,0.169258,
2,1,0,1,0,58318.1,0.179582,0.179246,5.81698,30,0.0102668,10,0.00104267,-2.2353,-0.143494,-0.411167,-93.487,0.179246,
2,1,0,1,0,58318.2,0.18957,0.189191,5.0839,30,0.0108087,10,0.000961828,-2.2938,-0.20381,-0.289486,-57.4938,0.189191,
2,1,0,1,0,58318.3,0.199558,0.199168,4.62497,30,0.0112915,10,0.000921145,-2.33489,-0.301461,-0.195714,-35.2964,0.199168,
2,1,0,1,0,58318.4,0.209546,0.209175,4.32363,30,0.0117373,10,0.000904397,-2.36415,-0.365202,-0.161554,-27.2722,0.209175,
2,1,0,1,0,58318.5,0.219534,0.219171,4.11186,30,0.0121579,10,0.000901197,-2.38596,-0.549542,-0.107362,-17.247,0.219171,
2,1,0,1,0,58318.6,0.229522,0.229168,3.9652,30,0.0125616,10,0.0009087,-2.40173,-0.763273,-0.0772987,-11.9808,0.229168,
2,1,0,1,0,58318.7,0.23951,0.239189,3.87347,30,0.0129531,10,0.000926491,-2.4119,-1.23916,-0.047613,-7.19116,0.239189,
2,1,0,1,0,58318.8,0.249498,0.249185,3.79552,30,0.0133356,10,0.000945788,-2.42073,-1.30905,-0.045071,-6.67065,0.249185,
2,1,0,1,0,58318.9,0.259486,0.259155,3.7365,30,0.0137116,10,0.000968334,-2.42754,-1.32869,-0.0444045,-6.46924,0.259155,
2,1,0,1,0,58319,0.269474,0.269128,3.67671,30,0.014082,10,0.000989504,-2.43454,-1.72304,-0.0342419,-4.91602,0.269128,
2,1,0,1,0,58319.1,0.279462,0.279121,3.632,30,0.0144475,10,0.00101377,-2.43985,-2.0132,-0.0293066,-4.15674,0.2791208,
2,1,0,1,0,58319.2,0.28945,0.289087,3.58578,30,0.0148085,10,0.0010366,-2.44542,-2.2993,-0.0256599,-3.59248,0.289087,
2,1,0,1,0,58319.3,0.299438,0.299098,3.54472,30,0.0151648,10,0.00106022,-2.45042,-0.0403113,-1.46361,-190.171,0.299098,
2,0,0,1,0,58319.4,0.291747,0.291351,-0.365096,30,0.0152625,10,-0.000106371,-3.43759,-0.00354435,-16.6462,183.477,0.291351,
2,0,0,1,0,58319.5,0.281759,0.281412,-1.39826,30,0.0151652,10,-0.000393486,-2.85441,-0.0527531,-1.11842,60.277,0.281412,
2,0,0,1,0,58319.6,0.271771,0.271426,-1.84133,30,0.0150016,10,-0.000499784,-2.73487,-0.122599,-0.481245,34.4638,0.271426,
2,0,0,1,0,58319.7,0.261783,0.261409,-2.1163,30,0.0148034,10,-0.00055322,-2.67442,-0.225713,-0.261394,21.5557,0.261409,
2,0,0,1,0,58319.8,0.251795,0.251427,-2.31616,30,0.0145818,10,-0.000582346,-2.63523,-0.31918,-0.184848,16.6973,0.251427,
2,0,0,1,0,58319.9,0.241807,0.241461,-2.47651,30,0.0143419,10,-0.000597981,-2.60616,-0.359321,-0.164198,15.9063,0.241461,
2,0,0,1,0,58320,0.231815,0.231499,-2.62854,30,0.0140869,10,-0.000608504,-2.58029,-0.414109,-0.142475,14.6009,0.231499,
2,0,0,1,0,58320.1,0.221831,0.221489,-2.7524,30,0.0138185,10,-0.000609627,-2.56029,-0.540178,-0.109223,11.737,0.221489,
2,0,0,1,0,58320.2,0.211843,0.211458,-2.87302,30,0.0135375,10,-0.000607522,-2.54166,-0.62123,-0.0949729,10.6466,0.211458,
2,0,0,1,0,58320.3,0.201856,0.20149,-2.99311,30,0.0132443,10,-0.00060308,-2.52388,-0.626029,-0.0942449,11.0234,0.20149,
2,0,0,1,0,58320.4,0.191868,0.19149,-3.12076,30,0.012939,10,-0.000597594,-2.50574,-0.525607,-0.112251,13.6879,0.19149,
2,0,0,1,0,58320.5,0.18188,0.181478,-3.2595,30,0.0126211,10,-0.000591526,-2.48685,-0.451918,-0.130555,16.5795,0.181478,
2,0,0,1,0,58320.6,0.171892,0.171507,-3.41566,30,0.0122881,10,-0.00058581,-2.46652,-0.463706,-0.127236,16.9578,0.171507,
2,0,0,1,0,58320.7,0.161904,0.16152,-3.62385,30,0.0119371,10,-0.000585326,-2.44083,-0.327511,-0.180146,25.4914,0.16152,
2,0,0,1,0,58320.8,0.151916,0.151602,-3.92053,30,0.0115611,10,-0.000594361,-2.40666,-0.235429,-0.250607,38.461,0.151602,
2,0,0,1,0,58320.9,0.141928,0.141565,-4.46679,30,0.0111445,10,-0.00063234,-2.35,-0.146978,-0.40142,70.0404,0.1415648,
2,0,0,1,0,58321,0.13194,0.131532,-5.39145,30,0.0106563,10,-0.000709148,-2.26829,-0.110154,-0.535614,112.679,0.131532,
2,0,0,1,0,58321.1,0.121952,0.121586,-6.55666,30,0.01006,10,-0.0007972,-2.18332,-0.133507,-0.441925,112.976,0.121586,
2,0,0,1,0,58321.2,0.111964,0.111581,-7.62173,30,0.00934992,10,-0.000850441,-2.11795,-0.182177,-0.323861,96.2845,0.111581,
2,0,0,1,0,58321.3,0.101976,0.101584,-8.43318,30,0.00854506,10,-0.000856676,-2.07401,-0.312283,-0.188931,62.115,0.101584,
2,0,0,1,0,58321.4,0.0919883,0.0916121,-8.84552,30,0.00767807,10,-0.000810357,-2.05328,-0.964792,-0.0611531,21.1059,0.0916121,
2,0,0,1,0,58321.5,0.0820004,0.0816261,-8.83168,30,0.00679259,10,-0.000720895,-2.05396,1.18352,0.0498512,-17.1688,0.0816261,
2,0,0,1,0,58321.6,0.0720124,0.0716308,-8.59745,30,0.00592147,10,-0.000615843,-2.06563,0.779858,0.0756548,-25.3928,0.0716308,
2,0,0,1,0,58321.7,0.0620245,0.0616288,-8.37614,30,0.00507394,10,-0.000516211,-2.07696,0.897288,0.0657537,-21.4936,0.0616288,
2,0,0,1,0,58321.8,0.0520366,0.0516317,-8.19258,30,0.00424631,10,-0.000422996,-2.08658,0.912292,0.0646723,-20.6598,0.0516317,
2,0,0,1,0,58321.9,0.0420486,0.0416381,-7.97379,30,0.00343841,10,-0.000332014,-2.09834,0.890351,0.066266,-20.6367,0.04163814,
2,0,0,1,0,58322,0.0320607,0.0316783,-7.72885,30,0.00265421,10,-0.000244837,-2.11188,0.636885,0.0926384,-27.9198,0.0316783,
2,0,0,1,0,58322.1,0.0220728,0.0216806,-7.41404,30,0.00189756,10,-0.000160741,-2.12995,0.515023,0.114558,-33.1362,0.02168062,
2,0,0,1,0,58322.2,0.0120848,0.0116943,-7.07147,30,0.00117396,10,-8.26959e-05,-2.15049,0.473374,0.124637,-34.3993,0.0116943,
2,0,0,1,0,58322.3,0.0020969,0.00173394,-6.81239,30,0.000482648,10,-1.18123e-05,-2.1667,0.775268,0.0761027,-20.1515,0.00173394,
2,0,0,1,0,58322.4,-0.00789103,-0.00831212,-6.57765,30,-0.000185186,10,5.46742e-05,-2.18193,1.05671,0.0558338,-14.3594,-0.00831212,
2,0,0,1,0,58322.5,-0.017879,-0.0183018,-6.50805,30,-0.00083755,10,0.000119109,-2.18655,8.97632,0.00657285,-1.66787,-0.0183018,
2,0,0,1,0,58322.6,-0.0278669,-0.028264,-6.5177,30,-0.00148742,10,0.000184216,-2.18591,-3.34037,-0.0176627,4.49734,-0.028264,
2,0,0,1,0,58322.7,-0.0378548,-0.038273,-6.62448,30,-0.00214375,10,0.000253539,-2.17885,-1.25714,-0.0469319,12.1341,-0.038273,
2,0,0,1,0,58322.8,-0.0478428,-0.048238,-6.79356,30,-0.00281412,10,0.000327708,-2.1679,-0.66869,-0.0882322,23.4207,-0.048238,
2,0,0,1,0,58322.9,-0.0578216,-0.0582562,-7.02999,30,-0.00350405,10,0.000409541,-2.15305,-0.619389,-0.0952551,26.1428,-0.0582562,
2,0,0,1,0,58323,-0.0678187,-0.0682003,-7.32091,30,-0.00422064,10,0.000499288,-2.13544,-0.512144,-0.115202,32.8872,-0.0682003,
2,0,0,1,0,58323.1,-0.0778066,-0.0782237,-7.66374,30,-0.00496904,10,0.000599487,-2.11556,-0.491738,-0.119983,35.8962,-0.0782237,
2,0,0,1,0,58323.2,-0.0877945,-0.0882042,-8.08635,30,-0.00575556,10,0.00071325,-2.09225,-0.403927,-0.146066,46.0852,-0.0882042,
2,0,0,1,0,58323.3,-0.0977825,-0.098173,-8.53091,30,-0.00658581,10,0.000837506,-2.069,-0.423159,-0.139428,46.4575,-0.098173,
2,0,0,1,1,58323.4,-0.0927386,-0.0931752,-3.04947,30,-0.00715748,10,0.000284135,-2.51578,-0.014826,-3.97949,470.422,-0.0931752,
2,1,0,1,1,58323.5,-0.0827529,-0.0831795,0.310796,30,-0.00727572,10,-2.58518e-05,-3.50752,0.00697089,8.46377,243.294,-0.0831795,
2,1,0,1,1,58323.6,-0.0727627,-0.0731385,2.22507,30,-0.00714111,10,-0.000162739,-2.65266,0.033943,1.73821,148.292,-0.0731385,
2,1,0,1,1,58323.7,-0.0627748,-0.0631382,3.41357,30,-0.00685488,10,-0.000215527,-2.46679,0.0817677,0.721557,95.835,-0.0631382,
2,1,0,1,1,58323.8,-0.0527868,-0.0531906,4.17415,30,-0.00647266,10,-0.000222026,-2.37943,0.164133,0.359465,58.4027,-0.05319057,
2,1,0,1,1,58323.9,-0.0427989,-0.0431985,4.64532,30,-0.0060299,10,-0.000200671,-2.33298,0.270327,0.218255,39.5597,-0.0431985,
2,1,0,1,1,58324,-0.0328109,-0.0331959,4.93084,30,-0.00555038,10,-0.000163684,-2.30708,0.550401,0.107195,20.6036,-0.0331959,
2,1,0,1,1,58324.1,-0.022823,-0.0231994,5.07913,30,-0.00504954,10,-0.000117833,-2.29421,1.19595,0.0493333,9.76985,-0.0231994,
2,1,0,1,1,58324.2,-0.0128351,-0.0132553,5.13351,30,-0.00453866,10,-6.80459e-05,-2.28959,5.43825,0.0108491,2.17364,-0.0132553,
2,1,0,1,1,58324.3,-0.00284713,-0.00324734,5.15115,30,-0.00402427,10,-1.67276e-05,-2.2881,-15.1667,-0.00389009,-0.781591,-0.00324734,
2,1,0,1,1,58324.3,-2.55332e-05,-0.000458935,5.16759,30,-0.00387947,10,-2.37159e-06,-2.28671, , , ,-0.000458935,