File: Figure_codes/Fig_3-5/rawdata_trumpetplot_data/after 10th/20221101_1-115_003_TrumpetPlot_ParaChange_from10_every3_03_CV_C01_8.csv
mode,ox/red,error,control changes,counter inc.,time/s,control/V,Ewe/V,<I>/mA,cycle number,(Q-Qo)/C,I Range,P/W,log(|I|),Tafel slope mV/dec,alpha_eff,dI/d(E-IR),E-IR/V,
2,0,0,1,0,16701.1,2.44065e-05,-0.000382585,-0.108935,9,0.0000000E+000,10,4.16768e-08,-3.96283, , , ,-0.000382585,
2,1,0,1,0,16702.5,0.00729041,0.00697215,0.210707,9,0.000280415,10,1.46908e-06,-3.67632,0.0858805,0.687001,5.60325,0.00697215,
2,1,0,1,0,16704,0.0147815,0.0144099,0.243208,9,0.000650045,10,3.5046e-06,-3.61402,0.153331,0.384789,3.66107,0.0144099,
2,1,0,1,0,16705.5,0.0222725,0.0219728,0.271538,9,0.00106379,10,5.96644e-06,-3.56617,0.147585,0.399769,4.21188,0.0219728,
2,1,0,1,0,16707,0.0297635,0.0294637,0.29831,9,0.00151829,10,8.78932e-06,-3.52533,0.193029,0.305654,3.5466,0.0294637,
2,1,0,1,0,16708.5,0.0372545,0.036948,0.325299,9,0.00201364,10,1.20191e-05,-3.48772,0.23041,0.256065,3.26109,0.036948,
2,1,0,1,0,16710,0.0447456,0.0444061,0.352856,9,0.00254947,10,1.5669e-05,-3.4524,0.214633,0.274888,3.77267,0.0444061,
2,1,0,1,0,16711.5,0.0522367,0.0519286,0.377158,9,0.00312396,10,1.95853e-05,-3.42348,0.222851,0.264751,3.88351,0.0519286,
2,1,0,1,0,16713,0.0597277,0.0593854,0.399455,9,0.00373478,10,2.37218e-05,-3.39853,0.319537,0.184642,2.87823,0.0593854,
2,1,0,1,0,16714.5,0.0672187,0.066909,0.422499,9,0.00437881,10,2.8269e-05,-3.37417,0.427218,0.138103,2.26305,0.066909,
2,1,0,1,0,16716,0.0747092,0.0743973,0.438365,9,0.00505094,10,3.26132e-05,-3.35816,0.463503,0.127292,2.17623,0.0743973,
2,1,0,0,0,16717.5,0.0822001,0.0818827,0.453276,9,0.00574869,10,3.71155e-05,-3.34364,0.421048,0.140127,2.4876,0.0818827,
2,1,0,1,0,16719,0.0896911,0.0893702,0.478863,9,0.00647517,10,4.27961e-05,-3.31979,0.245434,0.24039,4.49414,0.0893702,
2,1,0,0,0,16720.5,0.097182,0.0968302,0.513484,9,0.00724607,10,4.97208e-05,-3.28947,0.174364,0.338373,6.78251,0.0968302,
2,1,0,1,0,16722,0.104673,0.104346,0.562948,9,0.00807907,10,5.87415e-05,-3.24953,0.206899,0.285164,6.22689,0.104346,
2,1,0,0,0,16723.5,0.112164,0.11185,0.601014,9,0.00897945,10,6.72233e-05,-3.22112,0.35218,0.167528,3.92283,0.11185,
2,1,0,1,0,16725,0.119655,0.119311,0.63084,9,0.00993308,10,7.5266e-05,-3.20008,0.438379,0.134587,3.3216,0.1193108,
2,1,0,0,0,16726.5,0.127146,0.12681,0.65765,9,0.0109306,10,8.33966e-05,-3.18201,0.445328,0.132487,3.41301,0.12681,
2,1,0,1,0,16728,0.134637,0.134306,0.666293,9,0.0119611,10,8.94871e-05,-3.17633,-0.460943,-0.127999,-3.323,0.134306,
2,1,0,1,0,16729.5,0.142127,0.141829,0.600222,9,0.0129503,10,8.51288e-05,-3.22169,-0.100991,-0.58421,-13.6165,0.141829,
2,1,0,1,0,16731,0.149618,0.149286,0.479841,9,0.0137884,10,7.16334e-05,-3.3189,-0.0752207,-0.784359,-14.7218,0.149286,
2,1,0,1,0,16732.5,0.157109,0.156829,0.392133,9,0.0144632,10,6.14976e-05,-3.40657,-0.0981274,-0.601259,-9.23126,0.156829,
2,1,0,1,0,16734,0.1646,0.164289,0.348611,9,0.0150427,10,5.72729e-05,-3.45766,-0.190867,-0.309115,-4.21555,0.164289,
2,1,0,1,0,16735.5,0.172091,0.171726,0.323596,9,0.0155727,10,5.55697e-05,-3.49,-0.334569,-0.176346,-2.24132,0.171726,
2,1,0,1,0,16737,0.179582,0.179285,0.311667,9,0.0160758,10,5.58773e-05,-3.50631,-0.53009,-0.111302,-1.35622,0.179285,
2,1,0,1,0,16738.5,0.187074,0.186796,0.3038,9,0.0165623,10,5.67487e-05,-3.51741,-0.921742,-0.0640092,-0.755391,0.186796,
2,1,0,1,0,16740,0.194564,0.194203,0.296328,9,0.0170374,10,5.75478e-05,-3.52823,-2.28541,-0.0258159,-0.297989,0.194203,
2,1,0,1,0,16741.5,0.202056,0.201754,0.291087,9,0.0175041,10,5.87278e-05,-3.53598,-1.12421,-0.0524811,-0.594462,0.2017535,
2,1,0,1,0,16743,0.209547,0.209268,0.287175,9,0.0179642,10,6.00963e-05,-3.54185,-1.01379,-0.0581974,-0.652332,0.209268,
2,1,0,1,0,16744.5,0.217038,0.216709,0.284176,9,0.018418,10,6.15836e-05,-3.54641,-1.36167,-0.0433291,-0.479261,0.216709,
2,1,0,1,0,16746,0.224529,0.224227,0.281016,9,0.0188674,10,6.30112e-05,-3.55127,-2.22761,-0.0264858,-0.290209,0.224227,
2,1,0,1,0,16747.5,0.232019,0.231755,0.276897,9,0.0193126,10,6.41724e-05,-3.55768,-4.0934,-0.0144134,-0.156741,0.231755,
2,1,0,0,0,16749,0.23951,0.239199,0.276206,9,0.0197547,10,6.60684e-05,-3.55877,-1.40231,-0.0420736,-0.454319,0.2391993,
2,1,0,1,0,16750.5,0.247001,0.246707,0.274585,9,0.0201939,10,6.77421e-05,-3.56132,-5.01516,-0.0117643,-0.126096,0.246707,
2,1,0,0,0,16752,0.254492,0.254192,0.272236,9,0.0206299,10,6.92002e-05,-3.56506,-5.76761,-0.0102295,-0.109155,0.254192,
2,1,0,1,0,16753.4,0.261983,0.261669,0.270922,9,0.0210631,10,7.0892e-05,-3.56716,-2.34484,-0.0251617,-0.265672,0.261669,
2,1,0,0,0,16754.9,0.269474,0.269176,0.268294,9,0.0214931,10,7.22183e-05,-3.57139,2.62296,0.0224937,0.235309,0.269176,
2,1,0,1,0,16756.4,0.276965,0.276688,0.266245,9,0.0219208,10,7.36667e-05,-3.57472,8.49011,0.00694927,0.0723908,0.276688,
2,1,0,0,0,16757.9,0.284456,0.284199,0.265282,9,0.022345,10,7.53928e-05,-3.57629,7.47882,0.00788895,0.0812665,0.284199,
2,1,0,1,0,16759.4,0.291947,0.291645,0.262574,9,0.0227665,10,7.65785e-05,-3.58075,-5.0404,-0.0117054,-0.11996,0.2916449,
2,1,0,1,0,16760.9,0.299437,0.29913,0.26093,9,0.0231851,10,7.80519e-05,-3.58348,-0.00222482,-26.5189,-123.042,0.29913,
2,0,0,1,0,16762.3,0.293744,0.293441,-0.0197025,9,0.0232098,10,-5.78152e-06,-4.70548,-0.00690007,-8.55064,5.2296,0.293441,
2,0,0,1,0,16763.8,0.286253,0.285971,-0.0468948,9,0.0231317,10,-1.34106e-05,-4.32888,-0.0388576,-1.51836,2.83487,0.285971,
2,0,0,0,0,16765.3,0.278763,0.278488,-0.0687258,9,0.0230179,10,-1.91393e-05,-4.16288,-0.0792452,-0.744525,1.95594,0.278488,
2,0,0,1,0,16766.8,0.271272,0.270927,-0.0830663,9,0.0228779,10,-2.25049e-05,-4.08058,-0.108385,-0.544354,1.78035,0.270927,
2,0,0,0,0,16768.3,0.263781,0.263487,-0.0963022,9,0.0227163,10,-2.53744e-05,-4.01636,-0.127655,-0.462184,1.74199,0.263487,
2,0,0,1,0,16769.8,0.25629,0.255968,-0.107589,9,0.0225364,10,-2.75393e-05,-3.96823,-0.170695,-0.345645,1.45159,0.255968,
2,0,0,0,0,16771.3,0.248799,0.248491,-0.11855,9,0.02234,10,-2.94586e-05,-3.9261,-0.181021,-0.325928,1.52012,0.248491,
2,0,0,1,0,16772.8,0.241308,0.240999,-0.128525,9,0.0221284,10,-3.09744e-05,-3.89101,-0.226349,-0.260659,1.30548,0.240999,
2,0,0,0,0,16774.3,0.233817,0.233452,-0.137328,9,0.0219028,10,-3.20594e-05,-3.86224,-0.278941,-0.211514,1.13353,0.2334519,
2,0,0,1,0,16775.8,0.226326,0.22602,-0.1462,9,0.0216635,10,-3.3044e-05,-3.83505,-0.289256,-0.203971,1.17151,0.22602,
2,0,0,0,0,16777.3,0.218835,0.218508,-0.155717,9,0.0214106,10,-3.40253e-05,-3.80766,-0.246015,-0.239823,1.45343,0.218508,
2,0,0,1,0,16778.8,0.211344,0.211037,-0.163783,9,0.021144,10,-3.45644e-05,-3.78573,-0.326212,-0.180864,1.1658,0.211037,
2,0,0,1,0,16780.3,0.203854,0.203532,-0.173306,9,0.0208629,10,-3.52733e-05,-3.76119,-0.335031,-0.176103,1.20006,0.203532,
2,0,0,1,0,16781.8,0.196363,0.196053,-0.184068,9,0.0205672,10,-3.60871e-05,-3.73502,-0.249409,-0.236559,1.69938,0.196053,
2,0,0,1,0,16783.3,0.188871,0.188557,-0.196115,9,0.0202551,10,-3.69789e-05,-3.70749,-0.238045,-0.247852,1.88664,0.188557,
2,0,0,1,0,16784.8,0.181381,0.18107,-0.209034,9,0.0199244,10,-3.78498e-05,-3.67978,-0.243948,-0.241855,1.97079,0.18107,
2,0,0,1,0,16786.3,0.173889,0.173561,-0.226233,9,0.0195715,10,-3.92653e-05,-3.64544,-0.222718,-0.264909,2.3265,0.173561,
2,0,0,1,0,16787.8,0.166398,0.166102,-0.247018,9,0.0191901,10,-4.10303e-05,-3.60727,-0.175504,-0.336174,3.26603,0.166102,
2,0,0,1,0,16789.3,0.158907,0.158583,-0.276684,9,0.0187694,10,-4.38773e-05,-3.55802,-0.118687,-0.497105,5.42388,0.158583,
2,0,0,1,0,16790.8,0.151416,0.15107,-0.329993,9,0.0182881,10,-4.9852e-05,-3.4815,-0.0849136,-0.694824,8.96515,0.15107,
2,0,0,1,0,16792.3,0.143925,0.143652,-0.412442,9,0.0177079,10,-5.92481e-05,-3.38464,-0.0658017,-0.896633,14.459,0.143652,
2,0,0,1,0,16793.8,0.136434,0.136082,-0.526364,9,0.0169769,10,-7.16285e-05,-3.27871,-0.077905,-0.757333,15.5257,0.136082,
2,0,0,1,0,16795.3,0.128943,0.128593,-0.628328,9,0.0160769,10,-8.07988e-05,-3.20181,-0.149925,-0.393531,9.60103,0.1285933,
2,0,0,0,0,16796.8,0.121453,0.121148,-0.67437,9,0.0150644,10,-8.16989e-05,-3.1711,-0.659097,-0.0895164,2.34958,0.121148,
2,0,0,1,0,16798.3,0.113962,0.113669,-0.668649,9,0.0140216,10,-7.60049e-05,-3.1748,0.8229,0.0716977,-1.87836,0.113669,
2,0,0,0,0,16799.8,0.106471,0.106146,-0.651442,9,0.012999,10,-6.91478e-05,-3.18612,0.511924,0.115252,-2.93951,0.106146,
2,0,0,1,0,16801.3,0.0989799,0.0986923,-0.626073,9,0.0120114,10,-6.17885e-05,-3.20338,0.467265,0.126267,-3.07644,0.0986923,
2,0,0,0,0,16802.8,0.0914889,0.0911581,-0.600891,9,0.0110651,10,-5.4776e-05,-3.2212,0.378608,0.155834,-3.63496,0.09115807,
2,0,0,1,0,16804.3,0.083998,0.0836833,-0.570806,9,0.0101605,10,-4.77669e-05,-3.24351,0.293419,0.201078,-4.47257,0.0836833,
2,0,0,0,0,16805.8,0.076507,0.0761671,-0.549421,9,0.00929333,10,-4.18478e-05,-3.2601,0.403457,0.146236,-3.12819,0.0761671,
2,0,0,1,0,16807.3,0.0690161,0.0687018,-0.527535,9,0.00845755,10,-3.62426e-05,-3.27775,0.542687,0.108718,-2.24942,0.0687018,
2,0,0,0,0,16808.8,0.0615251,0.0612504,-0.512482,9,0.00764769,10,-3.13897e-05,-3.29032,0.468656,0.125892,-2.51944,0.0612504,
2,0,0,1,0,16810.3,0.0540342,0.0537183,-0.496764,9,0.00686342,10,-2.66853e-05,-3.30385,0.676255,0.0872452,-1.68594,0.0537183,
2,0,0,1,0,16811.8,0.0465436,0.0461975,-0.478792,9,0.00610451,10,-2.2119e-05,-3.31985,0.504304,0.116993,-2.19107,0.0461975,
2,0,0,1,0,16813.2,0.0390526,0.0387077,-0.461536,9,0.00537185,10,-1.7865e-05,-3.33579,0.409201,0.144183,-2.59302,0.0387077,
2,0,0,1,0,16814.7,0.0315615,0.0312274,-0.444793,9,0.00466551,10,-1.38897e-05,-3.35184,0.430693,0.136989,-2.37326,0.0312274,
2,0,0,1,0,16816.2,0.0240706,0.0237631,-0.427976,9,0.0039839,10,-1.017e-05,-3.36858,0.589723,0.100047,-1.67941,0.0237631,
2,0,0,1,0,16817.7,0.0165795,0.0162575,-0.418028,9,0.0033222,10,-6.79606e-06,-3.3788,1.0421,0.0566162,-0.92365,0.0162575,
2,0,0,1,0,16819.2,0.00908846,0.0088049,-0.414131,9,0.0026725,10,-3.64638e-06,-3.38286,7.15247,0.0082489,-0.133041,0.0088049,
2,0,0,1,0,16820.7,0.00159739,0.00125129,-0.417651,9,0.00202384,10,-5.22603e-07,-3.37919, , , ,0.00125129,
2,0,0,0,0,16821,0.000199195,-0.000163081,-0.41569,9,0.00190225,10,6.77913e-08,-3.38123, , , ,-0.000163081,