File: Figure_codes/Fig_3-5/rawdata_trumpetplot_data/after 10th/20221101_1-115_003_TrumpetPlot_ParaChange_from10_every3_11_CV_C01_17.csv
mode,ox/red,error,control changes,counter inc.,time/s,control/V,Ewe/V,<I>/mA,cycle number,(Q-Qo)/C,I Range,P/W,log(|I|),Tafel slope mV/dec,alpha_eff,dI/d(E-IR),E-IR/V,
2,1,0,1,0,34686.7,2.44065e-05,-0.000325324,9.5244,18,0.0000000E+000,10,-3.09851e-06,-2.02116, , , ,-0.000325324,
2,1,0,1,0,34686.8,0.0101427,0.00975172,12.9741,18,0.000290839,10,0.00012652,-1.88692,0.13046,0.452246,227.918,0.00975172,
2,1,0,1,0,34686.8,0.0205441,0.0202201,14.9059,18,0.000655119,10,0.000301399,-1.82664,0.21954,0.268744,156.126,0.0202201,
2,1,0,1,0,34686.8,0.0309482,0.0306364,16.3352,18,0.00106213,10,0.000500452,-1.78688,0.308032,0.191538,121.924,0.0306364,
2,1,0,1,0,34686.8,0.0413439,0.041022,17.5069,18,0.00150237,10,0.000718168,-1.75679,0.383095,0.154009,105.134,0.041022,
2,1,0,1,0,34686.9,0.0517425,0.0513907,18.58,18,0.00197177,10,0.000954838,-1.73095,0.419552,0.140626,102.052,0.0513907,
2,1,0,1,0,34686.9,0.0621438,0.0617975,19.6679,18,0.00246914,10,0.00121543,-1.70624,0.430893,0.136925,105.074,0.0617975,
2,1,0,1,0,34686.9,0.0725479,0.0721959,20.777,18,0.00299483,10,0.00150001,-1.68242,0.447566,0.131824,106.814,0.07219588,
2,1,0,1,0,34686.9,0.0829437,0.0826016,21.8959,18,0.0035496,10,0.00180863,-1.65964,0.464903,0.126908,108.474,0.0826016,
2,1,0,1,0,34687,0.0933422,0.092965,23.0171,18,0.00413382,10,0.00213979,-1.63795,0.491173,0.120121,107.926,0.092965,
2,1,0,1,0,34687,0.103749,0.10336,24.169,18,0.00474719,10,0.00249811,-1.61674,0.50949,0.115802,109.165,0.10336,
2,1,0,1,0,34687,0.114148,0.113842,25.2971,18,0.00539013,10,0.00287988,-1.59693,0.510055,0.115674,114.21,0.113842,
2,1,0,1,0,34687,0.124543,0.124198,26.554,18,0.00606396,10,0.00329796,-1.57587,0.469035,0.12579,130.402,0.124198,
2,1,0,1,0,34687.1,0.134942,0.134602,28.0029,18,0.00677306,10,0.00376924,-1.5528,0.443121,0.133146,145.518,0.134602,
2,1,0,1,0,34687.1,0.145349,0.144945,29.5295,18,0.00752104,10,0.00428015,-1.52974,0.479119,0.123143,141.791,0.144945,
2,1,0,1,0,34687.1,0.155747,0.155369,30.9194,18,0.0083072,10,0.00480391,-1.50977,0.57275,0.103012,124.231,0.155369,
2,1,0,1,0,34687.2,0.166143,0.165817,32.0135,18,0.0091264,10,0.00530839,-1.49467,0.920351,0.064106,80.0299,0.165817,
2,1,0,1,0,34687.2,0.176542,0.176211,32.4561,18,0.00996657,10,0.00571913,-1.4887,-10.1764,-0.00579773,-7.32956,0.176211,
2,1,0,1,0,34687.2,0.186949,0.186573,31.7731,18,0.0108041,10,0.00592802,-1.49794,-0.577321,-0.102196,-126.48,0.186573,
2,1,0,1,0,34687.2,0.197347,0.197032,29.8581,18,0.0116075,10,0.00588301,-1.52494,-0.297898,-0.198054,-230.423,0.197032,
2,1,0,1,0,34687.3,0.207743,0.207425,27.1355,18,0.0123491,10,0.00562859,-1.56646,-0.22376,-0.263676,-278.943,0.207425,
2,1,0,1,0,34687.3,0.218141,0.217811,24.2919,18,0.0130169,10,0.00529103,-1.61454,-0.217646,-0.271083,-257.295,0.217811,
2,1,0,1,0,34687.3,0.228548,0.228239,21.8854,18,0.0136159,10,0.0049951,-1.65985,-0.243015,-0.242784,-207.509,0.228239,
2,1,0,1,0,34687.3,0.238947,0.238647,20.0061,18,0.0141591,10,0.00477438,-1.69884,-0.293895,-0.200752,-156.767,0.238647,
2,1,0,1,0,34687.4,0.249343,0.249016,18.5699,18,0.0146596,10,0.00462419,-1.73119,-0.352229,-0.167505,-121.538,0.249016,
2,1,0,1,0,34687.4,0.259741,0.259435,17.4935,18,0.0151277,10,0.00453843,-1.75712,-0.443221,-0.133116,-90.9412,0.259435,
2,1,0,1,0,34687.4,0.270148,0.269837,16.6605,18,0.0155712,10,0.00449562,-1.77831,-0.544685,-0.108319,-70.4357,0.269837,
2,1,0,1,0,34687.4,0.280547,0.280207,15.9879,18,0.0159953,10,0.00447994,-1.79621,-0.630099,-0.0936361,-58.4399,0.280207,
2,1,0,1,0,34687.5,0.290942,0.29064,15.4384,18,0.0164036,10,0.004487,-1.8114,-0.745572,-0.0791339,-47.7152,0.29064,
2,1,0,0,0,34687.5,0.300012,0.299689,15.0305,18,0.0167494,10,0.00450449,-1.82303,0.00148953,39.6098,20422.6,0.2996892,
2,1,0,1,0,34687.5,0.290704,0.290387,4.93688,18,0.0169587,10,0.00143361,-2.30655,0.0169028,3.49055,663.608,0.290387,
2,1,0,1,0,34687.5,0.280305,0.280054,-0.079253,18,0.0170146,10,-2.21951e-05,-4.10098,27.498,0.00214561,354.486,0.280054,
2,0,0,1,0,34687.6,0.269909,0.269598,-2.97786,18,0.0169715,10,-0.000802826,-2.5261,-0.0299824,-1.96782,220.507,0.269598,
2,0,0,1,0,34687.6,0.2595,0.259199,-4.8584,18,0.016868,10,-0.00125929,-2.31351,-0.0741489,-0.795696,149.263,0.259199,
2,0,0,1,0,34687.6,0.249104,0.248783,-6.16979,18,0.0167237,10,-0.00153494,-2.20973,-0.131057,-0.450186,108.081,0.248783,
2,0,0,1,0,34687.6,0.238706,0.238392,-7.17295,18,0.0165496,10,-0.00170998,-2.1443,-0.18959,-0.311198,87.0302,0.238392,
2,0,0,1,0,34687.7,0.22831,0.227974,-7.97944,18,0.0163522,10,-0.0018191,-2.09803,-0.252771,-0.233413,72.6458,0.227974,
2,0,0,1,0,34687.7,0.2179,0.217591,-8.67932,18,0.0161354,10,-0.00188855,-2.06151,-0.324608,-0.181758,61.4416,0.217591,
2,0,0,1,0,34687.7,0.207504,0.207197,-9.27179,18,0.0159019,10,-0.00192109,-2.03284,-0.386125,-0.1528,55.3519,0.207197,
2,0,0,1,0,34687.7,0.197106,0.196778,-9.84683,18,0.0156531,10,-0.00193764,-2.0067,-0.412277,-0.143108,54.998,0.196778,
2,0,0,1,0,34687.8,0.18671,0.186407,-10.3999,18,0.0153898,10,-0.00193861,-1.98297,-0.448101,-0.131667,53.4318,0.186407,
2,0,0,1,0,34687.8,0.1763,0.175983,-10.9777,18,0.0151119,10,-0.0019319,-1.95949,-0.43216,-0.136524,58.5351,0.175983,
2,0,0,1,0,34687.8,0.165905,0.165544,-11.632,18,0.0148182,10,-0.00192561,-1.93435,-0.399533,-0.147672,67.0317,0.165544,
2,0,0,1,0,34687.8,0.155506,0.155175,-12.4416,18,0.0145058,10,-0.00193063,-1.90512,-0.317679,-0.185722,90.1709,0.155175,
2,0,0,1,0,34687.9,0.145105,0.144799,-13.5478,18,0.0141688,10,-0.0019617,-1.86813,-0.237691,-0.248222,131.555,0.144799,
2,0,0,1,0,34687.9,0.134701,0.134378,-15.2317,18,0.0137959,10,-0.00204681,-1.81725,-0.177364,-0.332649,198.077,0.134378,
2,0,0,1,0,34687.9,0.124305,0.123969,-17.6245,18,0.0133699,10,-0.0021849,-1.75388,-0.157504,-0.374595,257.754,0.123969,
2,0,0,1,0,34688,0.113906,0.113605,-20.4157,18,0.0128752,10,-0.00231932,-1.69004,-0.173138,-0.340769,271.626,0.113605,
2,0,0,1,0,34688,0.103505,0.103233,-23.1605,18,0.0123078,10,-0.00239092,-1.63525,-0.209133,-0.282117,254.913,0.103233,
2,0,0,1,0,34688,0.0931008,0.0928165,-25.6393,18,0.0116722,10,-0.00237975,-1.59109,-0.272052,-0.216871,216.639,0.0928165,
2,0,0,1,0,34688,0.0827051,0.082415,-27.5849,18,0.0109789,10,-0.00227341,-1.55933,-0.403396,-0.146258,157.255,0.082415,
2,0,0,1,0,34688.1,0.0723065,0.0720368,-28.9434,18,0.0102426,10,-0.00208499,-1.53845,-0.666271,-0.0885526,99.9171,0.07203681,
2,0,0,1,0,34688.1,0.0618997,0.061578,-29.6547,18,0.00947944,10,-0.00182608,-1.52791,-1.72554,-0.0341921,39.5315,0.061578,
2,0,0,1,0,34688.1,0.0515011,0.0511903,-29.8429,18,0.00870534,10,-0.00152767,-1.52516,-92.5261,-0.000637658,0.741752,0.0511903,
2,0,0,1,0,34688.1,0.0411053,0.0407845,-29.7054,18,0.00793095,10,-0.00121152,-1.52716,3.42507,0.0172259,-19.9735,0.0407845,
2,0,0,1,0,34688.2,0.0307068,0.0303968,-29.4376,18,0.00716168,10,-0.000894807,-1.5311,2.4042,0.0245404,-28.2023,0.0303968,
2,0,0,1,0,34688.2,0.0202999,0.0199062,-29.0868,18,0.00640071,10,-0.000579007,-1.5363,1.6015,0.0368405,-41.7798,0.0199062,
2,0,0,1,0,34688.2,0.00990136,0.00960644,-28.5667,18,0.00565102,10,-0.000274424,-1.54414,1.13568,0.0519515,-57.9081,0.00960644,
2,0,0,1,0,34688.2,-0.000494411,-0.000865071,-27.8903,18,0.00491677,10,2.41271e-05,-1.55455,0.853355,0.0691389,-75.1863,-0.000865071,
2,0,0,1,0,34688.3,-0.010893,-0.0112592,-26.9912,18,0.00420321,10,0.000303898,-1.56878,0.686354,0.0859615,-90.4929,-0.01125918,
2,0,0,1,0,34688.3,-0.0212998,-0.021666,-26.037,18,0.00351408,10,0.000564118,-1.58441,0.673989,0.0875385,-88.9567,-0.021666,
2,0,0,1,0,34688.3,-0.0316984,-0.032076,-25.2088,18,0.00284849,10,0.000808598,-1.59845,0.824815,0.0715312,-70.3966,-0.032076,
2,0,0,1,0,34688.3,-0.0420942,-0.0424511,-24.6007,18,0.0022016,10,0.00104433,-1.60905,1.20667,0.0488949,-46.9589,-0.0424511,
2,0,0,1,0,34688.4,-0.0524927,-0.0528589,-24.2372,18,0.00156719,10,0.00128115,-1.61552,2.31622,0.0254726,-24.1106,-0.0528589,
2,0,0,1,0,34688.4,-0.0628996,-0.0632774,-24.1064,18,0.000939231,10,0.00152539,-1.61787,14.4565,0.00408122,-3.83965,-0.0632774,
2,0,0,1,0,34688.4,-0.0732981,-0.0736408,-24.1495,18,0.000312348,10,0.00177839,-1.61709,-3.57927,-0.0164838,15.542,-0.0736408,
2,0,0,1,0,34688.4,-0.0836939,-0.0840847,-24.3693,18,-0.000318086,10,0.00204909,-1.61316,-2.08048,-0.0283589,26.9711,-0.0840847,
2,0,0,1,0,34688.5,-0.0940925,-0.0944704,-24.721,18,-0.00095601,10,0.00233541,-1.60693,-1.409,-0.0418736,40.4186,-0.0944704,
2,0,0,1,1,34688.5,-0.0978574,-0.0982666,-20.7737,18,-0.00145082,10,0.00204136,-1.68249,-0.0294728,-2.00185,1598.86,-0.0982666,
2,0,0,1,1,34688.5,-0.0874588,-0.0878365,-9.6986,18,-0.00183084,10,0.000851891,-2.01329,-0.0275518,-2.14142,805.706,-0.0878365,
2,0,0,1,1,34688.5,-0.0770519,-0.0774614,-2.74716,18,-0.00198663,10,0.000212799,-2.56112,-0.00966743,-6.10296,568.451,-0.0774614,
2,1,0,1,1,34688.6,-0.0666562,-0.067062,2.33184,18,-0.00198837,10,-0.000156378,-2.6323,0.0107383,5.49434,423.201,-0.067062,
2,1,0,1,1,34688.6,-0.0562576,-0.0566754,6.1987,18,-0.00187507,10,-0.000351313,-2.2077,0.0426551,1.38319,329.273,-0.0566754,
2,1,0,1,1,34688.6,-0.0458563,-0.0462537,9.22218,18,-0.00167262,10,-0.00042656,-2.03517,0.0824579,0.715517,255.986,-0.0462537,
2,1,0,1,1,34688.6,-0.0354522,-0.0358341,11.5743,18,-0.00140073,10,-0.000414753,-1.93651,0.133805,0.440942,198.428,-0.0358341,
2,1,0,1,1,34688.7,-0.0250564,-0.0254527,13.3819,18,-0.0010751,10,-0.000340605,-1.87348,0.205185,0.287545,149.898,-0.0254527,
2,1,0,1,1,34688.7,-0.0146579,-0.01503,14.7545,18,-0.00070826,10,-0.00022176,-1.83107,0.293227,0.201209,115.752,-0.01503,
2,1,0,1,1,34688.7,-0.00425653,-0.00464436,15.7983,18,-0.000310214,10,-7.33728e-05,-1.80139,0.424116,0.139113,85.7602,-0.00464436,
2,1,0,0,1,34688.7,-7.54729e-05,-0.000382585,16.1372,18,-0.000142414,10,-6.17387e-06,-1.79217, , , ,-0.000382585,