File: Figure_codes/Fig_3-5/rawdata_trumpetplot_data/after 10th/20221101_1-115_003_TrumpetPlot_ParaChange_from10_every3_13_CV_C01_9.csv
mode,ox/red,error,control changes,counter inc.,time/s,control/V,Ewe/V,<I>/mA,cycle number,(Q-Qo)/C,I Range,P/W,log(|I|),Tafel slope mV/dec,alpha_eff,dI/d(E-IR),E-IR/V,
2,1,0,1,0,18929,2.44065e-05,-0.000248974,21.9894,10,0.0000000E+000,10,-5.47478e-06,-1.65779, , , ,-0.000248974,
2,1,0,1,0,18929,0.0122624,0.0118545,26.222,10,0.000369136,10,0.000310849,-1.58133,0.230631,0.25582,259.904,0.0118545,
2,1,0,1,0,18929.1,0.0250636,0.0246992,29.0585,10,0.000812738,10,0.000717722,-1.53673,0.336797,0.17518,198.145,0.0246992,
2,1,0,1,0,18929.1,0.0378704,0.0375026,31.3634,10,0.00129692,10,0.00117621,-1.50358,0.429282,0.137439,168.061,0.0375026,
2,1,0,1,0,18929.1,0.0506632,0.050308,33.4349,10,0.00181578,10,0.00168204,-1.4758,0.482416,0.122301,159.552,0.050308,
2,1,0,1,0,18929.1,0.0634672,0.0630891,35.497,10,0.00236738,10,0.00223947,-1.44981,0.504273,0.117,162.031,0.0630891,
2,1,0,1,0,18929.1,0.0762628,0.0759243,37.617,10,0.00295232,10,0.00285604,-1.42462,0.50655,0.116474,170.999,0.0759243,
2,1,0,1,0,18929.1,0.0890668,0.0887106,39.8576,10,0.00357222,10,0.00353579,-1.39949,0.511033,0.115452,179.613,0.0887106,
2,1,0,1,0,18929.2,0.10186,0.101485,42.1797,10,0.00422881,10,0.00428062,-1.3749,0.517703,0.113965,187.754,0.101485,
2,1,0,1,0,18929.2,0.114666,0.114248,44.6341,10,0.00492381,10,0.00509937,-1.35033,0.542414,0.108773,189.435,0.114248,
2,1,0,1,0,18929.2,0.127462,0.127028,47.1347,10,0.00565772,10,0.00598745,-1.32666,0.524588,0.112469,207.017,0.127028,
2,1,0,1,0,18929.2,0.140263,0.139886,49.9168,10,0.00643423,10,0.00698265,-1.30175,0.508968,0.115921,225.911,0.139886,
2,1,0,1,0,18929.2,0.153064,0.152708,52.9132,10,0.00725693,10,0.00808028,-1.27644,0.509833,0.115724,238.94,0.152708,
2,1,0,1,0,18929.2,0.165866,0.165485,55.9255,10,0.00812829,10,0.00925484,-1.25239,0.568121,0.103851,226.508,0.165485,
2,1,0,1,0,18929.3,0.178667,0.178278,58.627,10,0.00904575,10,0.0104519,-1.2319,0.72249,0.081662,186.564,0.178278,
2,1,0,1,0,18929.3,0.191463,0.191105,60.6192,10,0.0100013,10,0.0115846,-1.21739,1.30284,0.0452856,106.791,0.191105,
2,1,0,1,0,18929.3,0.204269,0.203919,61.1577,10,0.010978,10,0.0124712,-1.21355,-3.85665,-0.0152982,-36.346,0.2039185,
2,1,0,1,0,18929.3,0.217062,0.216741,59.5674,10,0.0119467,10,0.0129107,-1.22499,-0.649686,-0.0908131,-210.12,0.216741,
2,1,0,1,0,18929.3,0.229866,0.229541,55.8428,10,0.0128722,10,0.0128182,-1.25303,-0.360933,-0.163465,-355.046,0.229541,
2,1,0,1,0,18929.3,0.242662,0.242363,50.7903,10,0.0137259,10,0.0123097,-1.29422,-0.28449,-0.207389,-410.725,0.2423625,
2,1,0,1,0,18929.3,0.255466,0.255157,45.6215,10,0.0144962,10,0.0116407,-1.34083,-0.275873,-0.213866,-381.151,0.255157,
2,1,0,1,0,18929.4,0.268259,0.267909,41.1095,10,0.0151884,10,0.0110136,-1.38606,-0.297572,-0.198271,-318.743,0.267909,
2,1,0,1,0,18929.4,0.281065,0.280762,37.5135,10,0.0158159,10,0.0105324,-1.42581,-0.353176,-0.167055,-245.146,0.280762,
2,1,0,1,0,18929.4,0.293861,0.29356,34.7427,10,0.0163929,10,0.0101991,-1.45914,-0.419876,-0.140518,-191.296,0.29356,
2,1,0,1,0,18929.4,0.298983,0.298831,31.161,10,0.0166973,10,0.00931188,-1.50639,0.0304046,1.9405,1991.02,0.298831,
2,1,0,1,0,18929.4,0.286187,0.285952,12.544,10,0.0170253,10,0.00358698,-1.90156,0.0276462,2.13411,1025.28,0.285952,
2,1,0,1,0,18929.4,0.273386,0.273131,2.47777,10,0.0171378,10,0.000676757,-2.60594,0.015584,3.78594,618.61,0.273131,
2,0,0,1,0,18929.5,0.260585,0.260282,-3.90838,10,0.0171222,10,-0.00101728,-2.408,-0.0164573,-3.58503,406.918,0.260282,
2,0,0,1,0,18929.5,0.247783,0.247476,-8.25251,10,0.0170225,10,-0.0020423,-2.08341,-0.0638049,-0.924694,287.522,0.247476,
2,0,0,1,0,18929.5,0.234982,0.2347,-11.3988,10,0.0168636,10,-0.0026753,-1.94314,-0.122049,-0.483413,212.28,0.2347,
2,0,0,1,0,18929.5,0.222187,0.221868,-13.7911,10,0.016661,10,-0.00305981,-1.8604,-0.188221,-0.313461,167.722,0.221868,
2,0,0,1,0,18929.5,0.20938,0.209071,-15.7468,10,0.016424,10,-0.00329221,-1.80281,-0.260255,-0.226701,138.75,0.209071,
2,0,0,1,0,18929.5,0.196587,0.196291,-17.3975,10,0.0161584,10,-0.00341498,-1.75951,-0.324088,-0.182049,123.383,0.196291,
2,0,0,1,0,18929.5,0.183783,0.183494,-18.9219,10,0.0158676,10,-0.00347206,-1.72304,-0.367406,-0.160585,118.534,0.183494,
2,0,0,1,0,18929.6,0.170987,0.170676,-20.4274,10,0.0155526,10,-0.00348647,-1.68979,-0.383644,-0.153789,122.78,0.170676,
2,0,0,1,0,18929.6,0.158183,0.157879,-22.1371,10,0.0152121,10,-0.00349497,-1.65488,-0.345436,-0.170799,147.897,0.157879,
2,0,0,1,0,18929.6,0.145385,0.145087,-24.3128,10,0.0148411,10,-0.00352748,-1.61416,-0.283956,-0.207779,197.808,0.145087,
2,0,0,1,0,18929.6,0.132584,0.132281,-27.3401,10,0.014429,10,-0.00361657,-1.5632,-0.225373,-0.261788,280.281,0.132281,
2,0,0,1,0,18929.6,0.119783,0.119494,-31.4745,10,0.0139597,10,-0.00376103,-1.50204,-0.198157,-0.297743,366.644,0.119494,
2,0,0,1,0,18929.6,0.106987,0.106747,-36.549,10,0.0134154,10,-0.0039015,-1.43712,-0.205427,-0.287207,409.274,0.1067471,
2,0,0,1,0,18929.7,0.0941801,0.0939225,-41.7433,10,0.012788,10,-0.00392063,-1.37941,-0.245104,-0.240714,391.103,0.0939225,
2,0,0,1,0,18929.7,0.0813844,0.0811807,-46.5221,10,0.012081,10,-0.0037767,-1.33234,-0.305556,-0.19309,349.472,0.0811807,
2,0,0,1,0,18929.7,0.0685832,0.0683848,-50.5437,10,0.0113028,10,-0.00345642,-1.29633,-0.418559,-0.14096,277.283,0.0683848,
2,0,0,1,0,18929.7,0.0557876,0.0555284,-53.6339,10,0.0104678,10,-0.00297821,-1.27056,-0.613845,-0.0961155,200.597,0.0555284,
2,0,0,1,0,18929.7,0.0429808,0.0427134,-55.5987,10,0.00959199,10,-0.00237481,-1.25494,-1.14427,-0.0515613,111.66,0.0427134,
2,0,0,1,0,18929.7,0.030188,0.0298719,-56.586,10,0.00869317,10,-0.00169033,-1.24729,-2.73029,-0.0216094,47.6606,0.0298719,
2,0,0,1,0,18929.8,0.017384,0.0170823,-56.9302,10,0.00778421,10,-0.000972498,-1.24466,-16.6629,-0.0035408,7.85846,0.0170823,
2,0,0,1,0,18929.8,0.00458834,0.00427896,-56.821,10,0.00687377,10,-0.000243135,-1.24549,6.53732,0.00902511,-20.0026,0.00427896,
2,0,0,1,0,18929.8,-0.00821564,-0.00854136,-56.3647,10,0.00596749,10,0.000481431,-1.24899,2.43293,0.0242506,-53.3035,-0.00854136,
2,0,0,1,0,18929.8,-0.0210196,-0.0213627,-55.442,10,0.00507231,10,0.00118439,-1.25616,1.37679,0.0428532,-92.6292,-0.0213627,
2,0,0,1,0,18929.8,-0.0338153,-0.0341725,-54.0292,10,0.00419593,10,0.00184631,-1.26737,1.00702,0.0585884,-123.471,-0.0341725,
2,0,0,1,0,18929.8,-0.0466193,-0.0469684,-52.3713,10,0.00334473,10,0.0024598,-1.28091,0.911111,0.0647561,-132.332,-0.0469684,
2,0,0,1,0,18929.9,-0.0594121,-0.0598014,-50.758,10,0.00252023,10,0.0030354,-1.2945,1.04413,0.0565063,-112.03,-0.0598014,
2,0,0,1,0,18929.9,-0.0722189,-0.0725306,-49.5229,10,0.00171864,10,0.00359192,-1.30519,1.46529,0.0402652,-77.9215,-0.07253056,
2,0,0,1,0,18929.9,-0.0850146,-0.0853816,-48.7532,10,0.000933038,10,0.00416263,-1.312,2.68342,0.0219869,-41.8923,-0.0853816,
2,0,0,1,0,18929.9,-0.0978158,-0.0981839,-48.4555,10,0.000155858,10,0.00475755,-1.31466,17.6098,0.00335041,-6.34344,-0.0981839,
2,0,0,1,0,18929.9,-0.110611,-0.110949,-48.5813,10,-0.000619971,10,0.00539005,-1.31353,-4.67303,-0.0126256,23.9598,-0.1109491,
2,0,0,1,0,18929.9,-0.123418,-0.1238,-49.074,10,-0.00140088,10,0.00607537,-1.30915,-2.17185,-0.0271658,52.0681,-0.1238,
2,0,0,1,0,18929.9,-0.136214,-0.13658,-49.8644,10,-0.00219223,10,0.00681048,-1.30221,-1.60289,-0.0368086,71.6879,-0.13658,
2,0,0,1,0,18930,-0.149015,-0.149338,-50.8822,10,-0.00299829,10,0.00759864,-1.29343,-1.38464,-0.0426102,84.6492,-0.149338,
2,0,0,1,0,18930,-0.161816,-0.162186,-51.9964,10,-0.00382149,10,0.00843308,-1.28403,-1.37933,-0.0427742,86.8062,-0.162186,
2,0,0,1,0,18930,-0.174615,-0.174932,-53.1296,10,-0.00466267,10,0.00929407,-1.27466,-1.40012,-0.0421393,87.3496,-0.174932,
2,0,0,1,0,18930,-0.187419,-0.18776,-54.2337,10,-0.00552166,10,0.0101829,-1.26573,-1.47129,-0.0401008,84.8476,-0.1877597,
2,0,0,1,0,18930,-0.199647,-0.199926,-55.231,10,-0.0063593,10,0.0110421,-1.25782,0.278193,0.212083,-443.574,-0.199926,
2,0,0,1,1,18930,-0.192535,-0.192995,-41.0713,10,-0.00684201,10,0.00792655,-1.38646,-0.0629921,-0.936625,1529.67,-0.192995,
2,0,0,1,1,18930.1,-0.179739,-0.180172,-26.0166,10,-0.00736913,10,0.00468747,-1.58475,-0.0607254,-0.971586,984.98,-0.180172,
2,0,0,1,1,18930.1,-0.166932,-0.167309,-15.0596,10,-0.00769282,10,0.00251961,-1.82219,-0.0448851,-1.31447,759.261,-0.167309,
2,0,0,1,1,18930.1,-0.154139,-0.154534,-6.31565,10,-0.00786068,10,0.000975983,-2.19958,-0.0206077,-2.86301,622.954,-0.154534,
2,1,0,1,1,18930.1,-0.141335,-0.141741,0.990659,10,-0.00790089,10,-0.000140417,-3.00408,0.0561558,1.05065,527.812,-0.1417412,
2,1,0,1,1,18930.1,-0.12854,-0.128993,7.24946,10,-0.00783306,10,-0.000935129,-2.13969,0.0338293,1.74405,459.439,-0.128993,
2,1,0,1,1,18930.1,-0.115736,-0.116219,12.765,10,-0.00767143,10,-0.00148354,-1.89398,0.0711468,0.829271,405.003,-0.116219,
2,1,0,1,1,18930.2,-0.102932,-0.103375,17.6725,10,-0.00742665,10,-0.00182688,-1.7527,0.112623,0.523872,357.6,-0.103375,
2,1,0,1,1,18930.2,-0.0901362,-0.0905734,21.99,10,-0.00710822,10,-0.00199171,-1.65777,0.157424,0.374784,319.869,-0.0905734,
2,1,0,1,1,18930.2,-0.0773322,-0.077717,25.8516,10,-0.00672451,10,-0.00200911,-1.58751,0.209614,0.281469,282.886,-0.077717,
2,1,0,1,1,18930.2,-0.0645393,-0.0649412,29.2682,10,-0.0062826,10,-0.00190071,-1.5336,0.265339,0.222357,253.379,-0.06494122,
2,1,0,1,1,18930.2,-0.0517325,-0.0521368,32.3105,10,-0.00578899,10,-0.00168456,-1.49066,0.3343,0.176488,222.128,-0.0521368,
2,1,0,1,1,18930.2,-0.0389369,-0.0393377,34.9497,10,-0.00525006,10,-0.00137484,-1.45656,0.421397,0.140011,190.685,-0.0393377,
2,1,0,1,1,18930.2,-0.0261357,-0.0265163,37.2196,10,-0.0046719,10,-0.000986927,-1.42923,0.527161,0.11192,162.315,-0.0265163,
2,1,0,1,1,18930.3,-0.01334,-0.0137469,39.1068,10,-0.00406058,10,-0.000537597,-1.40775,0.675135,0.08739,133.209,-0.0137469,
2,1,0,1,1,18930.3,-0.000774628,-0.00121129,40.6042,10,-0.00343415,10,-4.91836e-05,-1.39143, , , ,-0.00121129,
2,1,0,0,1,18930.3,-0.000125413,-0.000611633,40.6798,10,-0.00340164,10,-2.48811e-05,-1.39062, , , ,-0.000611633,