File: Figure_codes/Fig_3-5/rawdata_trumpetplot_data/after 10th/20221101_1-115_003_TrumpetPlot_ParaChange_from10_every3_14_CV_C01_7.csv
mode,ox/red,error,control changes,counter inc.,time/s,control/V,Ewe/V,<I>/mA,cycle number,(Q-Qo)/C,I Range,P/W,log(|I|),Tafel slope mV/dec,alpha_eff,dI/d(E-IR),E-IR/V,
2,1,0,1,0,14990,2.44065e-05,-0.000248974,43.1654,8,0.0000000E+000,10,-1.07471e-05,-1.36486, , , ,-0.000248974,
2,1,0,1,0,14990,0.0133084,0.0129361,47.0184,8,0.000595636,10,0.000608236,-1.32773,0.508966,0.115921,211.869,0.01293612,
2,1,0,1,0,14990,0.0273414,0.0269791,49.4928,8,0.00127241,10,0.00133527,-1.30546,0.748206,0.0788553,151.879,0.0269791,
2,1,0,1,0,14990.1,0.0413245,0.0409298,51.3071,8,0.00197862,10,0.00209999,-1.28982,0.993858,0.0593646,118.758,0.0409298,
2,1,0,1,0,14990.1,0.0553076,0.0549272,52.8738,8,0.00270812,10,0.00290421,-1.27676,1.08159,0.0545492,112.605,0.0549272,
2,1,0,1,0,14990.1,0.0693407,0.0689468,54.4587,8,0.00345962,10,0.00375476,-1.26393,1.12727,0.0523389,111.143,0.0689468,
2,1,0,1,0,14990.1,0.0833238,0.082889,56.1389,8,0.00423322,10,0.0046533,-1.25074,0.944587,0.0624611,136.934,0.082889,
2,1,0,1,0,14990.1,0.0973069,0.0969617,58.1581,8,0.00503342,10,0.00563911,-1.23539,0.86877,0.0679121,154.337,0.09696167,
2,1,0,1,0,14990.1,0.11134,0.110979,60.4755,8,0.00586379,10,0.00671152,-1.21842,0.804614,0.0733271,173.081,0.110979,
2,1,0,1,0,14990.1,0.125323,0.124933,63.005,8,0.00672802,10,0.00787141,-1.20062,0.757355,0.0779027,191.654,0.124933,
2,1,0,1,0,14990.2,0.139306,0.138923,65.818,8,0.00762971,10,0.00914363,-1.18166,0.699291,0.0843711,217.014,0.138923,
2,1,0,1,0,14990.2,0.153339,0.152956,69.0699,8,0.00857401,10,0.0105647,-1.16071,0.665645,0.0886359,239.025,0.152956,
2,1,0,1,0,14990.2,0.167322,0.166969,72.5312,8,0.00956539,10,0.0121104,-1.13947,0.676739,0.0871828,246.639,0.166969,
2,1,0,1,0,14990.2,0.181305,0.180976,75.8473,8,0.0106049,10,0.0137265,-1.12006,0.787678,0.0749037,221.486,0.180976,
2,1,0,1,0,14990.2,0.195338,0.194924,78.5555,8,0.0116872,10,0.0153124,-1.10482,1.24382,0.0474345,145.001,0.194924,
2,1,0,1,0,14990.2,0.209322,0.208968,79.8049,8,0.012798,10,0.0166767,-1.09797,17.86,0.00330346,10.2352,0.208968,
2,1,0,1,0,14990.2,0.223305,0.222973,78.6291,8,0.0139101,10,0.0175322,-1.10442,-0.990006,-0.0595956,-181.828,0.222973,
2,1,0,1,0,14990.3,0.237338,0.23701,74.6273,8,0.014986,10,0.0176874,-1.1271,-0.448048,-0.131682,-381.46,0.23701,
2,1,0,1,0,14990.3,0.251321,0.251044,68.3191,8,0.0159879,10,0.0171511,-1.16546,-0.315818,-0.186816,-496.379,0.251044,
2,1,0,1,0,14990.3,0.265304,0.265005,61.0992,8,0.0168931,10,0.0161916,-1.21396,-0.280516,-0.210326,-501.725,0.265005,
2,1,0,1,0,14990.3,0.279337,0.279064,54.4114,8,0.0177002,10,0.0151843,-1.26431,-0.282818,-0.208615,-444.097,0.279064,
2,1,0,1,0,14990.3,0.29332,0.293043,48.8616,8,0.0184211,10,0.0143185,-1.31103,-0.315035,-0.187281,-359.976,0.293043,
2,1,0,1,0,14990.3,0.298714,0.298645,43.0007,8,0.0187977,10,0.0128419,-1.36652,0.0330964,1.78267,2491.24,0.2986446,
2,1,0,1,0,14990.3,0.28473,0.284536,18.0202,8,0.0192008,10,0.0051274,-1.74424,0.0314905,1.87358,1291.02,0.284536,
2,1,0,1,0,14990.3,0.270747,0.270497,4.17188,8,0.0193471,10,0.00112848,-2.37967,0.0174564,3.37985,784.252,0.2704972,
2,0,0,1,0,14990.4,0.256714,0.256462,-4.66833,8,0.0193381,10,-0.00119725,-2.33084,-0.00855056,-6.90014,512.143,0.256462,
2,0,0,1,0,14990.4,0.242731,0.242424,-10.6008,8,0.0192283,10,-0.0025699,-1.97466,-0.0649321,-0.908642,356.36,0.242424,
2,0,0,1,0,14990.4,0.228748,0.228448,-14.8147,8,0.0190484,10,-0.00338439,-1.82931,-0.127724,-0.461932,262.738,0.228448,
2,0,0,1,0,14990.4,0.214715,0.214418,-18.0321,8,0.0188168,10,-0.00386639,-1.74395,-0.203915,-0.289336,202.119,0.214418,
2,0,0,1,0,14990.4,0.200732,0.200452,-20.6021,8,0.0185456,10,-0.00412973,-1.68609,-0.27887,-0.211568,169.316,0.200452,
2,0,0,1,0,14990.4,0.186735,0.186446,-22.8341,8,0.0182412,10,-0.00425733,-1.64142,-0.335206,-0.176011,156.689,0.186446,
2,0,0,1,0,14990.4,0.172716,0.172423,-24.9865,8,0.0179059,10,-0.00430826,-1.60229,-0.370412,-0.159282,155.434,0.172423,
2,0,0,1,0,14990.5,0.158733,0.158457,-27.3247,8,0.01754,10,-0.00432978,-1.56344,-0.340472,-0.173289,185.279,0.158457,
2,0,0,1,0,14990.5,0.144719,0.14441,-30.3348,8,0.0171374,10,-0.00438063,-1.51806,-0.277247,-0.212806,253.071,0.14441,
2,0,0,1,0,14990.5,0.130717,0.130397,-34.4611,8,0.0166848,10,-0.00449364,-1.46267,-0.230196,-0.256303,346.532,0.130397,
2,0,0,1,0,14990.5,0.116733,0.116425,-40.0669,8,0.0161643,10,-0.0046648,-1.39721,-0.207778,-0.283957,444.517,0.116425,
2,0,0,1,0,14990.5,0.102703,0.102422,-46.7666,8,0.0155572,10,-0.00478991,-1.33006,-0.219898,-0.268306,487.99,0.102422,
2,0,0,1,0,14990.5,0.0887173,0.0884053,-53.4177,8,0.0148547,10,-0.0047224,-1.27232,-0.272232,-0.216727,449.769,0.0884053,
2,0,0,1,0,14990.5,0.0747341,0.0745097,-59.3534,8,0.0140641,10,-0.0044224,-1.22655,-0.345658,-0.170689,393.858,0.07450968,
2,0,0,1,0,14990.6,0.0607011,0.0605123,-64.326,8,0.0131968,10,-0.00389252,-1.19161,-0.48343,-0.122045,304.943,0.0605123,
2,0,0,1,0,14990.6,0.046718,0.0464736,-67.89,8,0.0122696,10,-0.00315509,-1.16819,-0.756167,-0.0780251,205.953,0.0464736,
2,0,0,1,0,14990.6,0.0327349,0.0324211,-70.0528,8,0.0113021,10,-0.00227119,-1.15457,-1.48867,-0.0396326,108.066,0.03242109,
2,0,0,1,0,14990.6,0.0187018,0.0183739,-71.1122,8,0.0103131,10,-0.00130661,-1.14806,-3.76825,-0.0156571,43.3492,0.0183739,
2,0,0,1,0,14990.6,0.00471873,0.00444332,-71.2959,8,0.00931551,10,-0.000316791,-1.14694,43.4681,0.00135732,-3.77359,0.00444332,
2,0,0,1,0,14990.6,-0.00926438,-0.00962297,-70.9752,8,0.00831868,10,0.000682992,-1.14889,3.52473,0.0167389,-46.3136,-0.00962297,
2,0,0,1,0,14990.6,-0.0232974,-0.0236235,-70.1186,8,0.00733069,10,0.00165645,-1.15417,1.88327,0.0313284,-85.5475,-0.0236235,
2,0,0,1,0,14990.7,-0.0372805,-0.0376866,-68.5672,8,0.00635959,10,0.00258407,-1.16388,1.22575,0.0481337,-128.622,-0.0376866,
2,0,0,1,0,14990.7,-0.0512636,-0.051648,-66.5515,8,0.00541368,10,0.00343725,-1.17684,1.02161,0.0577522,-149.969,-0.051648,
2,0,0,1,0,14990.7,-0.0652967,-0.0656474,-64.5317,8,0.00449658,10,0.00423634,-1.19023,1.08081,0.0545885,-137.514,-0.0656474,
2,0,0,1,0,14990.7,-0.0792798,-0.0796798,-62.7639,8,0.00360631,10,0.00500101,-1.20229,1.34039,0.0440171,-107.951,-0.0796798,
2,0,0,1,0,14990.7,-0.0932629,-0.0936432,-61.5334,8,0.00273703,10,0.00576219,-1.21089,2.16556,0.0272447,-65.5329,-0.0936432,
2,0,0,1,0,14990.7,-0.107296,-0.107646,-60.9487,8,0.00188036,10,0.00656088,-1.21504,5.63421,0.0104717,-24.9315,-0.107646,
2,0,0,1,0,14990.7,-0.121279,-0.121631,-60.7968,8,0.00102877,10,0.00739475,-1.21612,-38.2571,-0.0015422,3.66217,-0.121631,
2,0,0,1,0,14990.8,-0.135262,-0.135625,-61.0413,8,0.00017639,10,0.00827871,-1.21438,-4.57108,-0.0129072,30.7771,-0.135625,
2,0,0,1,0,14990.8,-0.149295,-0.149655,-61.6613,8,-0.000682308,10,0.00922792,-1.20999,-2.75746,-0.0213965,51.5053,-0.149655,
2,0,0,1,0,14990.8,-0.163278,-0.163623,-62.454,8,-0.00155102,10,0.0102189,-1.20444,-2.34203,-0.0251919,61.4173,-0.163623,
2,0,0,1,0,14990.8,-0.177261,-0.1776,-63.38,8,-0.0024317,10,0.0112563,-1.19805,-2.0446,-0.0288566,71.391,-0.1776,
2,0,0,1,0,14990.8,-0.191295,-0.191646,-64.4765,8,-0.00332663,10,0.0123567,-1.1906,-1.82275,-0.0323687,81.4328,-0.191646,
2,0,0,0,1,14990.8,-0.199984,-0.200513,-64.8392,8,-0.00392959,10,0.0130011,-1.18816,-0.0361523,-1.63198,3600.02,-0.200513,
2,0,0,1,1,14990.8,-0.186686,-0.187152,-39.4916,8,-0.00458738,10,0.00739093,-1.4035,-0.063799,-0.92478,1437.66,-0.187152,
2,0,0,1,1,14990.8,-0.172667,-0.173074,-22.9623,8,-0.00501644,10,0.00397417,-1.63899,-0.0512746,-1.15067,1015.96,-0.1730741,
2,0,0,1,1,14990.9,-0.158684,-0.159129,-10.461,8,-0.00524576,10,0.00166464,-1.98043,-0.0270217,-2.18343,802.794,-0.1591287,
2,0,0,1,1,14990.9,-0.14467,-0.145094,-0.280628,8,-0.00531784,10,4.07175e-05,-3.55187,-0.176559,-0.334165,664.657,-0.1450942,
2,1,0,1,1,14990.9,-0.130668,-0.131112,8.23771,8,-0.00525963,10,-0.00108006,-2.08419,0.029047,2.03119,564.268,-0.131112,
2,1,0,1,1,14990.9,-0.116685,-0.117225,15.573,8,-0.00509124,10,-0.00182554,-1.80763,0.0705476,0.836315,492.213,-0.117225,
2,1,0,1,1,14990.9,-0.102654,-0.103069,22.0783,8,-0.00482636,10,-0.00227559,-1.65603,0.116325,0.507198,430.04,-0.103069,
2,1,0,1,1,14990.9,-0.0886685,-0.0891355,27.69,8,-0.00447661,10,-0.00246816,-1.55768,0.167074,0.353137,378.632,-0.0891355,
2,1,0,1,1,14990.9,-0.0746854,-0.0750957,32.6575,8,-0.00405303,10,-0.00245244,-1.48602,0.222987,0.264589,335.477,-0.0750957,
2,1,0,1,1,14991,-0.0606523,-0.0610559,37.122,8,-0.00356389,10,-0.00226652,-1.43037,0.285943,0.206335,297.449,-0.0610559,
2,1,0,1,1,14991,-0.0466692,-0.0470702,40.9572,8,-0.00301649,10,-0.00192786,-1.38767,0.367528,0.160532,255.824,-0.0470702,
2,1,0,1,1,14991,-0.0326861,-0.0331089,44.291,8,-0.00241895,10,-0.00146642,-1.35368,0.46009,0.128236,221.117,-0.0331089,
2,1,0,1,1,14991,-0.018653,-0.0190754,47.1842,8,-0.00177799,10,-0.000900059,-1.3262,0.576233,0.102389,188.06,-0.0190754,
2,1,0,1,1,14991,-0.00466992,-0.00506216,49.5198,8,-0.00110023,10,-0.000250677,-1.30522, , , ,-0.00506216,
2,1,0,0,1,14991,-0.000175352,-0.000478022,50.1688,8,-0.000875873,10,-2.39818e-05,-1.29957, , , ,-0.000478022,