File: Figure_codes/Fig_3-5/rawdata_trumpetplot_data/after 10th/20221101_1-115_003_TrumpetPlot_ParaChange_from10_every3_05_CV_C01_15.csv
mode,ox/red,error,control changes,counter inc.,time/s,control/V,Ewe/V,<I>/mA,cycle number,(Q-Qo)/C,I Range,P/W,log(|I|),Tafel slope mV/dec,alpha_eff,dI/d(E-IR),E-IR/V,
2,0,0,1,0,30672,2.44065e-05,-0.000439847,-0.751327,16,0.0000000E+000,10,3.30469e-07,-3.12417, , , ,-0.000439847,
2,1,0,1,0,30672.3,0.00729063,0.00699872,0.682274,16,0.000141087,10,4.77505e-06,-3.16604,0.0459499,1.28401,33.4046,0.00699872,
2,1,0,1,0,30672.7,0.0147802,0.0144381,0.839918,16,0.000435278,10,1.21268e-05,-3.07576,0.113033,0.521972,17.0997,0.01443812,
2,1,0,1,0,30673.1,0.0222725,0.0219241,0.94449,16,0.000775891,10,2.07071e-05,-3.0248,0.173364,0.340324,12.5151,0.0219241,
2,1,0,1,0,30673.5,0.0297644,0.0294423,1.04127,16,0.00115377,10,3.06572e-05,-2.98244,0.201237,0.293186,11.9064,0.0294423,
2,1,0,1,0,30673.8,0.0372544,0.0369372,1.13669,16,0.00156753,10,4.1986e-05,-2.94436,0.202486,0.291378,12.924,0.0369372,
2,1,0,1,0,30674.2,0.0447449,0.0444319,1.23303,16,0.00201737,10,5.47859e-05,-2.90903,0.23342,0.252763,12.1584,0.04443188,
2,1,0,1,0,30674.6,0.0522363,0.0518827,1.32025,16,0.002502,10,6.84981e-05,-2.87934,0.246694,0.239163,12.3364,0.0518827,
2,1,0,1,0,30675,0.0597291,0.0593792,1.40434,16,0.00301905,10,8.33884e-05,-2.85253,0.2937,0.200885,10.9996,0.0593792,
2,1,0,1,0,30675.3,0.0672182,0.0669033,1.47678,16,0.00356479,10,9.88014e-05,-2.83068,0.390315,0.15116,8.70393,0.0669033,
2,1,0,1,0,30675.7,0.0747092,0.0744121,1.54185,16,0.00413603,10,0.000114732,-2.81196,0.614156,0.0960669,5.76493,0.0744121,
2,1,0,1,0,30676.1,0.0822001,0.0818814,1.58983,16,0.0047283,10,0.000130178,-2.79865,0.538472,0.109569,6.80515,0.0818814,
2,1,0,1,0,30676.5,0.0896911,0.0893731,1.65024,16,0.00534071,10,0.000147487,-2.78245,0.38205,0.15443,9.96419,0.0893731,
2,1,0,1,0,30676.8,0.097182,0.0968916,1.74491,16,0.00598158,10,0.000169067,-2.75823,0.232907,0.25332,17.2619,0.0968916,
2,1,0,1,0,30677.2,0.104673,0.104355,1.89466,16,0.00666709,10,0.000197717,-2.72247,0.19801,0.297965,21.9859,0.1043548,
2,1,0,1,0,30677.6,0.112164,0.111798,2.04997,16,0.00741171,10,0.000229182,-2.68825,0.253374,0.232858,18.5873,0.111798,
2,1,0,1,0,30678,0.119655,0.119331,2.16845,16,0.00820886,10,0.000258763,-2.66385,0.442527,0.133325,11.267,0.119331,
2,1,0,1,0,30678.3,0.127146,0.126847,2.23833,16,0.00904125,10,0.000283926,-2.65008,0.568408,0.103799,9.08023,0.126847,
2,1,0,1,0,30678.7,0.134637,0.134307,2.28974,16,0.00989747,10,0.000307529,-2.64021,7.47619,0.00789172,0.704522,0.134307,
2,1,0,1,0,30679.1,0.142128,0.141804,2.20567,16,0.0107531,10,0.000312775,-2.65646,-0.207242,-0.284692,-24.4298,0.141804,
2,1,0,1,0,30679.5,0.149619,0.149296,1.88644,16,0.0115326,10,0.000281638,-2.72436,-0.0814745,-0.724153,-53.1795,0.149296,
2,1,0,1,0,30679.8,0.157108,0.156807,1.50112,16,0.0121693,10,0.000235386,-2.82359,-0.0797933,-0.73941,-43.3798,0.156807,
2,1,0,1,0,30680.2,0.164601,0.164221,1.25734,16,0.0126865,10,0.000206483,-2.90055,-0.122303,-0.482409,-23.6965,0.164221,
2,1,0,1,0,30680.6,0.172092,0.171771,1.12825,16,0.013137,10,0.000193801,-2.94759,-0.21431,-0.275302,-12.1743,0.1717713,
2,1,0,1,0,30681,0.179582,0.179229,1.0639,16,0.0135529,10,0.000190682,-2.9731,-0.389168,-0.151605,-6.30792,0.179229,
2,1,0,1,0,30681.3,0.187073,0.18679,1.0272,16,0.0139496,10,0.000191871,-2.98834,-0.665666,-0.088633,-3.54758,0.1867903,
2,1,0,1,0,30681.7,0.194564,0.194259,1.00346,16,0.0143347,10,0.000194931,-2.9985,-0.877368,-0.0672466,-2.62744,0.194259,
2,1,0,1,0,30682.1,0.202057,0.20175,0.982212,16,0.0147117,10,0.000198161,-3.00779,-0.750641,-0.0785994,-3.00744,0.20175,
2,1,0,1,0,30682.4,0.209546,0.209259,0.968902,16,0.0150828,10,0.000202751,-3.01372,-0.88421,-0.0667262,-2.52349,0.209259,
2,1,0,1,0,30682.8,0.217037,0.216716,0.954614,16,0.0154489,10,0.00020688,-3.02017,-1.79587,-0.0328532,-1.22874,0.2167163,
2,1,0,1,0,30683.2,0.224528,0.224241,0.948386,16,0.0158113,10,0.000212667,-3.02301,-2.38274,-0.0247614,-0.914737,0.224241,
2,1,0,1,0,30683.6,0.232019,0.231689,0.939592,16,0.0161703,10,0.000217693,-3.02706,-1.99053,-0.0296404,-1.08721,0.231689,
2,1,0,1,0,30683.9,0.23951,0.239222,0.930196,16,0.0165266,10,0.000222523,-3.03143,-3.70106,-0.0159414,-0.579834,0.239222,
2,1,0,1,0,30684.3,0.247001,0.246678,0.927761,16,0.0168801,10,0.000228858,-3.03256,-1.76098,-0.033504,-1.20931,0.246678,
2,1,0,1,0,30684.7,0.254492,0.254186,0.915557,16,0.0172311,10,0.000232721,-3.03831,-1.52911,-0.0385844,-1.38257,0.254186,
2,1,0,1,0,30685.1,0.261983,0.261669,0.911896,16,0.0175794,10,0.000238615,-3.04005,-2.48985,-0.0236962,-0.841683,0.261669,
2,1,0,1,0,30685.4,0.269474,0.269165,0.902398,16,0.0179249,10,0.000242894,-3.0446,44.9085,0.00131378,0.0463115,0.269165,
2,1,0,1,0,30685.8,0.276965,0.276652,0.895687,16,0.0182678,10,0.000247794,-3.04784,-1.79228,-0.032919,-1.15305,0.276652,
2,1,0,1,0,30686.2,0.284456,0.28413,0.888531,16,0.0186077,10,0.000252458,-3.05133,-3.01755,-0.0195523,-0.676304,0.28413,
2,1,0,1,0,30686.6,0.291947,0.291627,0.878498,16,0.0189444,10,0.000256194,-3.05626,-1.27309,-0.046344,-1.58686,0.291627,
2,1,0,1,0,30686.9,0.299436,0.299165,0.870414,16,0.0192779,10,0.000260398,-3.06027,-0.00349728,-16.8703,-337.648,0.299165,
2,0,0,1,0,30687.3,0.293745,0.293401,-0.181918,16,0.0192999,10,-5.33749e-05,-3.74012,-0.0172377,-3.42272,22.638,0.293401,
2,0,0,1,0,30687.7,0.286254,0.285962,-0.291099,16,0.0192029,10,-8.32433e-05,-3.53596,-0.0630021,-0.936477,10.5708,0.285962,
2,0,0,1,0,30688,0.278763,0.2785,-0.356954,16,0.019075,10,-9.94116e-05,-3.44739,-0.108784,-0.54236,7.51177,0.2785,
2,0,0,1,0,30688.4,0.271272,0.270968,-0.407335,16,0.018926,10,-0.000110375,-3.39005,-0.143788,-0.410327,6.51148,0.270968,
2,0,0,1,0,30688.8,0.263781,0.263452,-0.444998,16,0.0187601,10,-0.000117236,-3.35164,-0.191676,-0.307811,5.36358,0.263452,
2,0,0,1,0,30689.2,0.25629,0.255978,-0.483539,16,0.0185801,10,-0.000123776,-3.31557,-0.246281,-0.239564,4.48872,0.255978,
2,0,0,1,0,30689.5,0.248799,0.248439,-0.515501,16,0.0183874,10,-0.000128071,-3.28777,-0.288561,-0.204463,4.10169,0.248439,
2,0,0,1,0,30689.9,0.241308,0.240975,-0.542498,16,0.0181835,10,-0.000130729,-3.2656,-0.335835,-0.175681,3.72872,0.2409752,
2,0,0,1,0,30690.3,0.233817,0.233526,-0.570122,16,0.0179689,10,-0.000133139,-3.24403,-0.33681,-0.175173,3.90443,0.2335263,
2,0,0,1,0,30690.7,0.226326,0.226028,-0.598151,16,0.0177441,10,-0.000135199,-3.22319,-0.445222,-0.132518,3.08285,0.226028,
2,0,0,1,0,30691,0.218835,0.218548,-0.625071,16,0.0175093,10,-0.000136608,-3.20407,-0.404977,-0.145687,3.54985,0.218548,
2,0,0,1,0,30691.4,0.211344,0.210997,-0.649466,16,0.0172652,10,-0.000137035,-3.18744,-0.610319,-0.0966708,2.44546,0.210997,
2,0,0,1,0,30691.8,0.203855,0.203531,-0.675714,16,0.0170113,10,-0.000137529,-3.17024,-0.50563,-0.116686,3.0747,0.2035307,
2,0,0,1,0,30692.2,0.196362,0.195999,-0.700654,16,0.0167476,10,-0.000137327,-3.1545,-0.430623,-0.137011,3.74956,0.195999,
2,0,0,1,0,30692.5,0.188871,0.18851,-0.732829,16,0.0164728,10,-0.000138145,-3.135,-0.323448,-0.182409,5.2099,0.18851,
2,0,0,1,0,30692.9,0.18138,0.181113,-0.767456,16,0.016186,10,-0.000138997,-3.11495,-0.35279,-0.167238,5.00864,0.181113,
2,0,0,1,0,30693.3,0.173891,0.173523,-0.807271,16,0.0158852,10,-0.00014008,-3.09298,-0.293802,-0.200815,6.33229,0.173523,
2,0,0,1,0,30693.7,0.166398,0.166061,-0.863524,16,0.0155664,10,-0.000143398,-3.06373,-0.253157,-0.233057,7.86305,0.166061,
2,0,0,1,0,30694,0.158906,0.158587,-0.937721,16,0.0152239,10,-0.000148711,-3.02793,-0.166543,-0.354264,13.0061,0.1585875,
2,0,0,1,0,30694.4,0.151417,0.15108,-1.05917,16,0.0148453,10,-0.000160018,-2.97504,-0.116603,-0.505991,20.9737,0.15108,
2,0,0,1,0,30694.8,0.143926,0.143633,-1.26368,16,0.0144072,10,-0.000181505,-2.89836,-0.0789184,-0.747608,36.9758,0.143633,
2,0,0,1,0,30695.2,0.136435,0.1361,-1.56963,16,0.0138727,10,-0.000213626,-2.8042,-0.0805629,-0.732347,44.7552,0.1361,
2,0,0,1,0,30695.5,0.128942,0.128617,-1.90067,16,0.0132157,10,-0.000244459,-2.72109,-0.107681,-0.547914,40.5079,0.128617,
2,0,0,1,0,30695.9,0.121453,0.121127,-2.15463,16,0.0124478,10,-0.000260984,-2.66663,-0.18796,-0.313896,26.3144,0.1211272,
2,0,0,1,0,30696.3,0.113962,0.113616,-2.28842,16,0.011605,10,-0.000260001,-2.64046,-0.553276,-0.106638,9.52022,0.113616,
2,0,0,1,0,30696.6,0.106471,0.106155,-2.30632,16,0.0107338,10,-0.000244827,-2.63708,1.14545,0.0515083,-4.64263,0.106155,
2,0,0,1,0,30697,0.0989798,0.0986636,-2.24717,16,0.00987314,10,-0.000221714,-2.64836,0.538929,0.109476,-9.59141,0.0986636,
2,0,0,1,0,30697.4,0.0914889,0.0911461,-2.16128,16,0.00904225,10,-0.000196992,-2.66529,0.483147,0.122116,-10.283,0.0911461,
2,0,0,1,0,30697.8,0.083998,0.083678,-2.08234,16,0.00824258,10,-0.000174246,-2.68145,0.467372,0.126238,-10.2541,0.083678,
2,0,0,1,0,30698.1,0.076507,0.0761551,-2.02044,16,0.00746825,10,-0.000153867,-2.69455,0.521439,0.113148,-8.91554,0.0761551,
2,0,0,1,0,30698.5,0.069016,0.0687125,-1.95881,16,0.00671634,10,-0.000134595,-2.70801,0.544919,0.108273,-8.30294,0.0687125,
2,0,0,1,0,30698.9,0.0615251,0.0612014,-1.90356,16,0.00598571,10,-0.000116501,-2.72043,0.578728,0.101948,-7.58291,0.0612014,
2,0,0,1,0,30699.3,0.0540342,0.0537,-1.84837,16,0.00527703,10,-9.92573e-05,-2.73321,0.587763,0.100381,-7.23565,0.0537,
2,0,0,1,0,30699.6,0.0465432,0.0462776,-1.78368,16,0.00459013,10,-8.25443e-05,-2.74868,0.517127,0.114092,-7.94247,0.0462776,
2,0,0,1,0,30700,0.0390523,0.038724,-1.72104,16,0.00392763,10,-6.66454e-05,-2.76421,0.40438,0.145902,-9.78154,0.038724,
2,0,0,1,0,30700.4,0.0315626,0.0312047,-1.64966,16,0.00329082,10,-5.1477e-05,-2.78261,0.407233,0.14488,-9.32252,0.03120471,
2,0,0,1,0,30700.8,0.0240704,0.0237598,-1.57895,16,0.00267976,10,-3.75156e-05,-2.80163,0.446102,0.132257,-8.17772,0.0237598,
2,0,0,1,0,30701.1,0.0165785,0.0162852,-1.5259,16,0.00209168,10,-2.48496e-05,-2.81647,0.641285,0.0920027,-5.49183,0.0162852,
2,0,0,1,0,30701.5,0.00908845,0.00876218,-1.48773,16,0.00152167,10,-1.30357e-05,-2.82748,0.983001,0.0600203,-3.48332,0.00876218,
2,0,0,1,0,30701.9,0.0015984,0.00119962,-1.48681,16,0.000962173,10,-1.7836e-06,-2.82775, , , ,0.00119962,
2,0,0,1,0,30702,0.000199195,-0.000217111,-1.47191,16,0.000857605,10,3.19567e-07,-2.83212, , , ,-0.000217111,