File: Figure_codes/Fig_3-5/rawdata_trumpetplot_data/after 10th/20221101_1-115_003_TrumpetPlot_ParaChange_from10_every3_11_CV_C01_22.csv
mode,ox/red,error,control changes,counter inc.,time/s,control/V,Ewe/V,<I>/mA,cycle number,(Q-Qo)/C,I Range,P/W,log(|I|),Tafel slope mV/dec,alpha_eff,dI/d(E-IR),E-IR/V,
2,1,0,1,0,44537.4,2.44065e-05,-0.000535284,9.69931,23,0.0000000E+000,10,-5.19189e-06,-2.01326, , , ,-0.000535284,
2,1,0,1,0,44537.4,0.0101427,0.0098058,13.0849,23,0.000294601,10,0.000128308,-1.88323,0.135179,0.43646,221.915,0.0098058,
2,1,0,1,0,44537.4,0.0205441,0.0202232,14.9782,23,0.000661141,10,0.000302908,-1.82454,0.219153,0.269218,157.18,0.0202232,
2,1,0,1,0,44537.5,0.0309482,0.0306375,16.3872,23,0.00106979,10,0.000502061,-1.7855,0.310785,0.189842,121.215,0.0306375,
2,1,0,1,0,44537.5,0.0413439,0.041039,17.5407,23,0.00151121,10,0.000719854,-1.75595,0.388422,0.151897,103.893,0.041039,
2,1,0,1,0,44537.5,0.0517425,0.0514087,18.5896,23,0.0019811,10,0.000955665,-1.73073,0.419491,0.140647,102.102,0.0514087,
2,1,0,1,0,44537.5,0.0621438,0.0618124,19.637,23,0.00247817,10,0.00121381,-1.70693,0.452662,0.13034,99.8462,0.0618124,
2,1,0,1,0,44537.6,0.0725479,0.0722171,20.6977,23,0.00300252,10,0.00149473,-1.68408,0.463883,0.127187,102.71,0.0722171,
2,1,0,1,0,44537.6,0.0829437,0.0825666,21.7767,23,0.00355474,10,0.00179803,-1.66201,0.476394,0.123847,105.312,0.0825666,
2,1,0,1,0,44537.6,0.0933422,0.0929947,22.8914,23,0.00413567,10,0.00212878,-1.64033,0.502661,0.117375,104.835,0.0929947,
2,1,0,1,0,44537.6,0.103749,0.103361,23.9826,23,0.00474473,10,0.00247888,-1.6201,0.505377,0.116744,109.161,0.103361,
2,1,0,1,0,44537.7,0.114148,0.113801,25.0865,23,0.00538264,10,0.00285486,-1.60056,0.518361,0.11382,111.496,0.113801,
2,1,0,1,0,44537.7,0.124543,0.124179,26.3182,23,0.00605084,10,0.00326817,-1.57974,0.482092,0.122383,125.754,0.124179,
2,1,0,1,0,44537.7,0.134942,0.134589,27.7225,23,0.00675323,10,0.00373114,-1.55717,0.457996,0.128822,139.371,0.134589,
2,1,0,1,0,44537.8,0.145349,0.145019,29.1839,23,0.00749309,10,0.00423222,-1.53486,0.496841,0.11875,135.158,0.145019,
2,1,0,1,0,44537.8,0.155747,0.155389,30.5039,23,0.00826948,10,0.00473998,-1.51564,0.592505,0.0995773,118.491,0.155389,
2,1,0,1,0,44537.8,0.166143,0.165795,31.5403,23,0.00907719,10,0.00522921,-1.50113,0.966903,0.0610196,75.0458,0.165795,
2,1,0,1,0,44537.8,0.176542,0.176161,31.9534,23,0.00990454,10,0.00562895,-1.49548,-13.0472,-0.00452205,-5.63016,0.1761613,
2,1,0,1,0,44537.9,0.186949,0.186624,31.3703,23,0.01073,10,0.00585447,-1.50348,-0.666058,-0.0885809,-108.273,0.186624,
2,1,0,1,0,44537.9,0.197347,0.197034,29.7324,23,0.0115262,10,0.00585831,-1.52677,-0.345183,-0.170924,-198.041,0.197034,
2,1,0,1,0,44537.9,0.207743,0.207387,27.3387,23,0.0122689,10,0.0056697,-1.56322,-0.251106,-0.23496,-250.391,0.2073871,
2,1,0,1,0,44537.9,0.218141,0.217828,24.7144,23,0.0129452,10,0.00538348,-1.60705,-0.23584,-0.250169,-241.477,0.217828,
2,1,0,1,0,44538,0.228548,0.228239,22.372,23,0.0135563,10,0.00510616,-1.6503,-0.251766,-0.234344,-204.688,0.228239,
2,1,0,1,0,44538,0.238947,0.238639,20.4566,23,0.0141118,10,0.00488176,-1.68917,-0.287974,-0.204879,-163.557,0.238639,
2,1,0,1,0,44538,0.249343,0.249036,18.9443,23,0.014623,10,0.00471781,-1.72252,-0.337257,-0.174941,-129.494,0.249036,
2,1,0,1,0,44538,0.259741,0.259431,17.7832,23,0.0150998,10,0.00461352,-1.74999,-0.419354,-0.140693,-97.7256,0.2594308,
2,1,0,1,0,44538.1,0.270148,0.269799,16.8791,23,0.0155499,10,0.00455397,-1.77265,-0.503498,-0.11718,-77.2203,0.269799,
2,1,0,1,0,44538.1,0.280547,0.280244,16.1548,23,0.0159789,10,0.0045273,-1.7917,-0.583108,-0.101182,-63.8128,0.280244,
2,1,0,1,0,44538.1,0.290942,0.290604,15.5577,23,0.0163909,10,0.00452112,-1.80805,-0.691729,-0.0852935,-51.8198,0.290604,
2,1,0,0,0,44538.1,0.300012,0.299785,15.1189,23,0.016739,10,0.00453243,-1.82048,0.00159784,36.9249,19256.3,0.299785,
2,1,0,1,0,44538.2,0.290704,0.290434,5.35468,23,0.0169551,10,0.00155518,-2.27127,0.0186928,3.1563,652.486,0.290434,
2,1,0,1,0,44538.2,0.280305,0.280007,0.292826,23,0.0170216,10,8.19932e-05,-3.53339,0.022192,2.65862,367.357,0.280007,
2,0,0,1,0,44538.2,0.269909,0.269565,-2.73288,23,0.0169867,10,-0.00073669,-2.56338,-0.0257195,-2.29398,233.803,0.269565,
2,0,0,1,0,44538.2,0.2595,0.259207,-4.73168,23,0.0168878,10,-0.00122649,-2.32498,-0.0676388,-0.872281,159.43,0.259207,
2,0,0,1,0,44538.3,0.249104,0.248832,-6.14799,23,0.0167453,10,-0.00152982,-2.21127,-0.121719,-0.484721,115.967,0.248832,
2,0,0,1,0,44538.3,0.238706,0.238381,-7.23143,23,0.0165707,10,-0.00172383,-2.14078,-0.180465,-0.326933,92.0844,0.2383807,
2,0,0,1,0,44538.3,0.22831,0.227983,-8.08576,23,0.0163711,10,-0.00184342,-2.09228,-0.247033,-0.238834,75.3237,0.227983,
2,0,0,1,0,44538.3,0.2179,0.217593,-8.81476,23,0.016151,10,-0.00191803,-2.05479,-0.309832,-0.190426,65.4568,0.217593,
2,0,0,1,0,44538.4,0.207504,0.207181,-9.43302,23,0.0159135,10,-0.00195435,-2.02535,-0.377668,-0.156222,57.5988,0.207181,
2,0,0,1,0,44538.4,0.197106,0.196771,-10.0251,23,0.0156602,10,-0.00197265,-1.99891,-0.414247,-0.142427,55.7311,0.196771,
2,0,0,1,0,44538.4,0.18671,0.186359,-10.5849,23,0.0153922,10,-0.0019726,-1.97531,-0.461989,-0.127709,52.7371,0.186359,
2,0,0,1,0,44538.4,0.1763,0.175953,-11.1507,23,0.0151096,10,-0.001962,-1.9527,-0.444454,-0.132747,57.799,0.175953,
2,0,0,1,0,44538.5,0.165905,0.165582,-11.7841,23,0.0148116,10,-0.00195124,-1.9287,-0.421759,-0.13989,64.3375,0.165582,
2,0,0,1,0,44538.5,0.155506,0.155196,-12.5554,23,0.0144956,10,-0.00194855,-1.90117,-0.343349,-0.171837,84.2083,0.155196,
2,0,0,1,0,44538.5,0.145105,0.144758,-13.5955,23,0.0141564,10,-0.00196806,-1.86661,-0.256574,-0.229953,122.263,0.144758,
2,0,0,1,0,44538.6,0.134701,0.134395,-15.1796,23,0.0137837,10,-0.00204006,-1.81874,-0.189225,-0.311798,184.937,0.134395,
2,0,0,1,0,44538.6,0.124305,0.124002,-17.4182,23,0.0133611,10,-0.0021599,-1.759,-0.16417,-0.359383,244.37,0.124002,
2,0,0,1,0,44538.6,0.113906,0.113592,-20.0863,23,0.0128736,10,-0.00228164,-1.6971,-0.18187,-0.324407,253.98,0.113592,
2,0,0,1,0,44538.6,0.103505,0.103221,-22.7469,23,0.0123166,10,-0.00234796,-1.64308,-0.210061,-0.28087,248.969,0.103221,
2,0,0,1,0,44538.7,0.0931008,0.0928176,-25.1453,23,0.011693,10,-0.00233393,-1.59954,-0.275654,-0.214036,209.718,0.0928176,
2,0,0,1,0,44538.7,0.0827051,0.0824341,-27.0651,23,0.0110131,10,-0.00223109,-1.56759,-0.396033,-0.148978,157.152,0.0824341,
2,0,0,1,0,44538.7,0.0723065,0.0719923,-28.4324,23,0.0102902,10,-0.00204691,-1.54619,-0.639018,-0.0923292,102.361,0.0719923,
2,0,0,1,0,44538.7,0.0618996,0.0615759,-29.2075,23,0.0095396,10,-0.00179848,-1.53451,-1.40197,-0.0420835,47.9138,0.0615759,
2,0,0,1,0,44538.8,0.0515011,0.0511913,-29.497,23,0.00877582,10,-0.00150999,-1.53022,-6.63095,-0.00889766,10.231,0.0511913,
2,0,0,1,0,44538.8,0.0411053,0.0407294,-29.4669,23,0.00800893,10,-0.00120017,-1.53067,6.06791,0.00972328,-11.1817,0.0407294,
2,0,0,1,0,44538.8,0.0307068,0.0304127,-29.2724,23,0.00724495,10,-0.000890251,-1.53354,2.96327,0.0199104,-22.7491,0.0304127,
2,0,0,1,0,44538.8,0.0202999,0.0200048,-28.9667,23,0.00648765,10,-0.000579472,-1.5381,1.78581,0.0330382,-37.3155,0.0200048,
2,0,0,1,0,44538.9,0.00990136,0.00955024,-28.4808,23,0.00574056,10,-0.000271998,-1.54545,1.2098,0.0487686,-54.1975,0.00955024,
2,0,0,1,0,44538.9,-0.000494411,-0.000870373,-27.8492,23,0.00500797,10,2.42392e-05,-1.55519,0.91212,0.0646845,-70.2409,-0.000870373,
2,0,0,1,0,44538.9,-0.010893,-0.0112486,-27.0079,23,0.00429474,10,0.000303801,-1.56851,0.749221,0.0787485,-82.9647,-0.0112486,
2,0,0,1,0,44538.9,-0.0212998,-0.0216936,-26.1268,23,0.00360422,10,0.000566785,-1.58291,0.72957,0.0808695,-82.4531,-0.0216936,
2,0,0,1,0,44539,-0.0316984,-0.0320453,-25.3416,23,0.00293567,10,0.00081208,-1.59617,0.880702,0.066992,-66.2705,-0.0320453,
2,0,0,1,0,44539,-0.0420942,-0.0424426,-24.751,23,0.00228499,10,0.0010505,-1.60641,1.221,0.048321,-46.7022,-0.0424426,
2,0,0,1,0,44539,-0.0524927,-0.0528695,-24.3835,23,0.00164669,10,0.00128915,-1.6129,2.19048,0.0269348,-25.6462,-0.0528695,
2,0,0,1,0,44539,-0.0628996,-0.0632552,-24.2291,23,0.00101516,10,0.00153262,-1.61566,8.7028,0.00677943,-6.4124,-0.0632552,
2,0,0,1,0,44539.1,-0.0732982,-0.0736535,-24.2511,23,0.000385314,10,0.00178618,-1.61527,-5.12199,-0.011519,10.9072,-0.0736535,
2,0,0,1,0,44539.1,-0.0836939,-0.0840773,-24.4316,23,-0.0002473,10,0.00205415,-1.61205,-2.2768,-0.0259135,24.7123,-0.0840773,
2,0,0,1,0,44539.1,-0.0940925,-0.094463,-24.7557,23,-0.000886532,10,0.0023385,-1.60632,-1.54232,-0.0382541,36.9736,-0.094463,
2,0,0,1,1,44539.1,-0.0978574,-0.0982868,-20.7855,23,-0.00138157,10,0.00204294,-1.68224,-0.0310106,-1.90258,1525.19,-0.0982868,
2,0,0,1,1,44539.2,-0.0874588,-0.0878831,-10.0288,23,-0.00176641,10,0.000881366,-1.99875,-0.0292719,-2.01559,785.238,-0.08788313,
2,0,0,1,1,44539.2,-0.0770519,-0.0774286,-3.2244,23,-0.00193304,10,0.00024966,-2.49155,-0.0122085,-4.83269,556.271,-0.0774286,
2,1,0,1,1,44539.2,-0.0666562,-0.0670705,1.81443,23,-0.001948,10,-0.000121694,-2.74126,0.00715931,8.24102,424.373,-0.0670705,
2,1,0,1,1,44539.2,-0.0562576,-0.0566976,5.69775,23,-0.00184813,10,-0.000323049,-2.2443,0.0385332,1.53115,333.835,-0.0566976,
2,1,0,1,1,44539.3,-0.0458563,-0.0462653,8.77177,23,-0.00165817,10,-0.000405829,-2.05691,0.0768996,0.767234,261.085,-0.0462653,
2,1,0,1,1,44539.3,-0.0354522,-0.0358585,11.2105,23,-0.00139689,10,-0.00040199,-1.95038,0.124262,0.474802,206.889,-0.0358585,
2,1,0,1,1,44539.3,-0.0250564,-0.025422,13.1153,23,-0.00107945,10,-0.000333418,-1.88222,0.188096,0.31367,160.205,-0.025422,
2,1,0,1,1,44539.4,-0.0146579,-0.0150576,14.5853,23,-0.000718287,10,-0.000219619,-1.83608,0.271662,0.217182,123.54,-0.0150576,
2,1,0,1,1,44539.4,-0.00425653,-0.00467723,15.7311,23,-0.000323315,10,-7.35781e-05,-1.80324,0.37823,0.15599,95.7024,-0.00467723,
2,1,0,0,1,44539.4,-7.54729e-05,-0.000439847,16.1092,23,-0.000156055,10,-7.08561e-06,-1.79292, , , ,-0.000439847,