File: Figure_codes/Fig_3-5/rawdata_trumpetplot_data/after 10th/20221101_1-115_003_TrumpetPlot_ParaChange_from10_every3_03_CV_C01_13.csv
mode,ox/red,error,control changes,counter inc.,time/s,control/V,Ewe/V,<I>/mA,cycle number,(Q-Qo)/C,I Range,P/W,log(|I|),Tafel slope mV/dec,alpha_eff,dI/d(E-IR),E-IR/V,
2,0,0,1,0,26551.7,2.44065e-05,-0.000306236,-0.099394,14,0.0000000E+000,10,3.04381e-08,-4.00264, , , ,-0.000306236,
2,1,0,1,0,26553.2,0.00729041,0.00696046,0.206995,14,0.000267953,10,1.44078e-06,-3.68404,0.0889483,0.663307,5.33336,0.00696046,
2,1,0,1,0,26554.7,0.0147815,0.0144683,0.239263,14,0.000628335,10,3.46174e-06,-3.62112,0.1347,0.438011,4.09584,0.0144683,
2,1,0,1,0,26556.2,0.0222725,0.0219592,0.267629,14,0.00103288,10,5.87692e-06,-3.57247,0.191893,0.307463,3.20562,0.0219592,
2,1,0,1,0,26557.7,0.0297635,0.0294476,0.293911,14,0.00147801,10,8.65498e-06,-3.53178,0.176111,0.335016,3.85253,0.0294476,
2,1,0,1,0,26559.2,0.0372545,0.0369288,0.320452,14,0.00196367,10,1.18339e-05,-3.49424,0.208111,0.283503,3.56079,0.0369288,
2,1,0,1,0,26560.7,0.0447456,0.0443913,0.347992,14,0.00248921,10,1.54478e-05,-3.45843,0.22085,0.26715,3.62312,0.0443913,
2,1,0,1,0,26562.2,0.0522367,0.0519116,0.371279,14,0.00305294,10,1.92737e-05,-3.4303,0.239447,0.246401,3.5697,0.0519116,
2,1,0,1,0,26563.7,0.0597277,0.0593814,0.39277,14,0.00365189,10,2.33232e-05,-3.40586,0.330485,0.178526,2.74302,0.0593814,
2,1,0,1,0,26565.1,0.0672187,0.0668668,0.415989,14,0.00428291,10,2.78159e-05,-3.38092,0.44862,0.131515,2.1194,0.0668668,
2,1,0,1,0,26566.6,0.0747092,0.0743549,0.429956,14,0.00494103,10,3.19693e-05,-3.36658,0.628021,0.0939458,1.57822,0.0743549,
2,1,0,0,0,26568.1,0.0822001,0.0818445,0.446037,14,0.00562305,10,3.65057e-05,-3.35063,0.428068,0.137829,2.40325,0.0818445,
2,1,0,1,0,26569.6,0.0896911,0.0893851,0.467852,14,0.00633199,10,4.1819e-05,-3.32989,0.312638,0.188716,3.45421,0.0893851,
2,1,0,0,0,26571.1,0.097182,0.0968196,0.502435,14,0.00708228,10,4.86455e-05,-3.29892,0.184246,0.320224,6.26343,0.09681958,
2,1,0,1,0,26572.6,0.104673,0.10436,0.548724,14,0.00789194,10,5.72649e-05,-3.26065,0.212456,0.277704,5.9028,0.10436,
2,1,0,0,0,26574.1,0.112164,0.111814,0.58387,14,0.00876524,10,6.52847e-05,-3.23368,0.365519,0.161414,3.675,0.111814,
2,1,0,1,0,26575.6,0.119655,0.119391,0.611507,14,0.00968853,10,7.30087e-05,-3.2136,0.468335,0.125978,3.01376,0.1193914,
2,1,0,0,0,26577.1,0.127146,0.126821,0.632699,14,0.0106502,10,8.02393e-05,-3.1988,0.523659,0.112669,2.79307,0.126821,
2,1,0,1,0,26578.6,0.134637,0.134361,0.637222,14,0.0116363,10,8.56179e-05,-3.19571,-0.38665,-0.152593,-3.78923,0.134361,
2,1,0,1,0,26580.1,0.142127,0.1418,0.571846,14,0.0125768,10,8.10881e-05,-3.24272,-0.100203,-0.588804,-13.0283,0.1418,
2,1,0,1,0,26581.6,0.149618,0.149325,0.45644,14,0.0133713,10,6.81579e-05,-3.34062,-0.0727637,-0.810844,-14.4829,0.149325,
2,1,0,1,0,26583.1,0.157109,0.156793,0.376558,14,0.0140129,10,5.90415e-05,-3.42417,-0.108827,-0.542147,-7.97435,0.156793,
2,1,0,1,0,26584.6,0.1646,0.16429,0.338726,14,0.0145694,10,5.56494e-05,-3.47015,-0.234581,-0.251512,-3.33475,0.16429,
2,1,0,1,0,26586.1,0.172091,0.171781,0.319728,14,0.0150857,10,5.49231e-05,-3.49522,-0.362245,-0.162873,-2.03931,0.171781,
2,1,0,1,0,26587.6,0.179582,0.179254,0.310273,14,0.0155803,10,5.56179e-05,-3.50826,-0.914179,-0.0645388,-0.783675,0.179254,
2,1,0,1,0,26589.1,0.187074,0.186731,0.302362,14,0.0160619,10,5.64602e-05,-3.51947,-1.11475,-0.0529264,-0.624566,0.186731,
2,1,0,1,0,26590.6,0.194564,0.194257,0.297686,14,0.0165337,10,5.78276e-05,-3.52624,-1.03761,-0.0568617,-0.658972,0.194257,
2,1,0,1,0,26592.1,0.202056,0.201752,0.29304,14,0.0169986,10,5.91215e-05,-3.53307,-0.931056,-0.0633689,-0.72294,0.201752,
2,1,0,1,0,26593.6,0.209547,0.209218,0.288981,14,0.0174577,10,6.04599e-05,-3.53913,-1.33041,-0.0443473,-0.499624,0.209218,
2,1,0,1,0,26595.1,0.217038,0.216709,0.28514,14,0.0179116,10,6.17923e-05,-3.54494,-1.01963,-0.0578641,-0.646205,0.216709,
2,1,0,1,0,26596.6,0.224529,0.224196,0.284046,14,0.0183615,10,6.3682e-05,-3.54661,-1.19174,-0.0495076,-0.547475,0.224196,
2,1,0,1,0,26598.1,0.232019,0.231709,0.281727,14,0.0188072,10,6.52785e-05,-3.55017,-1.82173,-0.0323868,-0.355313,0.231709,
2,1,0,0,0,26599.6,0.23951,0.239241,0.279173,14,0.0192501,10,6.67895e-05,-3.55413,-1.81473,-0.0325117,-0.354825,0.239241,
2,1,0,1,0,26601.1,0.247001,0.246686,0.27834,14,0.01969,10,6.86624e-05,-3.55542,-1.39422,-0.0423176,-0.458323,0.246686,
2,1,0,0,0,26602.6,0.254492,0.254184,0.275336,14,0.0201272,10,6.9986e-05,-3.56014,-2.1109,-0.0279502,-0.300959,0.254184,
2,1,0,1,0,26604.1,0.261983,0.261677,0.273924,14,0.0205619,10,7.16796e-05,-3.56237,-1.85852,-0.0317456,-0.339336,0.261677,
2,1,0,0,0,26605.6,0.269474,0.269168,0.272241,14,0.0209939,10,7.32788e-05,-3.56505,1.87156,0.0315245,0.33466,0.2691685,
2,1,0,1,0,26607.1,0.276965,0.276642,0.270161,14,0.0214236,10,7.4738e-05,-3.56838,-2.96111,-0.019925,-0.210815,0.276642,
2,1,0,0,0,26608.6,0.284456,0.284168,0.26853,14,0.02185,10,7.63076e-05,-3.57101,-8.62892,-0.00683747,-0.0716897,0.284168,
2,1,0,1,0,26610.1,0.291947,0.291637,0.265956,14,0.0222733,10,7.75628e-05,-3.57519,-1.56287,-0.0377511,-0.394337,0.291637,
2,1,0,1,0,26611.6,0.299437,0.299142,0.263525,14,0.022693,10,7.88313e-05,-3.57918,-0.00233733,-25.2425,-124.845,0.299142,
2,0,0,1,0,26613,0.293744,0.29339,-0.0191881,14,0.0227246,10,-5.6296e-06,-4.71697,-0.00549555,-10.736,5.75907,0.29339,
2,0,0,1,0,26614.5,0.286253,0.285904,-0.0490192,14,0.0226506,10,-1.40148e-05,-4.30963,-0.036847,-1.60121,2.99923,0.285904,
2,0,0,0,0,26616,0.278763,0.278432,-0.0676334,14,0.02254,10,-1.88313e-05,-4.16984,-0.0662344,-0.890776,2.33417,0.278432,
2,0,0,1,0,26617.5,0.271272,0.270967,-0.0838613,14,0.0224028,10,-2.27236e-05,-4.07644,-0.10353,-0.569882,1.85584,0.270967,
2,0,0,0,0,26619,0.263781,0.263471,-0.0973314,14,0.0222431,10,-2.5644e-05,-4.01175,-0.127499,-0.46275,1.76514,0.263471,
2,0,0,1,0,26620.5,0.25629,0.255958,-0.110743,14,0.0220642,10,-2.83454e-05,-3.95569,-0.246983,-0.238883,1.01963,0.255958,
2,0,0,0,0,26622,0.248799,0.248482,-0.119906,14,0.0218688,10,-2.97945e-05,-3.92116,-0.191667,-0.307825,1.44439,0.248482,
2,0,0,1,0,26623.4,0.241308,0.240995,-0.129818,14,0.0216582,10,-3.12853e-05,-3.88667,-0.273777,-0.215504,1.0932,0.240995,
2,0,0,0,0,26624.9,0.233817,0.233517,-0.139608,14,0.0214336,10,-3.26009e-05,-3.85509,-0.244827,-0.240987,1.30462,0.233517,
2,0,0,1,0,26626.4,0.226326,0.226012,-0.147634,14,0.0211954,10,-3.3367e-05,-3.83081,-0.40721,-0.144888,0.839404,0.226012,
2,0,0,0,0,26627.9,0.218835,0.218537,-0.157193,14,0.0209438,10,-3.43526e-05,-3.80357,-0.2532,-0.233018,1.42167,0.218537,
2,0,0,1,0,26629.4,0.211344,0.211036,-0.165251,14,0.0206793,10,-3.4874e-05,-3.78186,-0.354364,-0.166496,1.07585,0.211036,
2,0,0,1,0,26630.9,0.203854,0.203515,-0.173415,14,0.0204009,10,-3.52927e-05,-3.76091,-0.332627,-0.177376,1.20418,0.203515,
2,0,0,1,0,26632.4,0.196363,0.196027,-0.183866,14,0.0201087,10,-3.60427e-05,-3.7355,-0.328527,-0.17959,1.2842,0.196027,
2,0,0,1,0,26633.9,0.188871,0.188542,-0.19534,14,0.0198007,10,-3.68297e-05,-3.70921,-0.224349,-0.262983,2.00198,0.188542,
2,0,0,1,0,26635.4,0.181381,0.181054,-0.207813,14,0.0194751,10,-3.76255e-05,-3.68233,-0.225119,-0.262083,2.12156,0.181054,
2,0,0,1,0,26636.9,0.173889,0.173538,-0.223148,14,0.0191292,10,-3.87246e-05,-3.65141,-0.23618,-0.249809,2.1667,0.173538,
2,0,0,1,0,26638.4,0.166398,0.16609,-0.241392,14,0.0187578,10,-4.00927e-05,-3.61728,-0.190361,-0.309938,2.92722,0.16609,
2,0,0,1,0,26639.9,0.158907,0.158568,-0.267403,14,0.0183522,10,-4.24015e-05,-3.57283,-0.147417,-0.400225,4.19009,0.158568,
2,0,0,1,0,26641.4,0.151416,0.151093,-0.310131,14,0.0178955,10,-4.68587e-05,-3.50845,-0.100793,-0.585356,7.13251,0.151093,
2,0,0,1,0,26642.9,0.143925,0.143684,-0.382928,14,0.0173553,10,-5.50206e-05,-3.41688,-0.072284,-0.816225,12.1684,0.143684,
2,0,0,1,0,26644.4,0.136434,0.136121,-0.484234,14,0.0166847,10,-6.59145e-05,-3.31494,-0.0759841,-0.776479,14.6153,0.136121,
2,0,0,1,0,26645.9,0.128943,0.128632,-0.583809,14,0.0158573,10,-7.50968e-05,-3.23373,-0.127802,-0.46165,10.4359,0.128632,
2,0,0,0,0,26647.4,0.121453,0.121121,-0.638777,14,0.0149099,10,-7.73692e-05,-3.19465,-0.409919,-0.143931,3.57581,0.121121,
2,0,0,1,0,26648.9,0.113962,0.11363,-0.644809,14,0.013916,10,-7.32698e-05,-3.19057,1.11712,0.0528144,-1.33336,0.11363,
2,0,0,0,0,26650.4,0.106471,0.106138,-0.634385,14,0.0129289,10,-6.73327e-05,-3.19765,0.640424,0.0921265,-2.28651,0.106138,
2,0,0,1,0,26651.9,0.0989799,0.0986742,-0.615815,14,0.0119668,10,-6.07651e-05,-3.21055,0.607488,0.0971213,-2.3261,0.09867423,
2,0,0,0,0,26653.4,0.0914889,0.0912047,-0.594405,14,0.0110366,10,-5.42125e-05,-3.22592,0.447339,0.131891,-3.04703,0.0912047,
2,0,0,1,0,26654.9,0.083998,0.0836748,-0.568301,14,0.0101414,10,-4.75525e-05,-3.24542,0.346414,0.170316,-3.77582,0.0836748,
2,0,0,0,0,26656.4,0.076507,0.0761766,-0.547947,14,0.00927987,10,-4.17407e-05,-3.26126,0.429662,0.137317,-2.93401,0.0761766,
2,0,0,1,0,26657.9,0.0690161,0.0686965,-0.526914,14,0.0084485,10,-3.61971e-05,-3.27826,0.530964,0.111119,-2.29707,0.0686965,
2,0,0,0,0,26659.4,0.0615251,0.0612355,-0.511856,14,0.00764312,10,-3.13438e-05,-3.29085,0.554922,0.106321,-2.12897,0.0612355,
2,0,0,1,0,26660.9,0.0540342,0.053696,-0.497217,14,0.00686334,10,-2.66986e-05,-3.30345,0.572097,0.103129,-1.99193,0.053696,
2,0,0,1,0,26662.4,0.0465436,0.0461908,-0.478107,14,0.00610891,10,-2.20842e-05,-3.32047,0.475936,0.123966,-2.31711,0.0461908,
2,0,0,1,0,26663.9,0.0390526,0.038696,-0.460721,14,0.00538078,10,-1.78281e-05,-3.33656,0.395303,0.149253,-2.67325,0.038696,
2,0,0,1,0,26665.4,0.0315615,0.0312304,-0.44405,14,0.00467918,10,-1.38679e-05,-3.35257,0.468876,0.125833,-2.17459,0.0312304,
2,0,0,1,0,26666.9,0.0240706,0.0237715,-0.426394,14,0.00400207,10,-1.0136e-05,-3.37019,0.862552,0.0684017,-1.1457,0.0237715,
2,0,0,1,0,26668.4,0.0165795,0.0162511,-0.417982,14,0.00334438,10,-6.79268e-06,-3.37884,1.12321,0.052528,-0.856866,0.0162511,
2,0,0,1,0,26669.9,0.00908846,0.00875809,-0.413471,14,0.00269912,10,-3.62122e-06,-3.38356,-13.3474,-0.00442034,0.0712036,0.00875809,
2,0,0,1,0,26671.4,0.00159739,0.00119412,-0.418204,14,0.00205502,10,-4.99385e-07,-3.37861, , , ,0.00119412,
2,0,0,0,0,26671.7,0.000199195,-0.000226069,-0.416949,14,0.00193427,10,9.42594e-08,-3.37992, , , ,-0.000226069,