File: Figure_codes/Fig_3-5/rawdata_trumpetplot_data/after 10th/20221101_1-115_003_TrumpetPlot_ParaChange_from10_every3_06_CV_C01_22.csv
mode,ox/red,error,control changes,counter inc.,time/s,control/V,Ewe/V,<I>/mA,cycle number,(Q-Qo)/C,I Range,P/W,log(|I|),Tafel slope mV/dec,alpha_eff,dI/d(E-IR),E-IR/V,
2,0,0,0,0,44492.9,2.44065e-05,-0.000306236,-1.41598,23,0.0000000E+000,10,4.33624e-07,-2.84894, , , ,-0.000306236,
2,1,0,1,0,44493.1,0.00729063,0.00693842,1.1016,23,6.82693e-05,10,7.64336e-06,-2.95798,0.0243361,2.42439,98.9854,0.00693842,
2,1,0,1,0,44493.3,0.014778,0.0144544,1.5139,23,0.000322712,10,2.18826e-05,-2.8199,0.0998505,0.590883,34.7364,0.0144544,
2,1,0,1,0,44493.4,0.0222743,0.0219424,1.71882,23,0.000630084,10,3.77152e-05,-2.76477,0.156603,0.37675,25.2885,0.0219424,
2,1,0,1,0,44493.6,0.0297626,0.0294855,1.89396,23,0.00097177,10,5.58445e-05,-2.72263,0.193061,0.305603,22.5522,0.0294855,
2,1,0,1,0,44493.8,0.0372544,0.0369279,2.06025,23,0.00134533,10,7.60807e-05,-2.68608,0.216816,0.272121,21.9225,0.0369279,
2,1,0,1,0,44494,0.0447472,0.044422,2.22971,23,0.00175053,10,9.90481e-05,-2.65175,0.22573,0.261374,22.7689,0.044422,
2,1,0,1,0,44494.2,0.0522345,0.0519,2.39367,23,0.00218685,10,0.000124231,-2.62094,0.241041,0.244772,22.8636,0.0519,
2,1,0,1,0,44494.4,0.0597308,0.0594391,2.54788,23,0.00265366,10,0.000151444,-2.59382,0.295413,0.199721,19.8872,0.0594391,
2,1,0,1,0,44494.6,0.0672182,0.066943,2.69353,23,0.0031476,10,0.000180313,-2.56968,0.342299,0.172364,18.1003,0.066943,
2,1,0,1,0,44494.8,0.0747074,0.0743933,2.81364,23,0.00366637,10,0.000209316,-2.55073,0.456198,0.12933,14.1926,0.0743933,
2,1,0,1,0,44494.9,0.0822019,0.0818931,2.91327,23,0.00420666,10,0.000238577,-2.53562,0.569478,0.103604,11.8008,0.0818931,
2,1,0,1,0,44495.1,0.0896911,0.089352,3.01625,23,0.00476429,10,0.000269508,-2.52053,0.442709,0.13327,15.6737,0.089352,
2,1,0,1,0,44495.3,0.097182,0.0968845,3.14947,23,0.00534378,10,0.000305135,-2.50176,0.301391,0.195759,24.08,0.0968845,
2,1,0,1,0,44495.5,0.104675,0.104381,3.37337,23,0.00595594,10,0.000352117,-2.47194,0.216381,0.272668,35.8845,0.1043814,
2,1,0,1,0,44495.7,0.112162,0.11183,3.65148,23,0.00661556,10,0.000408346,-2.43753,0.220143,0.268007,38.1089,0.11183,
2,1,0,1,0,44495.9,0.119655,0.119313,3.90283,23,0.0073272,10,0.000465659,-2.40862,0.344455,0.171285,26.0784,0.119313,
2,1,0,1,0,44496.1,0.127146,0.126869,4.05858,23,0.00807752,10,0.000514907,-2.39163,0.603445,0.0977719,15.4828,0.126869,
2,1,0,1,0,44496.3,0.134635,0.134312,4.15027,23,0.00885025,10,0.000557432,-2.38192,1.71622,0.0343779,5.56432,0.134312,
2,1,0,1,0,44496.4,0.142129,0.141816,4.12097,23,0.00963179,10,0.000584418,-2.385,-0.502175,-0.117489,-18.8594,0.141816,
2,1,0,1,0,44496.6,0.149619,0.149305,3.77476,23,0.0103804,10,0.000563593,-2.42311,-0.120794,-0.488436,-71.6747,0.149305,
2,1,0,1,0,44496.8,0.157106,0.156811,3.1278,23,0.0110309,10,0.000490474,-2.50476,-0.0807429,-0.730714,-89.1534,0.156811,
2,1,0,1,0,44497,0.164602,0.164273,2.5627,23,0.0115637,10,0.000420984,-2.5913,-0.0997177,-0.59167,-59.4689,0.164273,
2,1,0,1,0,44497.2,0.172091,0.171774,2.22298,23,0.0120123,10,0.000381851,-2.65306,-0.145552,-0.405353,-35.2548,0.171774,
2,1,0,1,0,44497.4,0.179582,0.179279,2.02743,23,0.0124122,10,0.000363475,-2.69305,-0.246115,-0.239725,-19.0324,0.179279,
2,1,0,1,0,44497.6,0.187074,0.186793,1.91811,23,0.0127841,10,0.000358289,-2.71713,-0.398446,-0.148075,-11.0963,0.186793,
2,1,0,1,0,44497.8,0.194563,0.194278,1.85352,23,0.0131392,10,0.000360097,-2.732,-0.564868,-0.104449,-7.53225,0.194278,
2,1,0,1,0,44497.9,0.202059,0.201764,1.80331,23,0.0134842,10,0.000363842,-2.74393,-0.726372,-0.0812255,-5.71871,0.201764,
2,1,0,1,0,44498.1,0.209546,0.209195,1.77178,23,0.0138218,10,0.000370648,-2.75159,-0.85211,-0.0692399,-4.79213,0.209195,
2,1,0,1,0,44498.3,0.217035,0.216702,1.74819,23,0.0141541,10,0.000378835,-2.75741,-1.25787,-0.0469049,-3.19811,0.216702,
2,1,0,1,0,44498.5,0.22453,0.224208,1.7223,23,0.0144827,10,0.000386155,-2.76389,-2.01404,-0.0292943,-1.97697,0.224208,
2,1,0,1,0,44498.7,0.232019,0.231689,1.71182,23,0.0148076,10,0.00039661,-2.76654,-2.54269,-0.0232038,-1.54886,0.231689,
2,1,0,1,0,44498.9,0.23951,0.23922,1.69653,23,0.01513,10,0.000405844,-2.77044,-2.08454,-0.0283036,-1.87398,0.23922,
2,1,0,1,0,44499.1,0.247003,0.246696,1.68475,23,0.01545,10,0.000415623,-2.77346,-1.19274,-0.0494658,-3.25762,0.246696,
2,1,0,1,0,44499.2,0.25449,0.254184,1.67595,23,0.0157676,10,0.000426,-2.77574,-1.84053,-0.032056,-2.09252,0.2541841,
2,1,0,1,0,44499.4,0.261983,0.261694,1.66285,23,0.0160832,10,0.000435159,-2.77915,-2.6008,-0.0226853,-1.47392,0.261694,
2,1,0,1,0,44499.6,0.269474,0.269138,1.65335,23,0.0163966,10,0.000444979,-2.78164,-43.7174,-0.00134958,-0.0870792,0.269138,
2,1,0,1,0,44499.8,0.276963,0.276631,1.6427,23,0.0167078,10,0.000454422,-2.78444,-2.40654,-0.0245166,-1.5669,0.276631,
2,1,0,1,0,44500,0.284458,0.284128,1.62588,23,0.0170169,10,0.000461957,-2.78891,-4.12368,-0.0143076,-0.908558,0.284128,
2,1,0,1,0,44500.2,0.291947,0.291596,1.61216,23,0.0173231,10,0.0004701,-2.79259,-1.13641,-0.0519177,-3.26616,0.291596,
2,1,0,1,0,44500.4,0.299434,0.299155,1.59886,23,0.0176267,10,0.000478309,-2.79619,-0.0170821,-3.45392,-186.425,0.299155,
2,0,0,1,0,44500.5,0.294196,0.293869,-0.297464,23,0.0176747,10,-8.74154e-05,-3.52657,-0.00715719,-8.24346,73.9829,0.2938689,
2,0,0,1,0,44500.7,0.286701,0.286386,-0.574134,23,0.017585,10,-0.000164424,-3.24099,-0.0571092,-1.03311,22.8354,0.286386,
2,0,0,1,0,44500.9,0.279212,0.278895,-0.703109,23,0.0174611,10,-0.000196093,-3.15298,-0.106874,-0.552049,15.1625,0.278895,
2,0,0,1,0,44501.1,0.271725,0.271381,-0.792779,23,0.0173169,10,-0.000215145,-3.10085,-0.138263,-0.426722,13.2842,0.271381,
2,0,0,1,0,44501.3,0.264228,0.263914,-0.871374,23,0.0171569,10,-0.000229968,-3.0598,-0.229555,-0.257019,8.72778,0.263914,
2,0,0,1,0,44501.5,0.256741,0.256465,-0.934669,23,0.0169843,10,-0.00023971,-3.02934,-0.263705,-0.223734,8.16036,0.256465,
2,0,0,1,0,44501.7,0.249248,0.24893,-0.990882,23,0.0168006,10,-0.00024666,-3.00398,-0.328836,-0.179421,6.93235,0.24893,
2,0,0,1,0,44501.8,0.241756,0.241426,-1.04188,23,0.0166067,10,-0.000251536,-2.98218,-0.326832,-0.180521,7.32894,0.241426,
2,0,0,1,0,44502,0.234268,0.233917,-1.0878,23,0.0164036,10,-0.000254456,-2.96345,-0.477317,-0.123608,5.28544,0.233917,
2,0,0,1,0,44502.2,0.226772,0.226449,-1.13824,23,0.0161914,10,-0.000257753,-2.94377,-0.360581,-0.163625,7.25863,0.226449,
2,0,0,1,0,44502.4,0.219284,0.218967,-1.18654,23,0.0159711,10,-0.000259814,-2.92572,-0.435121,-0.135594,6.24088,0.218967,
2,0,0,1,0,44502.6,0.211796,0.211465,-1.22537,23,0.0157423,10,-0.000259124,-2.91173,-0.502877,-0.117325,5.61164,0.211465,
2,0,0,1,0,44502.8,0.204301,0.203984,-1.27468,23,0.0155048,10,-0.000260014,-2.8946,-0.756221,-0.0780195,3.86986,0.203984,
2,0,0,1,0,44503,0.196812,0.196443,-1.31346,23,0.0152592,10,-0.00025802,-2.88158,-0.561031,-0.105164,5.4062,0.1964431,
2,0,0,1,0,44503.2,0.189321,0.189023,-1.3639,23,0.0150044,10,-0.000257808,-2.86522,-0.459183,-0.128489,6.87098,0.189023,
2,0,0,1,0,44503.3,0.181828,0.181468,-1.42736,23,0.01474,10,-0.000259019,-2.84547,-0.34704,-0.170009,9.41114,0.181468,
2,0,0,1,0,44503.5,0.174341,0.174024,-1.48727,23,0.0144644,10,-0.000258821,-2.82761,-0.339309,-0.173883,10.1017,0.174024,
2,0,0,1,0,44503.7,0.166848,0.166483,-1.5711,23,0.0141748,10,-0.000261562,-2.8038,-0.296346,-0.199091,12.2021,0.166483,
2,0,0,1,0,44503.9,0.159357,0.15902,-1.68802,23,0.0138673,10,-0.000268428,-2.77262,-0.213332,-0.276564,18.1533,0.15902,
2,0,0,1,0,44504.1,0.151868,0.151486,-1.85019,23,0.0135339,10,-0.000280279,-2.73278,-0.151895,-0.388427,28.176,0.151486,
2,0,0,1,0,44504.3,0.144373,0.144042,-2.1294,23,0.013159,10,-0.000306723,-2.67174,-0.102676,-0.574626,48.0166,0.144042,
2,0,0,1,0,44504.5,0.136884,0.136545,-2.57689,23,0.012717,10,-0.000351861,-2.5889,-0.087098,-0.677398,68.0134,0.1365447,
2,0,0,1,0,44504.7,0.129393,0.129064,-3.10244,23,0.0121819,10,-0.000400413,-2.5083,-0.103423,-0.570475,69.0758,0.129064,
2,0,0,1,0,44504.8,0.1219,0.121586,-3.58861,23,0.0115501,10,-0.000436325,-2.44507,-0.14628,-0.403335,56.3208,0.121586,
2,0,0,1,0,44505,0.114413,0.114077,-3.95361,23,0.0108386,10,-0.000451017,-2.40301,-0.252806,-0.233381,35.9431,0.114077,
2,0,0,1,0,44505.2,0.10692,0.106594,-4.14223,23,0.010074,10,-0.000441536,-2.38277,-0.714099,-0.0826216,13.3486,0.1065938,
2,0,0,1,0,44505.4,0.0994284,0.0991019,-4.15537,23,0.00929041,10,-0.000411805,-2.38139,1.06024,0.055648,-9.0106,0.0991019,
2,0,0,1,0,44505.6,0.0919402,0.0916273,-4.03618,23,0.00851903,10,-0.000369825,-2.39403,0.490753,0.120223,-18.9444,0.0916273,
2,0,0,1,0,44505.8,0.0844447,0.0841316,-3.89324,23,0.0077725,10,-0.000327545,-2.40969,0.518773,0.11373,-17.3074,0.0841316,
2,0,0,1,0,44506,0.0769565,0.0766134,-3.7854,23,0.00705084,10,-0.000290012,-2.42189,0.617589,0.0955328,-14.1044,0.0766134,
2,0,0,1,0,44506.1,0.0694682,0.0691416,-3.69392,23,0.00634745,10,-0.000255404,-2.43251,0.777768,0.0758581,-10.9399,0.0691416,
2,0,0,1,0,44506.3,0.0619728,0.0616188,-3.60174,23,0.00565991,10,-0.000221935,-2.44349,0.593246,0.0994529,-13.9947,0.0616188,
2,0,0,1,0,44506.5,0.0544836,0.0541458,-3.50875,23,0.00499093,10,-0.000189984,-2.45485,0.720637,0.081872,-11.1852,0.0541458,
2,0,0,1,0,44506.7,0.0469927,0.0466173,-3.39723,23,0.00434058,10,-0.00015837,-2.46887,0.58299,0.101202,-13.4303,0.0466173,
2,0,0,1,0,44506.9,0.0394999,0.0391461,-3.28962,23,0.00371091,10,-0.000128776,-2.48285,0.458165,0.128775,-16.499,0.0391461,
2,0,0,1,0,44507.1,0.0320125,0.0317003,-3.16145,23,0.00310437,10,-0.000100219,-2.50011,0.394897,0.149406,-18.3886,0.0317003,
2,0,0,1,0,44507.3,0.0245198,0.0242407,-3.02136,23,0.00252166,10,-7.32401e-05,-2.5198,0.405678,0.145436,-17.2066,0.0242407,
2,0,0,1,0,44507.5,0.0170289,0.0167115,-2.91697,23,0.0019617,10,-4.87468e-05,-2.53507,0.460543,0.12811,-14.5941,0.0167115,
2,0,0,1,0,44507.6,0.0095397,0.00921578,-2.83405,23,0.00142051,10,-2.6118e-05,-2.54759,0.76676,0.0769472,-8.49925,0.00921578,
2,0,0,1,0,44507.8,0.00204518,0.00166913,-2.81168,23,0.000891757,10,-4.69307e-06,-2.55103,5.54141,0.0106471,-1.15882,0.00166913,
2,0,0,1,0,44507.9,0.000177222,-0.000173388,-2.78656,23,0.00076039,10,4.83158e-07,-2.55493, , , ,-0.000173388,