File: Figure_codes/Fig_3-5/rawdata_trumpetplot_data/after 10th/20221101_1-115_003_TrumpetPlot_ParaChange_from10_every3_14_CV_C01_30.csv
mode,ox/red,error,control changes,counter inc.,time/s,control/V,Ewe/V,<I>/mA,cycle number,(Q-Qo)/C,I Range,P/W,log(|I|),Tafel slope mV/dec,alpha_eff,dI/d(E-IR),E-IR/V,
2,1,0,1,0,60303,2.44065e-05,-0.000287149,28.6842,31,0.0000000E+000,10,-8.23664e-06,-1.54236, , , ,-0.0002871489,
2,1,0,1,0,60303,0.0133084,0.0129202,32.1769,31,0.000402458,10,0.000415732,-1.49246,0.351966,0.16763,209.76,0.0129202,
2,1,0,1,0,60303,0.0273414,0.0269621,34.8121,31,0.0008723,10,0.000938607,-1.45827,0.462113,0.127674,173.015,0.0269621,
2,1,0,1,0,60303.1,0.0413245,0.0409457,37.0596,31,0.00137591,10,0.00151743,-1.4311,0.561329,0.105108,151.797,0.0409457,
2,1,0,1,0,60303.1,0.0553076,0.054925,39.0621,31,0.00190918,10,0.00214549,-1.40824,0.643457,0.0916922,139.737,0.054925,
2,1,0,1,0,60303.1,0.0693407,0.0689447,40.9396,31,0.00246965,10,0.00282257,-1.38786,0.728071,0.0810361,129.354,0.06894467,
2,1,0,1,0,60303.1,0.0833238,0.0829537,42.6847,31,0.00305527,10,0.00354085,-1.36973,0.801731,0.0735908,122.527,0.0829537,
2,1,0,1,0,60303.1,0.0973069,0.096914,44.3747,31,0.00366486,10,0.00430053,-1.35286,0.824859,0.0715273,123.913,0.096914,
2,1,0,1,0,60303.1,0.11134,0.110933,46.1113,31,0.00429845,10,0.00511525,-1.33619,0.863423,0.0683326,122.935,0.110933,
2,1,0,1,0,60303.1,0.125323,0.124932,47.8289,31,0.00495618,10,0.00597537,-1.32031,0.914845,0.0644918,120.311,0.124932,
2,1,0,1,0,60303.2,0.139306,0.13885,49.6149,31,0.00563792,10,0.00688903,-1.30439,0.822232,0.0717559,139.019,0.13885,
2,1,0,1,0,60303.2,0.153339,0.152953,51.5995,31,0.00634671,10,0.00789232,-1.28735,0.836658,0.0705187,142.065,0.152953,
2,1,0,1,0,60303.2,0.167322,0.166909,53.6356,31,0.00708358,10,0.00895228,-1.27055,0.849484,0.0694539,145.346,0.166909,
2,1,0,1,0,60303.2,0.181305,0.180953,55.6269,31,0.00784876,10,0.0100659,-1.25471,0.932914,0.0632427,137.209,0.180953,
2,1,0,1,0,60303.2,0.195338,0.194942,57.4046,31,0.00864061,10,0.0111906,-1.24105,1.19631,0.0493183,110.352,0.194942,
2,1,0,1,0,60303.2,0.209322,0.208923,58.7062,31,0.00945415,10,0.0122651,-1.23132,1.90352,0.0309952,70.8815,0.208923,
2,1,0,1,0,60303.2,0.223305,0.222909,59.3738,31,0.0102815,10,0.013235,-1.22641,5.31265,0.0111056,25.6896,0.222909,
2,1,0,1,0,60303.3,0.237338,0.237001,59.3819,31,0.0111137,10,0.0140736,-1.22635,-5.32941,-0.0110706,-25.6106,0.237001,
2,1,0,1,0,60303.3,0.251321,0.250934,58.6761,31,0.0119408,10,0.0147238,-1.23154,-1.82492,-0.0323302,-73.8995,0.250934,
2,1,0,1,0,60303.3,0.265304,0.264947,57.3126,31,0.0127534,10,0.0151848,-1.24175,-1.11616,-0.0528596,-118.035,0.264947,
2,1,0,1,0,60303.3,0.279337,0.27898,55.3566,31,0.0135425,10,0.0154434,-1.25683,-0.800029,-0.0737473,-159.094,0.2789804,
2,1,0,1,0,60303.3,0.29332,0.292952,52.9393,31,0.0143008,10,0.0155087,-1.27622,-0.675513,-0.087341,-180.81,0.292952,
2,1,0,1,0,60303.3,0.298714,0.298546,49.3256,31,0.014716,10,0.014726,-1.30693,0.068216,0.8649,1529.25,0.298546,
2,1,0,1,0,60303.3,0.28473,0.284467,33.5879,31,0.0152843,10,0.00955463,-1.47382,0.0867505,0.680111,896.058,0.284467,
2,1,0,1,0,60303.3,0.270747,0.270502,22.8211,31,0.0156748,10,0.00617318,-1.64166,0.0774395,0.761885,676.524,0.270502,
2,1,0,1,0,60303.4,0.256714,0.256415,14.3637,31,0.0159319,10,0.00368307,-1.84273,0.0604481,0.976044,540.436,0.256415,
2,1,0,1,0,60303.4,0.242731,0.242492,7.54299,31,0.016083,10,0.00182911,-2.12246,0.0373463,1.57981,442.259,0.242492,
2,1,0,1,0,60303.4,0.228748,0.22848,1.92598,31,0.0161475,10,0.000440047,-2.71535,0.0212783,2.77277,366.883,0.22848,
2,0,0,1,0,60303.4,0.214715,0.214394,-2.7949,31,0.0161398,10,-0.00059921,-2.55363,-0.0116072,-5.08307,309.755,0.214394,
2,0,0,1,0,60303.4,0.200732,0.200387,-6.79073,31,0.0160715,10,-0.00136078,-2.16808,-0.0562087,-1.04966,265.337,0.200387,
2,0,0,1,0,60303.4,0.186735,0.186427,-10.2709,31,0.0159513,10,-0.00191476,-1.98839,-0.0994267,-0.593402,233.565,0.1864271,
2,0,0,1,0,60303.4,0.172716,0.172389,-13.3613,31,0.0157851,10,-0.00230335,-1.87415,-0.144757,-0.40758,210.793,0.172389,
2,0,0,1,0,60303.5,0.158733,0.158372,-16.2108,31,0.0155777,10,-0.00256734,-1.79019,-0.184362,-0.320022,201.804,0.158372,
2,0,0,1,0,60303.5,0.144719,0.144365,-19.0802,31,0.0153307,10,-0.00275451,-1.71942,-0.208929,-0.282393,209.969,0.144365,
2,0,0,1,0,60303.5,0.130717,0.130389,-22.1674,31,0.0150421,10,-0.00289038,-1.65429,-0.213888,-0.275845,239.013,0.130389,
2,0,0,1,0,60303.5,0.116733,0.116405,-25.7984,31,0.0147067,10,-0.00300307,-1.58841,-0.211771,-0.278602,280.833,0.116405,
2,0,0,1,0,60303.5,0.102703,0.10238,-30.0118,31,0.0143163,10,-0.00307262,-1.52271,-0.224122,-0.263249,307.46,0.10238,
2,0,0,1,0,60303.5,0.0887173,0.0883989,-34.2625,31,0.013866,10,-0.00302877,-1.46518,-0.262086,-0.225117,300.253,0.0883989,
2,0,0,1,0,60303.5,0.0747342,0.0744662,-38.3151,31,0.013357,10,-0.00285318,-1.41663,-0.319357,-0.184746,275.434,0.0744662,
2,0,0,1,0,60303.6,0.0607011,0.0603586,-41.9538,31,0.0127944,10,-0.00253227,-1.37723,-0.409779,-0.14398,234.657,0.0603586,
2,0,0,1,0,60303.6,0.046718,0.0464619,-44.9096,31,0.0121858,10,-0.00208659,-1.34766,-0.524981,-0.112385,196.408,0.0464619,
2,0,0,1,0,60303.6,0.0327349,0.0324571,-47.3644,31,0.0115391,10,-0.00153731,-1.32455,-0.688431,-0.0857022,158.104,0.0324571,
2,0,0,1,0,60303.6,0.0187018,0.0184333,-49.3887,31,0.0108615,10,-0.000910394,-1.30637,-0.86805,-0.0679685,130.774,0.0184333,
2,0,0,1,0,60303.6,0.00471873,0.00442,-50.9948,31,0.0101582,10,-0.000225397,-1.29247,-1.17857,-0.0500607,99.4851,0.00442,
2,0,0,1,0,60303.6,-0.00926438,-0.00961025,-52.1639,31,0.0094353,10,0.000501308,-1.28263,-1.81845,-0.0324452,65.9605,-0.00961025,
2,0,0,1,0,60303.6,-0.0232974,-0.0236352,-52.9151,31,0.00869937,10,0.00125066,-1.27642,-3.17896,-0.0185596,38.2639,-0.02363519,
2,0,0,1,0,60303.7,-0.0372805,-0.0376432,-53.2203,31,0.00795601,10,0.00200338,-1.27392,-12.6497,-0.00466415,9.67825,-0.0376432,
2,0,0,1,0,60303.7,-0.0512637,-0.0516639,-53.2204,31,0.00721069,10,0.00274957,-1.27392,15.2768,0.00386206,-8.01562,-0.0516639,
2,0,0,1,0,60303.7,-0.0652967,-0.0657058,-53.0508,31,0.00646676,10,0.00348574,-1.27531,7.39595,0.00797734,-16.5053,-0.0657058,
2,0,0,1,0,60303.7,-0.0792798,-0.0796416,-52.7419,31,0.00572613,10,0.00420046,-1.27784,5.50864,0.0107104,-22.0483,-0.0796416,
2,0,0,1,0,60303.7,-0.0932629,-0.0936167,-52.4437,31,0.00498989,10,0.00490961,-1.28031,5.95121,0.00991395,-20.2918,-0.0936167,
2,0,0,1,0,60303.7,-0.107296,-0.107696,-52.2248,31,0.00425745,10,0.00562439,-1.28212,9.29395,0.00634821,-12.9367,-0.107696,
2,0,0,1,0,60303.7,-0.121279,-0.121711,-52.0491,31,0.00352772,10,0.00633495,-1.28359,14.6195,0.00403569,-8.20083,-0.121711,
2,0,0,1,0,60303.8,-0.135262,-0.135668,-51.9968,31,0.00279956,10,0.00705432,-1.28402,-225.174,-0.000262019,0.531955,-0.135668,
2,0,0,1,0,60303.8,-0.149295,-0.149679,-52.1107,31,0.00207102,10,0.0077999,-1.28307,-10.4263,-0.00565876,11.5072,-0.149679,
2,0,0,1,0,60303.8,-0.163278,-0.163636,-52.2855,31,0.00134036,10,0.00855581,-1.28162,-7.3515,-0.00802557,16.383,-0.163636,
2,0,0,1,0,60303.8,-0.177261,-0.177607,-52.5582,31,0.000606466,10,0.00933472,-1.27936,-5.91551,-0.00997378,20.4607,-0.177607,
2,0,0,1,0,60303.8,-0.191295,-0.191655,-52.8965,31,-0.000131646,10,0.0101378,-1.27657,-5.31318,-0.0111045,22.9103,-0.191655,
2,0,0,0,1,60303.8,-0.199984,-0.200494,-52.7593,31,-0.000624272,10,0.0105779,-1.2777,-0.0453967,-1.29965,2404.66,-0.200494,
2,0,0,1,1,60303.8,-0.186686,-0.187151,-36.4048,31,-0.00118918,10,0.00681319,-1.43884,-0.0948851,-0.621804,894.413,-0.187151,
2,0,0,1,1,60303.8,-0.172667,-0.173097,-26.1278,31,-0.00162198,10,0.00452265,-1.5829,-0.0944415,-0.624725,637.46,-0.173097,
2,0,0,1,1,60303.9,-0.158684,-0.159139,-18.1332,31,-0.00192916,10,0.0028857,-1.74153,-0.0794002,-0.743071,522.635,-0.159139,
2,0,0,1,1,60303.9,-0.14467,-0.145113,-11.391,31,-0.00213421,10,0.00165299,-1.94344,-0.0569561,-1.03589,450.754,-0.1451133,
2,0,0,1,1,60303.9,-0.130668,-0.131094,-5.50468,31,-0.00225101,10,0.000721628,-2.25927,-0.0285427,-2.06708,398.054,-0.131094,
2,0,0,1,1,60303.9,-0.116685,-0.117147,-0.216106,31,-0.00228997,10,2.53162e-05,-3.66533,-0.17598,-0.335265,360.11,-0.117147,
2,1,0,1,1,60303.9,-0.102654,-0.103111,4.64244,31,-0.00225836,10,-0.000478684,-2.33325,0.027487,2.14647,333.475,-0.103111,
2,1,0,1,1,60303.9,-0.0886685,-0.089145,9.08816,31,-0.00216145,10,-0.000810164,-2.04152,0.0658036,0.896608,308.646,-0.089145,
2,1,0,1,1,60303.9,-0.0746854,-0.0751593,13.2549,31,-0.00200425,10,-0.000996227,-1.87762,0.105124,0.561244,286.309,-0.0751593,
2,1,0,1,1,60304,-0.0606523,-0.0610877,17.1796,31,-0.0017908,10,-0.00104946,-1.76499,0.147001,0.401357,266.31,-0.0610877,
2,1,0,1,1,60304,-0.0466692,-0.0471359,20.7325,31,-0.00152483,10,-0.000977245,-1.68335,0.193446,0.304994,245.546,-0.0471359,
2,1,0,1,1,60304,-0.0326861,-0.0331057,24.0461,31,-0.00121076,10,-0.000796063,-1.61896,0.242094,0.243707,227.819,-0.0331057,
2,1,0,1,1,60304,-0.018653,-0.0190786,27.1315,31,-0.00085213,10,-0.000517631,-1.56653,0.296604,0.198918,209.813,-0.01907862,
2,1,0,1,1,60304,-0.00466992,-0.00509822,29.9041,31,-0.000452362,10,-0.000152458,-1.52427, , , ,-0.00509822,
2,1,0,0,1,60304,-0.000175352,-0.00070707,30.7539,31,-0.000315868,10,-2.17451e-05,-1.5121, , , ,-0.00070707,