File: Figure_codes/Fig_3-5/rawdata_trumpetplot_data/after 10th/20221101_1-115_003_TrumpetPlot_ParaChange_from10_every3_08_CV_C01_19.csv
mode,ox/red,error,control changes,counter inc.,time/s,control/V,Ewe/V,<I>/mA,cycle number,(Q-Qo)/C,I Range,P/W,log(|I|),Tafel slope mV/dec,alpha_eff,dI/d(E-IR),E-IR/V,
2,0,0,0,0,38607.5,2.44065e-05,-0.000363498,-4.00527,20,0.0000000E+000,10,1.45591e-06,-2.39737, , , ,-0.000363498,
2,1,0,1,0,38607.6,0.0072942,0.00698887,0.873814,20,-7.70698e-05,10,6.10697e-06,-3.05858,0.00451763,13.0599,301.458,0.00698887,
2,1,0,1,0,38607.7,0.0147816,0.0144503,2.25332,20,8.05785e-05,10,3.25611e-05,-2.64718,0.0442936,1.33202,115.791,0.0144503,
2,1,0,1,0,38607.8,0.0222707,0.0219615,2.91148,20,0.000326108,10,6.39404e-05,-2.53589,0.100423,0.587513,66.3743,0.0219615,
2,1,0,1,0,38607.9,0.0297581,0.029396,3.32624,20,0.000619769,10,9.77782e-05,-2.47805,0.147544,0.39988,51.8431,0.029396,
2,1,0,1,0,38608,0.0372544,0.0369469,3.68135,20,0.000949779,10,0.000136015,-2.43399,0.199558,0.295654,42.4759,0.0369469,
2,1,0,1,0,38608.1,0.0447507,0.0444494,4.01988,20,0.00131203,10,0.000178682,-2.39579,0.219723,0.26852,42.0942,0.04444943,
2,1,0,1,0,38608.1,0.0522381,0.0518972,4.33127,20,0.00170432,10,0.000224781,-2.36339,0.227426,0.259425,43.9128,0.0518972,
2,1,0,1,0,38608.2,0.0597273,0.0593876,4.63582,20,0.00212566,10,0.00027531,-2.33387,0.283654,0.208,37.6416,0.0593876,
2,1,0,1,0,38608.3,0.0672147,0.0668924,4.92922,20,0.00257448,10,0.000329727,-2.30722,0.312096,0.189044,36.2904,0.0668924,
2,1,0,1,0,38608.4,0.0747038,0.0743906,5.18249,20,0.00304857,10,0.000385529,-2.28546,0.357306,0.165125,33.3742,0.0743906,
2,1,0,1,0,38608.5,0.0822055,0.0818367,5.39739,20,0.00354651,10,0.000441705,-2.26782,0.501621,0.117619,24.8075,0.0818367,
2,1,0,1,0,38608.6,0.0896946,0.0893414,5.60723,20,0.00406302,10,0.000500958,-2.25125,0.515928,0.114357,25.0254,0.0893414,
2,1,0,1,0,38608.7,0.097182,0.0968387,5.83094,20,0.00459904,10,0.000564661,-2.23426,0.353111,0.167086,38.0397,0.0968387,
2,1,0,1,0,38608.8,0.104671,0.104349,6.15556,20,0.00515996,10,0.000642327,-2.21073,0.276028,0.213747,51.3472,0.104349,
2,1,0,1,0,38608.9,0.112159,0.111843,6.59092,20,0.00575636,10,0.000737151,-2.18105,0.243531,0.242269,62.2524,0.111843,
2,1,0,1,0,38609,0.119655,0.119333,7.0748,20,0.0063973,10,0.000844257,-2.15029,0.270207,0.218351,60.1851,0.119333,
2,1,0,1,0,38609.1,0.127149,0.126831,7.45377,20,0.00708012,10,0.000945367,-2.12762,0.393396,0.149976,43.6664,0.126831,
2,1,0,1,0,38609.2,0.134639,0.134313,7.74484,20,0.0077939,10,0.00104023,-2.11099,0.648094,0.0910362,27.4988,0.134313,
2,1,0,1,0,38609.3,0.142126,0.141798,7.90398,20,0.00852844,10,0.00112077,-2.10215,1.3671,0.0431569,13.2918,0.141798,
2,1,0,1,0,38609.4,0.149615,0.149309,7.78532,20,0.00926732,10,0.00116242,-2.10872,-0.366171,-0.161127,-48.8451,0.149309,
2,1,0,1,0,38609.5,0.157103,0.156799,7.10942,20,0.00997014,10,0.00111475,-2.14817,-0.123313,-0.478459,-132.222,0.156799,
2,1,0,1,0,38609.6,0.164606,0.164273,5.97257,20,0.0105857,10,0.000981135,-2.22384,-0.0889288,-0.663452,-154.678,0.164273,
2,1,0,1,0,38609.6,0.172095,0.171765,4.96037,20,0.0110962,10,0.000852019,-2.30449,-0.103736,-0.56875,-110.556,0.171765,
2,1,0,1,0,38609.7,0.179582,0.17926,4.31764,20,0.0115293,10,0.000773978,-2.36475,-0.140707,-0.419312,-70.77,0.17926,
2,1,0,1,0,38609.8,0.18707,0.186833,3.92267,20,0.011914,10,0.000732884,-2.40642,-0.219379,-0.268941,-41.1208,0.186833,
2,1,0,1,0,38609.9,0.194559,0.194263,3.66234,20,0.012269,10,0.000711459,-2.43624,-0.358715,-0.164476,-23.5605,0.1942634,
2,1,0,1,0,38610,0.202062,0.201804,3.49873,20,0.0126055,10,0.000706057,-2.45609,-0.437169,-0.134959,-18.435,0.201804,
2,1,0,1,0,38610.1,0.20955,0.209224,3.397,20,0.0129288,10,0.000710735,-2.4689,-0.555733,-0.106166,-14.05,0.2092241,
2,1,0,1,0,38610.2,0.217039,0.21672,3.30135,20,0.0132431,10,0.000715469,-2.48131,-1.022,-0.0577301,-7.45519,0.21672,
2,1,0,1,0,38610.3,0.224526,0.224234,3.24399,20,0.0135508,10,0.000727412,-2.48892,-0.831817,-0.070929,-8.99058,0.224234,
2,1,0,1,0,38610.4,0.232016,0.231722,3.20351,20,0.0138535,10,0.000742324,-2.49437,-2.45729,-0.0240102,-2.99491,0.231722,
2,1,0,1,0,38610.5,0.23951,0.23919,3.15628,20,0.0141524,10,0.000754952,-2.50082,-2.70588,-0.0218044,-2.6881,0.23919,
2,1,0,1,0,38610.6,0.247006,0.246721,3.12955,20,0.0144481,10,0.000772127,-2.50452,-1.1189,-0.0527304,-6.43039,0.246721,
2,1,0,1,0,38610.7,0.254494,0.25422,3.10193,20,0.0147406,10,0.000788574,-2.50837,-1.91069,-0.0308789,-3.73541,0.2542204,
2,1,0,1,0,38610.8,0.261983,0.261632,3.07043,20,0.0150305,10,0.000803323,-2.5128,-2.33397,-0.0252788,-3.03135,0.261632,
2,1,0,1,0,38610.9,0.26947,0.269143,3.04517,20,0.0153179,10,0.000819585,-2.51639,-2.09614,-0.028147,-3.34886,0.269143,
2,1,0,1,0,38611,0.276959,0.276676,3.02717,20,0.0156031,10,0.000837545,-2.51896,-2.46159,-0.0239682,-2.82866,0.276676,
2,1,0,1,0,38611.1,0.284461,0.284149,2.99172,20,0.0158864,10,0.000850093,-2.52408,-207.676,-0.000284097,-0.0331959,0.284149,
2,1,0,1,0,38611.1,0.29195,0.291679,2.96693,20,0.0161667,10,0.000865391,-2.52769,-0.967306,-0.0609942,-7.06353,0.291679,
2,1,0,1,0,38611.2,0.299438,0.299141,2.9418,20,0.0164445,10,0.000880015,-2.53139,-0.0295134,-1.99909,-211.301,0.299141,
2,0,0,1,0,38611.3,0.29424,0.293936,-0.316122,20,0.0165175,10,-9.29197e-05,-3.50015,-0.00756272,-7.80143,202.202,0.293936,
2,0,0,1,0,38611.4,0.286753,0.286423,-1.09119,20,0.0164431,10,-0.000312542,-2.9621,-0.0446784,-1.32055,55.5597,0.286423,
2,0,0,1,0,38611.5,0.279264,0.278964,-1.3993,20,0.0163241,10,-0.000390353,-2.85409,-0.102791,-0.573979,31.2372,0.278964,
2,0,0,1,0,38611.6,0.271776,0.271479,-1.58562,20,0.0161827,10,-0.000430463,-2.7998,-0.156393,-0.377254,23.4273,0.2714794,
2,0,0,1,0,38611.7,0.26428,0.263956,-1.73991,20,0.0160255,10,-0.00045926,-2.75947,-0.246776,-0.239083,16.2046,0.263956,
2,0,0,1,0,38611.8,0.256786,0.256444,-1.86224,20,0.015856,10,-0.000477561,-2.72996,-0.275091,-0.214475,15.5307,0.256444,
2,0,0,1,0,38611.9,0.249296,0.248979,-1.95815,20,0.0156763,10,-0.000487539,-2.70815,-0.341583,-0.172725,13.1971,0.248979,
2,0,0,1,0,38612,0.241809,0.241504,-2.05065,20,0.0154874,10,-0.00049524,-2.68811,-0.438391,-0.134583,10.796,0.241504,
2,0,0,1,0,38612.1,0.23432,0.233969,-2.13999,20,0.0152901,10,-0.000500692,-2.66959,-0.366354,-0.161047,13.456,0.233969,
2,0,0,1,0,38612.2,0.226833,0.226518,-2.21728,20,0.0150849,10,-0.000502254,-2.65418,-0.40622,-0.145242,12.5834,0.226518,
2,0,0,1,0,38612.3,0.219329,0.218995,-2.30238,20,0.014872,10,-0.00050421,-2.63782,-0.564693,-0.104481,9.37704,0.218995,
2,0,0,1,0,38612.3,0.21184,0.211492,-2.38398,20,0.014652,10,-0.000504192,-2.6227,-0.521623,-0.113108,10.4889,0.211492,
2,0,0,1,0,38612.4,0.204353,0.20397,-2.45699,20,0.0144248,10,-0.000501151,-2.6096,-0.550748,-0.107127,10.2721,0.20397,
2,0,0,1,0,38612.5,0.196863,0.196526,-2.53226,20,0.0141902,10,-0.000497654,-2.59649,-0.635379,-0.092858,9.19619,0.196526,
2,0,0,1,0,38612.6,0.189376,0.18906,-2.62687,20,0.0139477,10,-0.000496637,-2.58056,-0.465089,-0.126858,13.013,0.18906,
2,0,0,1,0,38612.7,0.18188,0.181555,-2.71641,20,0.0136964,10,-0.000493177,-2.56601,-0.412854,-0.142908,15.1823,0.181555,
2,0,0,1,0,38612.8,0.174385,0.174053,-2.83377,20,0.0134352,10,-0.000493226,-2.54763,-0.429976,-0.137217,15.1927,0.174053,
2,0,0,1,0,38612.9,0.166896,0.166534,-2.98851,20,0.0131623,10,-0.000497689,-2.52454,-0.328922,-0.179374,20.8447,0.166534,
2,0,0,1,0,38613,0.159409,0.159097,-3.17485,20,0.0128739,10,-0.000505109,-2.49828,-0.227406,-0.259448,32.136,0.159097,
2,0,0,1,0,38613.1,0.151919,0.151538,-3.45333,20,0.0125635,10,-0.000523311,-2.46176,-0.177905,-0.331638,44.8434,0.151538,
2,0,0,1,0,38613.2,0.144425,0.144114,-3.9105,20,0.0122191,10,-0.000563556,-2.40777,-0.119335,-0.494409,75.597,0.144114,
2,0,0,1,0,38613.3,0.136929,0.136605,-4.60127,20,0.0118212,10,-0.000628556,-2.33712,-0.0946844,-0.623123,111.969,0.1366047,
2,0,0,1,0,38613.4,0.129441,0.129093,-5.48865,20,0.0113486,10,-0.000708547,-2.26053,-0.104263,-0.565878,121.205,0.129093,
2,0,0,1,0,38613.5,0.121952,0.121628,-6.37622,20,0.0107918,10,-0.000775524,-2.19544,-0.137094,-0.430362,106.826,0.121628,
2,0,0,1,0,38613.6,0.114465,0.114123,-7.10291,20,0.010159,10,-0.000810607,-2.14856,-0.188074,-0.313706,86.8456,0.114123,
2,0,0,1,0,38613.7,0.106976,0.106633,-7.6195,20,0.00946698,10,-0.000812486,-2.11807,-0.32826,-0.179735,53.4556,0.106633,
2,0,0,1,0,38613.8,0.0994721,0.0991298,-7.90937,20,0.00873527,10,-0.000784054,-2.10186,-1.09214,-0.0540226,16.6411,0.0991298,
2,0,0,1,0,38613.8,0.0919847,0.0916657,-7.89963,20,0.00799258,10,-0.000724124,-2.10239,1.26236,0.0467378,-14.4003,0.0916657,
2,0,0,1,0,38613.9,0.0844973,0.0841609,-7.68394,20,0.00726089,10,-0.000646687,-2.11442,0.495794,0.119001,-35.7024,0.0841609,
2,0,0,1,0,38614,0.0770082,0.0766562,-7.42414,20,0.00655312,10,-0.000569106,-2.12935,0.464756,0.126948,-36.7579,0.0766562,
2,0,0,1,0,38614.1,0.0695208,0.0692047,-7.20647,20,0.00586839,10,-0.000498721,-2.14228,0.722461,0.0816654,-22.9654,0.0692047,
2,0,0,1,0,38614.2,0.0620245,0.061695,-7.0256,20,0.00520041,10,-0.000433444,-2.15332,0.711363,0.0829394,-22.7749,0.061695,
2,0,0,1,0,38614.3,0.0545282,0.0542208,-6.87865,20,0.00454785,10,-0.000372966,-2.1625,0.770623,0.0765615,-20.5423,0.0542208,
2,0,0,1,0,38614.4,0.0470408,0.0466847,-6.70363,20,0.00391134,10,-0.000312957,-2.17369,0.734504,0.0803263,-21.0179,0.0466847,
2,0,0,1,0,38614.5,0.0395516,0.0392134,-6.51674,20,0.00329174,10,-0.000255543,-2.18597,0.586507,0.100595,-25.565,0.0392134,
2,0,0,1,0,38614.6,0.0320643,0.0317223,-6.3037,20,0.00269096,10,-0.000199968,-2.2004,0.431426,0.136756,-33.6041,0.0317223,
2,0,0,1,0,38614.7,0.0245751,0.0242564,-6.05754,20,0.00211176,10,-0.000146934,-2.2177,0.407175,0.144901,-34.2276,0.0242564,
2,0,0,1,0,38614.8,0.0170735,0.0167619,-5.80053,20,0.00155469,10,-9.7228e-05,-2.23653,0.460154,0.128218,-29.0676,0.0167619,
2,0,0,1,0,38614.9,0.00958429,0.00921629,-5.5941,20,0.00102064,10,-5.15568e-05,-2.25227,0.496704,0.118783,-25.907,0.00921629,
2,0,0,1,0,38615,0.0020969,0.0017419,-5.47197,20,0.000504594,10,-9.53163e-06,-2.26186,0.995195,0.0592848,-12.5817,0.001741901,
2,0,0,1,0,38615,0.000199195,-0.000189804,-5.41319,20,0.000375464,10,1.02744e-06,-2.26655, , , ,-0.0001898036,