File: Figure_codes/Fig_3-5/rawdata_trumpetplot_data/after 10th/20221101_1-115_003_TrumpetPlot_ParaChange_from10_every3_14_CV_C01_25.csv
mode,ox/red,error,control changes,counter inc.,time/s,control/V,Ewe/V,<I>/mA,cycle number,(Q-Qo)/C,I Range,P/W,log(|I|),Tafel slope mV/dec,alpha_eff,dI/d(E-IR),E-IR/V,
2,1,0,1,0,50452.4,2.44065e-05,-0.000229887,32.0717,26,0.0000000E+000,10,-7.37287e-06,-1.49388, , , ,-0.000229887,
2,1,0,1,0,50452.4,0.0133084,0.0129001,35.7985,26,0.000448904,10,0.000461803,-1.44614,0.378741,0.155779,216.774,0.0129001,
2,1,0,1,0,50452.4,0.0273414,0.0269759,38.5105,26,0.000969974,10,0.00103886,-1.41442,0.500186,0.117956,176.795,0.0269759,
2,1,0,1,0,50452.4,0.0413245,0.0409118,40.7668,26,0.00152551,10,0.00166784,-1.38969,0.619521,0.0952348,151.333,0.04091176,
2,1,0,1,0,50452.4,0.0553076,0.0549293,42.7642,26,0.00211068,10,0.00234901,-1.36892,0.708063,0.0833259,139.018,0.0549293,
2,1,0,1,0,50452.4,0.0693407,0.0689319,44.627,26,0.00272276,10,0.00307622,-1.3504,0.798988,0.0738434,128.462,0.0689319,
2,1,0,1,0,50452.5,0.0833238,0.0829113,46.3436,26,0.00335978,10,0.00384241,-1.33401,0.870616,0.0677681,122.559,0.0829113,
2,1,0,1,0,50452.5,0.0973069,0.0968938,48.0739,26,0.0040208,10,0.00465806,-1.31809,0.868246,0.0679531,127.528,0.0968938,
2,1,0,1,0,50452.5,0.11134,0.110953,49.8566,26,0.00470651,10,0.00553172,-1.30228,0.923656,0.0638766,124.19,0.110953,
2,1,0,1,0,50452.5,0.125323,0.12489,51.6611,26,0.0054168,10,0.00645193,-1.28684,0.863622,0.0683169,137.739,0.12489,
2,1,0,1,0,50452.5,0.139306,0.138947,53.6176,26,0.00615394,10,0.00745003,-1.27069,0.848087,0.0695683,145.698,0.1389474,
2,1,0,1,0,50452.5,0.153339,0.152919,55.7546,26,0.00691968,10,0.00852595,-1.25372,0.828634,0.0712015,154.965,0.152919,
2,1,0,1,0,50452.5,0.167322,0.166957,57.9834,26,0.00771604,10,0.00968073,-1.2367,0.846382,0.0697085,157.671,0.166957,
2,1,0,1,0,50452.5,0.181305,0.180906,60.1123,26,0.00854318,10,0.0108747,-1.22104,0.950742,0.0620568,145.493,0.180906,
2,1,0,1,0,50452.6,0.195338,0.194986,61.9603,26,0.00939846,10,0.0120814,-1.20789,1.30053,0.0453661,109.524,0.194986,
2,1,0,1,0,50452.6,0.209322,0.208985,63.1834,26,0.0102754,10,0.0132044,-1.1994,2.46443,0.0239406,58.8953,0.208985,
2,1,0,1,0,50452.6,0.223305,0.222959,63.5722,26,0.0111637,10,0.014174,-1.19673,-188.352,-0.000313244,-0.775656,0.222959,
2,1,0,1,0,50452.6,0.237338,0.236965,63.1145,26,0.0120516,10,0.0149559,-1.19987,-2.16613,-0.0272375,-66.9512,0.236965,
2,1,0,1,0,50452.6,0.251321,0.250981,61.7503,26,0.0129265,10,0.0154982,-1.20936,-1.10713,-0.0532907,-128.119,0.250981,
2,1,0,1,0,50452.6,0.265304,0.264965,59.5491,26,0.0137762,10,0.0157784,-1.22513,-0.76245,-0.0773821,-179.525,0.264965,
2,1,0,1,0,50452.6,0.279337,0.279016,56.723,26,0.0145906,10,0.0158266,-1.24624,-0.590618,-0.0998953,-220.875,0.279016,
2,1,0,1,0,50452.7,0.29332,0.292967,53.5084,26,0.0153622,10,0.0156762,-1.27158,-0.530661,-0.111182,-232.857,0.2929672,
2,1,0,1,0,50452.7,0.298714,0.298516,49.2235,26,0.0157801,10,0.014694,-1.30783,0.0589063,1.00159,1744.3,0.2985163,
2,1,0,1,0,50452.7,0.28473,0.284497,31.4584,26,0.0163304,10,0.00894981,-1.50226,0.0730727,0.807415,996.45,0.284497,
2,1,0,1,0,50452.7,0.270747,0.270481,19.7366,26,0.0166835,10,0.00533838,-1.70473,0.0620999,0.950083,726.561,0.270481,
2,1,0,1,0,50452.7,0.256714,0.25647,10.8077,26,0.0168936,10,0.00277185,-1.96627,0.0429836,1.37262,561.486,0.25647,
2,1,0,1,0,50452.7,0.242731,0.242419,3.81132,26,0.0169935,10,0.000923935,-2.41892,0.0131789,4.47685,447.322,0.242419,
2,0,0,1,0,50452.7,0.228748,0.228425,-1.79873,26,0.0170056,10,-0.000410874,-2.74503,-0.0287399,-2.0529,362.729,0.2284245,
2,0,0,1,0,50452.8,0.214715,0.214426,-6.4283,26,0.0169463,10,-0.00137839,-2.1919,-0.0460602,-1.28093,299.881,0.214426,
2,0,0,1,0,50452.8,0.200732,0.200413,-10.2811,26,0.0168282,10,-0.00206046,-1.98796,-0.0911748,-0.647109,253.737,0.200413,
2,0,0,1,0,50452.8,0.186735,0.186433,-13.59,26,0.0166604,10,-0.00253363,-1.86678,-0.139049,-0.424311,222.737,0.186433,
2,0,0,1,0,50452.8,0.172716,0.172377,-16.5188,26,0.0164488,10,-0.00284746,-1.78202,-0.190111,-0.310344,199.196,0.172377,
2,0,0,1,0,50452.8,0.158733,0.158446,-19.2599,26,0.016198,10,-0.00305165,-1.71535,-0.226729,-0.260222,195.219,0.158446,
2,0,0,1,0,50452.8,0.144719,0.14441,-22.1003,26,0.0159087,10,-0.0031915,-1.6556,-0.237344,-0.248584,214.47,0.14441,
2,0,0,1,0,50452.8,0.130717,0.130384,-25.3198,26,0.015577,10,-0.00330128,-1.59654,-0.22877,-0.257901,255.698,0.130384,
2,0,0,1,0,50452.9,0.116733,0.116416,-29.2918,26,0.0151952,10,-0.00341003,-1.53325,-0.217794,-0.270899,310.037,0.116416,
2,0,0,1,0,50452.9,0.102703,0.102415,-33.9412,26,0.014753,10,-0.0034761,-1.46927,-0.231534,-0.254822,336.434,0.102415,
2,0,0,1,0,50452.9,0.0887173,0.0884774,-38.5878,26,0.0142448,10,-0.00341415,-1.41355,-0.271953,-0.216949,325.892,0.0884774,
2,0,0,1,0,50452.9,0.0747341,0.0744238,-42.9518,26,0.0136728,10,-0.00319664,-1.36702,-0.339159,-0.173959,290.715,0.07442379,
2,0,0,1,0,50452.9,0.0607011,0.0605028,-46.7062,26,0.0130441,10,-0.00282585,-1.33063,-0.438199,-0.134642,244.763,0.0605028,
2,0,0,1,0,50452.9,0.046718,0.0464768,-49.7928,26,0.0123674,10,-0.00231421,-1.30283,-0.589118,-0.10015,194.163,0.04647677,
2,0,0,1,0,50452.9,0.0327349,0.0324699,-52.1913,26,0.0116525,10,-0.00169464,-1.2824,-0.788716,-0.0748051,152.119,0.0324699,
2,0,0,1,0,50452.9,0.0187018,0.0184046,-54.1585,26,0.0109077,10,-0.000996768,-1.26633,-1.03056,-0.0572506,120.712,0.0184046,
2,0,0,1,0,50453,0.00471873,0.00440197,-55.5224,26,0.0101392,10,-0.000244408,-1.25553,-1.56282,-0.0377522,81.7128,0.00440197,
2,0,0,1,0,50453,-0.00926438,-0.0095795,-56.4174,26,0.00935472,10,0.00054045,-1.24859,-2.9193,-0.0202103,44.4479,-0.0095795,
2,0,0,1,0,50453,-0.0232974,-0.0236818,-56.8726,26,0.00856128,10,0.00134685,-1.2451,-9.11047,-0.00647606,14.3463,-0.0236818,
2,0,0,1,0,50453,-0.0372805,-0.0376824,-56.8246,26,0.00776506,10,0.00214129,-1.24546,8.60593,0.00685574,-15.1884,-0.0376824,
2,0,0,1,0,50453,-0.0512637,-0.0516713,-56.4665,26,0.00697181,10,0.0029177,-1.24821,3.91404,0.0150739,-33.2026,-0.0516713,
2,0,0,1,0,50453,-0.0652967,-0.0657217,-55.9756,26,0.00618475,10,0.00367881,-1.252,3.35309,0.0175957,-38.4166,-0.0657217,
2,0,0,1,0,50453,-0.0792798,-0.0796533,-55.3819,26,0.0054053,10,0.00441136,-1.25663,3.17379,0.0185898,-40.1892,-0.0796533,
2,0,0,1,0,50453.1,-0.0932629,-0.0936496,-54.8582,26,0.00463377,10,0.00513745,-1.26076,3.89029,0.015166,-32.4826,-0.0936496,
2,0,0,1,0,50453.1,-0.107296,-0.107661,-54.4966,26,0.00386855,10,0.00586715,-1.26363,6.04197,0.00976503,-20.7713,-0.107661,
2,0,0,1,0,50453.1,-0.121279,-0.121627,-54.2561,26,0.00310755,10,0.00659903,-1.26555,10.7401,0.00549342,-11.6362,-0.121627,
2,0,0,1,0,50453.1,-0.135262,-0.135626,-54.1828,26,0.00234877,10,0.00734859,-1.26614,-72.1162,-0.000818124,1.73093,-0.135626,
2,0,0,1,0,50453.1,-0.149295,-0.149649,-54.3255,26,0.00158939,10,0.00812973,-1.265,-8.80974,-0.00669714,14.1995,-0.149649,
2,0,0,1,0,50453.1,-0.163278,-0.163632,-54.551,26,0.000827386,10,0.00892631,-1.2632,-6.50644,-0.00906794,19.3073,-0.163632,
2,0,0,1,0,50453.1,-0.177261,-0.177635,-54.8589,26,6.16313e-05,10,0.00974485,-1.26075,-5.34675,-0.0110347,23.6241,-0.177635,
2,0,0,1,0,50453.2,-0.191295,-0.191644,-55.2232,26,-0.00070889,10,0.0105832,-1.25788,-5.04367,-0.0116978,25.1999,-0.191644,
2,0,0,0,1,50453.2,-0.199984,-0.200551,-55.0847,26,-0.00122327,10,0.0110473,-1.25897,-0.0420053,-1.40458,2691.01,-0.200551,
2,0,0,1,1,50453.2,-0.186686,-0.187146,-36.8788,26,-0.00180409,10,0.00690171,-1.43322,-0.0871679,-0.676854,987.129,-0.1871457,
2,0,0,1,1,50453.2,-0.172667,-0.173073,-25.5943,26,-0.00223597,10,0.00442969,-1.59186,-0.0846246,-0.697197,696.395,-0.173073,
2,0,0,1,1,50453.2,-0.158684,-0.159149,-16.9214,26,-0.00253059,10,0.00269302,-1.77156,-0.0684249,-0.862259,563.183,-0.159149,
2,0,0,1,1,50453.2,-0.14467,-0.145141,-9.62358,26,-0.00271453,10,0.00139678,-2.01666,-0.0440737,-1.33867,483.329,-0.145141,
2,0,0,1,1,50453.2,-0.130668,-0.131142,-3.30118,26,-0.00280344,10,0.000432925,-2.48133,-0.00568567,-10.377,426.031,-0.131142,
2,1,0,1,1,50453.3,-0.116685,-0.117155,2.3435,26,-0.00280896,10,-0.000274552,-2.63014,0.0195554,3.01708,384.977,-0.1171546,
2,1,0,1,1,50453.3,-0.102654,-0.103111,7.52892,26,-0.00273907,10,-0.000776312,-2.12327,0.0459179,1.2849,354.605,-0.103111,
2,1,0,1,1,50453.3,-0.0886685,-0.0891779,12.2778,26,-0.00259953,10,-0.0010949,-1.91088,0.0846215,0.697222,327.395,-0.0891779,
2,1,0,1,1,50453.3,-0.0746854,-0.0751233,16.6926,26,-0.00239593,10,-0.001254,-1.77748,0.125489,0.470162,303.074,-0.07512325,
2,1,0,1,1,50453.3,-0.0606523,-0.0611015,20.8201,26,-0.00213279,10,-0.00127214,-1.68152,0.169734,0.347602,280.209,-0.0611015,
2,1,0,1,1,50453.3,-0.0466692,-0.047084,24.5555,26,-0.00181451,10,-0.00115617,-1.60985,0.21955,0.268731,256.39,-0.047084,
2,1,0,1,1,50453.3,-0.0326861,-0.0331216,28.014,26,-0.0014459,10,-0.000927869,-1.55262,0.271396,0.217395,236.848,-0.03312159,
2,1,0,1,1,50453.3,-0.018653,-0.0190998,31.202,26,-0.0010309,10,-0.000595952,-1.50582,0.331436,0.178013,216.065,-0.01909983,
2,1,0,1,1,50453.4,-0.00466992,-0.00509397,34.043,26,-0.000573504,10,-0.000173414,-1.46797, , , ,-0.00509397,
2,1,0,0,1,50453.4,-0.000175352,-0.000573459,34.8983,26,-0.00041837,10,-2.00127e-05,-1.4572, , , ,-0.000573459,