File: Figure_codes/Fig_3-5/rawdata_trumpetplot_data/after 10th/20221101_1-115_003_TrumpetPlot_ParaChange_from10_every3_14_CV_C01_11.csv
mode,ox/red,error,control changes,counter inc.,time/s,control/V,Ewe/V,<I>/mA,cycle number,(Q-Qo)/C,I Range,P/W,log(|I|),Tafel slope mV/dec,alpha_eff,dI/d(E-IR),E-IR/V,
2,1,0,1,0,22870.5,2.44065e-05,-0.000229887,40.669,12,0.0000000E+000,10,-9.34927e-06,-1.39074, , , ,-0.000229887,
2,1,0,1,0,22870.6,0.0133084,0.0129298,44.6768,12,0.00056403,10,0.00057766,-1.34992,0.457514,0.128958,223.948,0.0129298,
2,1,0,1,0,22870.6,0.0273414,0.026995,47.3406,12,0.00120925,10,0.00127796,-1.32477,0.651345,0.0905818,166.875,0.026995,
2,1,0,1,0,22870.6,0.0413245,0.0409754,49.3927,12,0.00188697,10,0.00202389,-1.30634,0.842486,0.0700309,134.823,0.0409754,
2,1,0,1,0,22870.6,0.0553076,0.0549314,51.1452,12,0.0025911,10,0.00280948,-1.2912,0.943234,0.0625508,124.893,0.0549314,
2,1,0,1,0,22870.6,0.0693407,0.0689881,52.8758,12,0.0033194,10,0.0036478,-1.27674,0.989926,0.0596004,122.888,0.0689881,
2,1,0,1,0,22870.6,0.0833238,0.0829017,54.5428,12,0.00407151,10,0.00452169,-1.26326,0.978655,0.0602868,128.476,0.0829017,
2,1,0,1,0,22870.6,0.0973069,0.0969277,56.5118,12,0.00484862,10,0.00547756,-1.24786,0.865976,0.0681313,150.346,0.09692774,
2,1,0,1,0,22870.7,0.11134,0.110995,58.681,12,0.00565512,10,0.0065133,-1.2315,0.846393,0.0697076,159.675,0.110995,
2,1,0,1,0,22870.7,0.125323,0.125008,61.0023,12,0.00649287,10,0.00762579,-1.21465,0.804066,0.0733771,174.769,0.125008,
2,1,0,1,0,22870.7,0.139306,0.138921,63.5676,12,0.0073648,10,0.00883086,-1.19676,0.739859,0.0797449,198.09,0.1389209,
2,1,0,1,0,22870.7,0.153339,0.152973,66.5091,12,0.00827546,10,0.0101741,-1.17712,0.711634,0.0829078,215.286,0.1529734,
2,1,0,1,0,22870.7,0.167322,0.166958,69.5978,12,0.00922852,10,0.0116199,-1.1574,0.734903,0.0802827,217.928,0.166958,
2,1,0,1,0,22870.7,0.181305,0.180984,72.5085,12,0.010224,10,0.0131229,-1.13961,0.858486,0.0687256,194.292,0.180984,
2,1,0,1,0,22870.7,0.195338,0.194994,74.8867,12,0.0112571,10,0.0146025,-1.1256,1.33724,0.0441207,128.625,0.194994,
2,1,0,1,0,22870.8,0.209322,0.208997,76.0516,12,0.0123155,10,0.0158945,-1.11889,8.57234,0.0068826,20.3407,0.208997,
2,1,0,1,0,22870.8,0.223305,0.222948,75.3577,12,0.0133776,10,0.0168008,-1.12287,-1.44672,-0.0407818,-119.432,0.222948,
2,1,0,1,0,22870.8,0.237338,0.23706,72.6526,12,0.0144159,10,0.0172231,-1.13875,-0.629579,-0.0937134,-264.621,0.23706,
2,1,0,1,0,22870.8,0.251321,0.251011,68.1435,12,0.0154027,10,0.0171048,-1.16658,-0.428822,-0.137586,-364.73,0.251011,
2,1,0,1,0,22870.8,0.265304,0.265,62.5843,12,0.0163179,10,0.0165849,-1.20353,-0.356198,-0.165638,-404.21,0.265,
2,1,0,1,0,22870.8,0.279337,0.279074,56.9295,12,0.0171538,10,0.0158875,-1.24466,-0.335711,-0.175746,-390.804,0.279074,
2,1,0,1,0,22870.8,0.29332,0.293002,51.7877,12,0.0179134,10,0.0151739,-1.28577,-0.348437,-0.169328,-344.368,0.293002,
2,1,0,1,0,22870.8,0.298714,0.298632,46.0854,12,0.0183137,10,0.0137626,-1.33644,0.0390273,1.51176,2335,0.298632,
2,1,0,1,0,22870.9,0.28473,0.284521,22.6809,12,0.0187731,10,0.0064532,-1.64434,0.0425304,1.38724,1226.32,0.284521,
2,1,0,1,0,22870.9,0.270747,0.270535,9.05243,12,0.0189873,10,0.002449,-2.04323,0.023528,2.50765,795.421,0.270535,
2,1,0,1,0,22870.9,0.256714,0.256464,-0.176601,12,0.0190444,10,-4.52918e-05,-3.75301,0.330944,0.178278,550.408,0.256464,
2,0,0,1,0,22870.9,0.242731,0.242435,-6.71741,12,0.0189931,10,-0.00162853,-2.1728,-0.0337186,-1.74978,400.251,0.242435,
2,0,0,1,0,22870.9,0.228748,0.228441,-11.5566,12,0.0188632,10,-0.00264,-1.93717,-0.0846161,-0.697267,305.283,0.228441,
2,0,0,1,0,22870.9,0.214715,0.214442,-15.3207,12,0.0186733,10,-0.00328541,-1.81472,-0.146241,-0.403444,238.342,0.214442,
2,0,0,1,0,22870.9,0.200732,0.2004,-18.3479,12,0.0184366,10,-0.00367693,-1.73641,-0.212527,-0.277611,197.508,0.2004,
2,0,0,1,0,22871,0.186735,0.18645,-20.9549,12,0.0181611,10,-0.00390705,-1.67871,-0.269786,-0.218692,178.248,0.18645,
2,0,0,1,0,22871,0.172716,0.172415,-23.3561,12,0.0178504,10,-0.00402695,-1.6316,-0.315916,-0.186758,170.162,0.172415,
2,0,0,1,0,22871,0.158733,0.158463,-25.8094,12,0.0175062,10,-0.00408984,-1.58822,-0.316994,-0.186123,187.865,0.158463,
2,0,0,1,0,22871,0.144719,0.144465,-28.7848,12,0.0171248,10,-0.00415838,-1.54084,-0.275674,-0.214021,241.161,0.144465,
2,0,0,1,0,22871,0.130717,0.130416,-32.6652,12,0.0166955,10,-0.00426009,-1.48591,-0.23123,-0.255157,326.924,0.130416,
2,0,0,1,0,22871,0.116733,0.116438,-37.8783,12,0.0162026,10,-0.00441048,-1.42161,-0.212511,-0.277633,411.031,0.116438,
2,0,0,1,0,22871,0.102703,0.10247,-44.0602,12,0.0156294,10,-0.00451487,-1.35595,-0.226065,-0.260987,447.353,0.10247,
2,0,0,1,0,22871.1,0.0887173,0.0884943,-50.1769,12,0.0149687,10,-0.00444037,-1.2995,-0.274353,-0.215052,419.636,0.0884943,
2,0,0,1,0,22871.1,0.0747341,0.0745277,-55.5457,12,0.0142266,10,-0.0041397,-1.25535,-0.357635,-0.164973,356.966,0.0745277,
2,0,0,1,0,22871.1,0.0607011,0.0605049,-60.2143,12,0.0134147,10,-0.00364326,-1.2203,-0.489693,-0.120484,281.684,0.0605049,
2,0,0,1,0,22871.1,0.046718,0.0465171,-63.4762,12,0.0125474,10,-0.00295272,-1.19739,-0.737038,-0.0800502,197.788,0.0465171,
2,0,0,1,0,22871.1,0.0327349,0.0324402,-65.7291,12,0.0116414,10,-0.00213226,-1.18224,-1.22635,-0.0481101,123.128,0.0324402,
2,0,0,1,0,22871.1,0.0187018,0.0183919,-67.0893,12,0.0107109,10,-0.0012339,-1.17335,-2.27153,-0.0259737,67.8434,0.0183919,
2,0,0,1,0,22871.1,0.00471873,0.00442954,-67.6705,12,0.00976699,10,-0.000299749,-1.1696,-6.29737,-0.00936899,24.7163,0.00442954,
2,0,0,1,0,22871.2,-0.00926438,-0.0095954,-67.7341,12,0.00881823,10,0.000649936,-1.16919,9.39871,0.00627746,-16.5762,-0.0095954,
2,0,0,1,0,22871.2,-0.0232974,-0.0236818,-67.2864,12,0.00787265,10,0.00159347,-1.17207,2.86286,0.0206088,-54.0104,-0.0236818,
2,0,0,1,0,22871.2,-0.0372805,-0.0376241,-66.2037,12,0.00693793,10,0.00249085,-1.17912,1.63159,0.036161,-93.3113,-0.0376241,
2,0,0,1,0,22871.2,-0.0512636,-0.0516151,-64.7168,12,0.00602143,10,0.00334036,-1.18898,1.33162,0.0443071,-111.873,-0.0516151,
2,0,0,1,0,22871.2,-0.0652967,-0.0656612,-63.1857,12,0.00512648,10,0.00414885,-1.19938,1.37105,0.0430329,-106.117,-0.0656612,
2,0,0,1,0,22871.2,-0.0792798,-0.0796257,-61.7735,12,0.00425227,10,0.00491876,-1.2092,1.57987,0.0373449,-90.1013,-0.0796257,
2,0,0,1,0,22871.2,-0.0932629,-0.0935913,-60.7134,12,0.00339551,10,0.00568224,-1.21672,2.31668,0.0254675,-60.4126,-0.09359131,
2,0,0,1,0,22871.2,-0.107296,-0.10768,-60.1228,12,0.00255029,10,0.00647401,-1.22096,4.88261,0.0120837,-28.3715,-0.10768,
2,0,0,1,0,22871.3,-0.121279,-0.121687,-59.8673,12,0.00171081,10,0.00728506,-1.22281,22.5227,0.00261958,-6.12629,-0.121687,
2,0,0,1,0,22871.3,-0.135262,-0.13563,-59.9549,12,0.000872432,10,0.00813169,-1.22218,-8.15025,-0.00723904,16.9515,-0.13563,
2,0,0,1,0,22871.3,-0.149295,-0.149644,-60.3672,12,3.04796e-05,10,0.00903361,-1.2192,-3.83443,-0.0153869,36.2523,-0.149644,
2,0,0,1,0,22871.3,-0.163278,-0.163624,-60.8994,12,-0.000818298,10,0.00996458,-1.21539,-3.24247,-0.018196,43.2591,-0.163624,
2,0,0,1,0,22871.3,-0.177261,-0.177565,-61.5553,12,-0.00167537,10,0.0109301,-1.21073,-2.87946,-0.02049,49.2195,-0.177565,
2,0,0,1,0,22871.3,-0.191295,-0.19159,-62.3136,12,-0.00254229,10,0.0119387,-1.20542,-2.58259,-0.0228453,55.5305,-0.19159,
2,0,0,0,1,22871.3,-0.199984,-0.200551,-62.4105,12,-0.00312391,10,0.0125165,-1.20474,-0.0362736,-1.62653,3464.84,-0.200551,
2,0,0,1,1,22871.4,-0.186686,-0.187147,-38.7377,12,-0.00376024,10,0.00724963,-1.41187,-0.0690479,-0.85448,1306.92,-0.187147,
2,0,0,1,1,22871.4,-0.172667,-0.173084,-23.8607,12,-0.00419101,10,0.0041299,-1.62232,-0.0598972,-0.985022,910.566,-0.173084,
2,0,0,1,1,22871.4,-0.158684,-0.159144,-12.6219,12,-0.00444243,10,0.00200869,-1.89888,-0.0382962,-1.54062,724.218,-0.159144,
2,0,0,1,1,22871.4,-0.14467,-0.145106,-3.38301,12,-0.00455191,10,0.000490895,-2.4707,-0.0190979,-3.08935,607.728,-0.145106,
2,1,0,1,1,22871.4,-0.130668,-0.131113,4.43601,12,-0.00454234,10,-0.000581617,-2.35301,0.00851814,6.92639,521.244,-0.131113,
2,1,0,1,1,22871.4,-0.116685,-0.117199,11.2537,12,-0.00443098,10,-0.00131892,-1.94871,0.0535501,1.10177,460.972,-0.117199,
2,1,0,1,1,22871.4,-0.102654,-0.103111,17.4162,12,-0.00422918,10,-0.00179579,-1.75905,0.0950424,0.620775,413.639,-0.103111,
2,1,0,1,1,22871.5,-0.0886685,-0.0891079,22.8693,12,-0.00394583,10,-0.00203784,-1.64075,0.141307,0.417531,369.314,-0.0891079,
2,1,0,1,1,22871.5,-0.0746854,-0.0750883,27.7871,12,-0.00359012,10,-0.00208648,-1.55616,0.19023,0.310151,334.287,-0.0750883,
2,1,0,1,1,22871.5,-0.0606523,-0.0610506,32.2903,12,-0.00316903,10,-0.00197134,-1.49093,0.244074,0.24173,302.86,-0.0610506,
2,1,0,1,1,22871.5,-0.0466692,-0.0470755,36.2392,12,-0.00268854,10,-0.00170598,-1.44082,0.311128,0.189633,267.371,-0.0470755,
2,1,0,1,1,22871.5,-0.0326861,-0.0330558,39.7716,12,-0.00215568,10,-0.00131469,-1.40043,0.385692,0.152972,236.791,-0.0330558,
2,1,0,1,1,22871.5,-0.018653,-0.0190214,42.9217,12,-0.00157634,10,-0.000816428,-1.36732,0.472893,0.124764,208.367,-0.0190214,
2,1,0,1,1,22871.5,-0.00466992,-0.00508443,45.5691,12,-0.000956155,10,-0.000231693,-1.34133, , , ,-0.00508443,
2,1,0,0,1,22871.5,-0.000175352,-0.000497109,46.3316,12,-0.000749356,10,-2.30319e-05,-1.33412, , , ,-0.000497109,