File: Figure_codes/Fig_3-5/rawdata_trumpetplot_data/after 10th/20221101_1-115_003_TrumpetPlot_ParaChange_from10_every3_05_CV_C01_5.csv
mode,ox/red,error,control changes,counter inc.,time/s,control/V,Ewe/V,<I>/mA,cycle number,(Q-Qo)/C,I Range,P/W,log(|I|),Tafel slope mV/dec,alpha_eff,dI/d(E-IR),E-IR/V,
2,0,0,1,0,10970.7,2.44065e-05,-0.000554371,-0.757687,6,0.0000000E+000,10,4.2004e-07,-3.12051, , , ,-0.000554371,
2,1,0,1,0,10971,0.00729063,0.00698723,0.768496,6,0.00018802,10,5.36966e-06,-3.11436,0.0667794,0.883506,26.1018,0.00698723,
2,1,0,1,0,10971.4,0.0147802,0.0144782,0.905513,6,0.000509938,10,1.31102e-05,-3.04311,0.134415,0.438941,15.5008,0.01447817,
2,1,0,1,0,10971.8,0.0222725,0.0219679,1.00729,6,0.000875536,10,2.2128e-05,-2.99685,0.168826,0.349472,13.7416,0.0219679,
2,1,0,1,0,10972.2,0.0297644,0.0294651,1.1074,6,0.00127845,10,3.26297e-05,-2.9557,0.193934,0.304227,13.1368,0.0294651,
2,1,0,1,0,10972.5,0.0372544,0.0369162,1.20832,6,0.00171878,10,4.46068e-05,-2.91782,0.210735,0.279973,13.2108,0.0369162,
2,1,0,1,0,10972.9,0.0447449,0.0444415,1.30592,6,0.00219663,10,5.80371e-05,-2.88408,0.229214,0.257401,13.1223,0.04444151,
2,1,0,1,0,10973.3,0.0522363,0.0518783,1.39742,6,0.00271032,10,7.24956e-05,-2.85467,0.254161,0.232136,12.6547,0.0518783,
2,1,0,1,0,10973.7,0.0597291,0.0594243,1.48582,6,0.00325811,10,8.82939e-05,-2.82803,0.303686,0.194279,11.2654,0.0594243,
2,1,0,1,0,10974,0.0672182,0.0669343,1.57133,6,0.00383688,10,0.000105176,-2.80373,0.342737,0.172144,10.5157,0.0669343,
2,1,0,1,0,10974.4,0.0747092,0.0743538,1.64024,6,0.00444402,10,0.000121958,-2.78509,0.475882,0.12398,7.93173,0.0743538,
2,1,0,1,0,10974.8,0.0822001,0.081872,1.69965,6,0.00507672,10,0.000139154,-2.76964,0.472916,0.124758,8.28933,0.081872,
2,1,0,1,0,10975.2,0.0896911,0.0893802,1.77625,6,0.00573443,10,0.000158762,-2.7505,0.335334,0.175944,12.237,0.0893802,
2,1,0,1,0,10975.5,0.097182,0.0968494,1.89516,6,0.00642776,10,0.000183545,-2.72235,0.212563,0.277565,20.5253,0.0968494,
2,1,0,1,0,10975.9,0.104673,0.104358,2.0653,6,0.00717417,10,0.000215532,-2.68502,0.194528,0.303298,24.3956,0.104358,
2,1,0,1,0,10976.3,0.112164,0.11186,2.23462,6,0.00798705,10,0.000249964,-2.6508,0.253642,0.232611,20.2593,0.11186,
2,1,0,1,0,10976.7,0.119655,0.119354,2.36671,6,0.00885685,10,0.000282477,-2.62586,0.434358,0.135833,12.5219,0.119354,
2,1,0,1,0,10977,0.127146,0.126802,2.4626,6,0.0097683,10,0.000312262,-2.60861,0.380547,0.15504,14.9297,0.126802,
2,1,0,1,0,10977.4,0.134637,0.134255,2.551,6,0.010717,10,0.000342484,-2.59329,1.28133,0.0460461,4.58186,0.134255,
2,1,0,1,0,10977.8,0.142128,0.141778,2.46723,6,0.0116732,10,0.000349798,-2.60779,-0.201174,-0.293279,-28.1357,0.141778,
2,1,0,1,0,10978.1,0.149619,0.149324,2.09376,6,0.0125426,10,0.000312649,-2.67907,-0.0778957,-0.757423,-61.7744,0.149324,
2,1,0,1,0,10978.5,0.157108,0.156791,1.65659,6,0.0132484,10,0.000259738,-2.78079,-0.0747503,-0.789295,-51.1305,0.156791,
2,1,0,1,0,10978.9,0.164601,0.164257,1.37564,6,0.0138177,10,0.000225959,-2.86149,-0.109007,-0.541247,-29.1524,0.164257,
2,1,0,1,0,10979.3,0.172092,0.171732,1.21376,6,0.0143079,10,0.000208441,-2.91587,-0.17367,-0.339724,-16.1894,0.171732,
2,1,0,1,0,10979.6,0.179582,0.179236,1.12792,6,0.0147527,10,0.000202163,-2.94772,-0.280934,-0.210014,-9.27077,0.179236,
2,1,0,1,0,10980,0.187073,0.186795,1.07689,6,0.0151713,10,0.000201159,-2.96783,-0.514392,-0.114699,-4.80745,0.186795,
2,1,0,1,0,10980.4,0.194564,0.19424,1.04232,6,0.0155736,10,0.00020246,-2.982,-0.630589,-0.0935634,-3.79854,0.19424,
2,1,0,1,0,10980.8,0.202057,0.201752,1.01556,6,0.0159647,10,0.000204891,-2.9933,-0.663451,-0.0889289,-3.50757,0.201752,
2,1,0,1,0,10981.1,0.209546,0.20926,0.992561,6,0.0163474,10,0.000207703,-3.00324,-0.75354,-0.0782971,-3.04459,0.20926,
2,1,0,1,0,10981.5,0.217037,0.216684,0.975139,6,0.0167229,10,0.000211297,-3.01093,-1.45861,-0.0404496,-1.54442,0.216684,
2,1,0,1,0,10981.9,0.224528,0.224248,0.963145,6,0.017093,10,0.000215983,-3.01631,-1.03954,-0.0567561,-2.13028,0.224248,
2,1,0,1,0,10982.3,0.232019,0.231691,0.953236,6,0.0174578,10,0.000220856,-3.0208,-1.81062,-0.0325855,-1.20833,0.231691,
2,1,0,1,0,10982.6,0.23951,0.239228,0.936999,6,0.0178186,10,0.000224156,-3.02826,-1.40182,-0.042088,-1.54299,0.239228,
2,1,0,1,0,10983,0.247001,0.246698,0.933865,6,0.0181754,10,0.000230382,-3.02972,-1.48235,-0.0398017,-1.44462,0.246698,
2,1,0,1,0,10983.4,0.254492,0.254223,0.922628,6,0.0185288,10,0.000234553,-3.03497,-1.51019,-0.0390679,-1.40392,0.254223,
2,1,0,1,0,10983.8,0.261983,0.261696,0.913659,6,0.0188787,10,0.0002391,-3.03922,-1.91992,-0.0307304,-1.09236,0.261696,
2,1,0,1,0,10984.1,0.269474,0.269204,0.902597,6,0.0192253,10,0.000242983,-3.04451,7.9436,0.00742737,0.261488,0.269204,
2,1,0,1,0,10984.5,0.276965,0.276726,0.893901,6,0.0195688,10,0.000247365,-3.04871,-2.24798,-0.0262458,-0.915605,0.276726,
2,1,0,1,0,10984.9,0.284456,0.28414,0.885265,6,0.0199089,10,0.000251539,-3.05293,-1.1535,-0.0511489,-1.76567,0.28414,
2,1,0,1,0,10985.3,0.291947,0.291616,0.87494,6,0.0202454,10,0.000255147,-3.05802,-1.00867,-0.058493,-1.99911,0.291616,
2,1,0,1,0,10985.6,0.299436,0.299124,0.865211,6,0.0205785,10,0.000258806,-3.06288,-0.002152,-27.4164,-415.702,0.299124,
2,0,0,1,0,10986,0.293745,0.293478,-0.226595,6,0.0205758,10,-6.65008e-05,-3.64475,-0.0276481,-2.13396,18.0064,0.293478,
2,0,0,1,0,10986.4,0.286254,0.285923,-0.319347,6,0.0204648,10,-9.13086e-05,-3.49574,-0.0753482,-0.783031,9.80619,0.285923,
2,0,0,1,0,10986.7,0.278763,0.278419,-0.38387,6,0.0203249,10,-0.000106876,-3.41582,-0.129976,-0.453929,6.81877,0.278419,
2,0,0,1,0,10987.1,0.271272,0.270959,-0.431785,6,0.0201653,10,-0.000116996,-3.36473,-0.181967,-0.324234,5.45164,0.270959,
2,0,0,1,0,10987.5,0.263781,0.263462,-0.468331,6,0.0199895,10,-0.000123387,-3.32945,-0.203169,-0.290398,5.33159,0.263462,
2,0,0,1,0,10987.9,0.25629,0.256014,-0.505362,6,0.0198,10,-0.00012938,-3.2964,-0.295838,-0.199433,3.90386,0.256014,
2,0,0,1,0,10988.2,0.248799,0.248444,-0.53519,6,0.0195985,10,-0.000132965,-3.27149,-0.313471,-0.188215,3.92712,0.248444,
2,0,0,1,0,10988.6,0.241308,0.241025,-0.561883,6,0.0193861,10,-0.000135428,-3.25035,-0.407469,-0.144796,3.18716,0.241025,
2,0,0,1,0,10989,0.233817,0.233523,-0.58994,6,0.0191632,10,-0.000137764,-3.22919,-0.340031,-0.173514,3.99136,0.233523,
2,0,0,1,0,10989.4,0.226326,0.226008,-0.616053,6,0.0189301,10,-0.000139233,-3.21038,-0.395135,-0.149316,3.59023,0.226008,
2,0,0,1,0,10989.7,0.218835,0.218522,-0.643862,6,0.0186872,10,-0.000140698,-3.19121,-0.359506,-0.164114,4.12349,0.218522,
2,0,0,1,0,10990.1,0.211344,0.211065,-0.670605,6,0.0184347,10,-0.000141541,-3.17353,-0.53308,-0.110678,2.89271,0.211065,
2,0,0,1,0,10990.5,0.203855,0.203504,-0.695193,6,0.0181716,10,-0.000141474,-3.15789,-0.423975,-0.139159,3.79881,0.203504,
2,0,0,1,0,10990.9,0.196362,0.196072,-0.729231,6,0.0178975,10,-0.000142982,-3.13713,-0.367618,-0.160493,4.55803,0.196072,
2,0,0,1,0,10991.2,0.188871,0.188534,-0.762906,6,0.0176108,10,-0.000143834,-3.11753,-0.356959,-0.165285,4.93207,0.188534,
2,0,0,1,0,10991.6,0.18138,0.181062,-0.804914,6,0.01731,10,-0.00014574,-3.09425,-0.244523,-0.241286,7.61278,0.1810623,
2,0,0,1,0,10992,0.173891,0.173553,-0.862084,6,0.0169911,10,-0.000149617,-3.06445,-0.225509,-0.261631,8.79961,0.173553,
2,0,0,1,0,10992.3,0.166398,0.16608,-0.936143,6,0.0166481,10,-0.000155475,-3.02866,-0.201493,-0.292814,10.7471,0.16608,
2,0,0,1,0,10992.7,0.158906,0.15858,-1.04935,6,0.0162704,10,-0.000166406,-2.97908,-0.131422,-0.448937,18.4685,0.15858,
2,0,0,1,0,10993.1,0.151417,0.151071,-1.23558,6,0.0158381,10,-0.000186661,-2.90813,-0.0924587,-0.638123,30.8282,0.151071,
2,0,0,1,0,10993.5,0.143926,0.143601,-1.5335,6,0.0153165,10,-0.000220213,-2.81432,-0.0686109,-0.859922,51.5291,0.143601,
2,0,0,1,0,10993.8,0.136435,0.136127,-1.94722,6,0.014659,10,-0.000265069,-2.71059,-0.077634,-0.759977,57.5807,0.136127,
2,0,0,1,0,10994.2,0.128942,0.128635,-2.33049,6,0.0138478,10,-0.000299783,-2.63255,-0.129086,-0.457059,41.374,0.128635,
2,0,0,1,0,10994.6,0.121453,0.121174,-2.55271,6,0.0129215,10,-0.000309322,-2.593,-0.376058,-0.15689,15.5944,0.1211739,
2,0,0,1,0,10995,0.113962,0.113638,-2.60051,6,0.0119436,10,-0.000295518,-2.58494,2.02882,0.0290809,-2.9526,0.113638,
2,0,0,1,0,10995.3,0.106471,0.10614,-2.54198,6,0.0109694,10,-0.000269807,-2.59483,0.414035,0.1425,-14.1538,0.10614,
2,0,0,1,0,10995.7,0.0989799,0.0986727,-2.41664,6,0.0100322,10,-0.000238456,-2.61679,0.33758,0.174773,-16.4818,0.0986727,
2,0,0,1,0,10996.1,0.0914889,0.0911581,-2.28196,6,0.00914633,10,-0.000208019,-2.64169,0.322638,0.182868,-16.2741,0.0911581,
2,0,0,1,0,10996.5,0.083998,0.0836175,-2.16687,6,0.00830743,10,-0.000181188,-2.66417,0.346565,0.170242,-14.4021,0.0836175,
2,0,0,1,0,10996.8,0.076507,0.0761807,-2.08922,6,0.0075042,10,-0.000159158,-2.68001,0.483059,0.122138,-9.94588,0.0761807,
2,0,0,1,0,10997.2,0.0690161,0.068687,-2.016,6,0.00672875,10,-0.000138473,-2.69551,0.556143,0.106088,-8.36321,0.068687,
2,0,0,1,0,10997.6,0.0615251,0.061241,-1.9539,6,0.00597726,10,-0.000119659,-2.7091,0.575478,0.102523,-7.82583,0.06124099,
2,0,0,1,0,10998,0.0540342,0.0537108,-1.89141,6,0.00525043,10,-0.000101589,-2.72322,0.577722,0.102125,-7.52259,0.0537108,
2,0,0,1,0,10998.3,0.0465432,0.0462331,-1.81687,6,0.00454872,10,-8.39996e-05,-2.74068,0.454175,0.129906,-9.22868,0.0462331,
2,0,0,1,0,10998.7,0.0390523,0.0386995,-1.74499,6,0.00387502,10,-6.75303e-05,-2.75821,0.345166,0.170932,-11.6059,0.0386995,
2,0,0,1,0,10999.1,0.0315626,0.031244,-1.66497,6,0.00323061,10,-5.20203e-05,-2.77859,0.353393,0.166953,-10.8283,0.031244,
2,0,0,1,0,10999.5,0.0240704,0.0237703,-1.58655,6,0.00261469,10,-3.77128e-05,-2.79955,0.37791,0.156122,-9.70309,0.0237703,
2,0,0,1,0,10999.8,0.0165785,0.0162477,-1.53165,6,0.0020238,10,-2.48858e-05,-2.81484,0.577673,0.102134,-6.11293,0.0162477,
2,0,0,1,0,11000.2,0.00908846,0.00877401,-1.49083,6,0.00145141,10,-1.30806e-05,-2.82657,1.18244,0.0498966,-2.90366,0.00877401,
2,0,0,1,0,11000.6,0.0015984,0.00121709,-1.49568,6,0.000888671,10,-1.82037e-06,-2.82516, , , ,0.00121709,
2,0,0,1,0,11000.7,0.000199195,-0.000186171,-1.47706,6,0.000783394,10,2.74985e-07,-2.8306, , , ,-0.000186171,