File: Figure_codes/Fig_3-5/rawdata_trumpetplot_data/after 10th/20221101_1-115_003_TrumpetPlot_ParaChange_from10_every3_08_CV_C01_27.csv
mode,ox/red,error,control changes,counter inc.,time/s,control/V,Ewe/V,<I>/mA,cycle number,(Q-Qo)/C,I Range,P/W,log(|I|),Tafel slope mV/dec,alpha_eff,dI/d(E-IR),E-IR/V,
2,0,0,0,0,54368.5,2.44065e-05,-0.000382585,-3.97219,28,0.0000000E+000,10,1.5197e-06,-2.40097, , , ,-0.000382585,
2,1,0,1,0,54368.6,0.0072942,0.00694899,0.63424,28,-9.13739e-05,10,4.40733e-06,-3.19775,0.0025639,23.0118,294.996,0.00694899,
2,1,0,1,0,54368.7,0.0147816,0.0143954,2.03076,28,4.40323e-05,10,2.92336e-05,-2.69234,0.0369565,1.59647,124.582,0.0143954,
2,1,0,1,0,54368.8,0.0222707,0.0219417,2.70437,28,0.000270079,10,5.93386e-05,-2.56793,0.0853279,0.69145,72.8492,0.0219417,
2,1,0,1,0,54368.9,0.0297581,0.029425,3.15063,28,0.000546228,10,9.27073e-05,-2.5016,0.143828,0.410211,50.2528,0.029425,
2,1,0,1,0,54369,0.0372544,0.0369209,3.50525,28,0.000859034,10,0.000129417,-2.45528,0.175356,0.336458,45.8938,0.0369209,
2,1,0,1,0,54369.1,0.0447507,0.044444,3.81267,28,0.0012032,10,0.00016945,-2.41877,0.204197,0.288937,43.1001,0.04444398,
2,1,0,1,0,54369.2,0.0522381,0.0518931,4.12177,28,0.00157632,10,0.000213891,-2.38492,0.249174,0.236782,38.0917,0.0518931,
2,1,0,1,0,54369.3,0.0597273,0.0593819,4.4158,28,0.0019772,10,0.000262218,-2.35499,0.268995,0.219335,37.7594,0.0593819,
2,1,0,1,0,54369.4,0.0672147,0.066845,4.68497,28,0.00240416,10,0.000313167,-2.32929,0.300321,0.196457,35.8649,0.066845,
2,1,0,1,0,54369.5,0.0747038,0.0743541,4.92745,28,0.00285538,10,0.000366377,-2.30738,0.404592,0.145826,28.0511,0.0743541,
2,1,0,1,0,54369.6,0.0822055,0.081866,5.14547,28,0.0033292,10,0.000421239,-2.28858,0.460813,0.128035,25.7059,0.081866,
2,1,0,1,0,54369.7,0.0896946,0.089338,5.33322,28,0.00382088,10,0.000476459,-2.27301,0.455592,0.129502,26.9809,0.089338,
2,1,0,1,0,54369.8,0.097182,0.0969334,5.54596,28,0.00433115,10,0.000537589,-2.25602,0.392056,0.150489,32.5987,0.0969334,
2,1,0,1,0,54369.8,0.104671,0.104312,5.85995,28,0.00486472,10,0.000611265,-2.23211,0.279948,0.210753,48.1168,0.104312,
2,1,0,1,0,54369.9,0.112159,0.111793,6.2555,28,0.00543164,10,0.000699321,-2.20374,0.245387,0.240437,58.6638,0.1117929,
2,1,0,1,0,54370,0.119655,0.11931,6.69653,28,0.00603942,10,0.000798964,-2.17415,0.280998,0.209966,54.8377,0.11931,
2,1,0,1,0,54370.1,0.127149,0.126761,7.05741,28,0.00668595,10,0.000894605,-2.15135,0.41744,0.141338,38.9266,0.126761,
2,1,0,1,0,54370.2,0.134639,0.134268,7.30494,28,0.0073602,10,0.000980822,-2.13638,0.636173,0.0927421,26.4301,0.134268,
2,1,0,1,0,54370.3,0.142126,0.141801,7.42117,28,0.00805169,10,0.00105233,-2.12953,2.45615,0.0240213,6.95008,0.141801,
2,1,0,1,0,54370.4,0.149615,0.149262,7.285,28,0.0087441,10,0.00108738,-2.13757,-0.335112,-0.17606,-49.9092,0.149262,
2,1,0,1,0,54370.5,0.157103,0.156807,6.6724,28,0.00940173,10,0.00104628,-2.17572,-0.141084,-0.418189,-108.531,0.1568069,
2,1,0,1,0,54370.6,0.164606,0.164206,5.72157,28,0.00998498,10,0.000939514,-2.24248,-0.10659,-0.553524,-123.777,0.164206,
2,1,0,1,0,54370.7,0.172095,0.171759,4.88659,28,0.0104812,10,0.000839316,-2.31099,-0.115932,-0.508921,-97.3269,0.171759,
2,1,0,1,0,54370.8,0.179582,0.179254,4.30665,28,0.0109107,10,0.000771985,-2.36586,-0.156212,-0.377692,-63.5728,0.179254,
2,1,0,1,0,54370.9,0.18707,0.186734,3.90771,28,0.0112952,10,0.000729704,-2.40808,-0.234437,-0.251667,-38.5092,0.186734,
2,1,0,1,0,54371,0.194559,0.194209,3.65208,28,0.0116497,10,0.000709265,-2.43746,-0.277736,-0.212432,-30.3175,0.194209,
2,1,0,1,0,54371.1,0.202062,0.201732,3.48099,28,0.0119845,10,0.000702227,-2.4583,-0.396882,-0.148659,-20.1357,0.201732,
2,1,0,1,0,54371.2,0.20955,0.209204,3.35104,28,0.0123047,10,0.000701051,-2.47482,-0.539124,-0.109437,-14.3213,0.209204,
2,1,0,1,0,54371.3,0.217039,0.216737,3.2546,28,0.0126149,10,0.000705394,-2.4875,-0.697017,-0.0846464,-10.7761,0.216737,
2,1,0,1,0,54371.3,0.224526,0.224212,3.19179,28,0.0129178,10,0.000715638,-2.49597,-0.825177,-0.0714998,-8.91426,0.224212,
2,1,0,1,0,54371.4,0.232016,0.231682,3.13757,28,0.0132152,10,0.000726918,-2.50341,-1.6232,-0.036348,-4.45703,0.231682,
2,1,0,1,0,54371.5,0.23951,0.239187,3.09707,28,0.0135085,10,0.000740777,-2.50905,-1.54097,-0.0382874,-4.63215,0.239187,
2,1,0,1,0,54371.6,0.247006,0.246612,3.06766,28,0.0137984,10,0.000756523,-2.51319,-1.17524,-0.0502025,-6.00551,0.246612,
2,1,0,1,0,54371.7,0.254494,0.254138,3.03963,28,0.014085,10,0.000772487,-2.51718,-1.96739,-0.029989,-3.55387,0.254138,
2,1,0,1,0,54371.8,0.261983,0.261665,3.00659,28,0.0143691,10,0.00078672,-2.52193,-1.78279,-0.0330942,-3.88732,0.261665,
2,1,0,1,0,54371.9,0.26947,0.269132,2.98615,28,0.0146508,10,0.000803669,-2.52489,-1.45593,-0.0405239,-4.72219,0.269132,
2,1,0,1,0,54372,0.276959,0.276635,2.97141,28,0.0149303,10,0.000821995,-2.52704,-4.5919,-0.0128487,-1.48702,0.276635,
2,1,0,1,0,54372.1,0.284461,0.284162,2.93328,28,0.0152082,10,0.000833525,-2.53265,-6.11893,-0.0096422,-1.10648,0.2841616,
2,1,0,1,0,54372.2,0.29195,0.291604,2.91362,28,0.0154832,10,0.000849622,-2.53557,-1.44208,-0.0409132,-4.65322,0.2916036,
2,1,0,1,0,54372.3,0.299438,0.299122,2.88783,28,0.0157559,10,0.000863812,-2.53943,-0.0326524,-1.80691,-188.332,0.299122,
2,0,0,1,0,54372.4,0.29424,0.293859,-0.164048,28,0.0158371,10,-4.82069e-05,-3.78503,-0.0250602,-2.35434,208.273,0.293859,
2,0,0,1,0,54372.5,0.286753,0.28642,-0.998249,28,0.0157743,10,-0.000285918,-3.00076,-0.0368741,-1.60004,61.272,0.28642,
2,0,0,1,0,54372.5,0.279264,0.278945,-1.3375,28,0.0156624,10,-0.000373088,-2.87371,-0.0887097,-0.66509,34.5601,0.278945,
2,0,0,1,0,54372.6,0.271776,0.271395,-1.53802,28,0.015526,10,-0.000417413,-2.81304,-0.137049,-0.430504,25.9195,0.271395,
2,0,0,1,0,54372.7,0.26428,0.263949,-1.70063,28,0.0153729,10,-0.000448879,-2.76939,-0.212437,-0.277729,18.3636,0.263949,
2,0,0,1,0,54372.8,0.256786,0.256435,-1.82043,28,0.015207,10,-0.000466822,-2.73983,-0.251427,-0.234661,16.631,0.256435,
2,0,0,1,0,54372.9,0.249296,0.248976,-1.9206,28,0.0150307,10,-0.000478184,-2.71656,-0.362896,-0.162581,12.2,0.248976,
2,0,0,1,0,54373,0.241809,0.24147,-2.01409,28,0.0148452,10,-0.000486344,-2.69592,-0.437479,-0.134864,10.6039,0.24147,
2,0,0,1,0,54373.1,0.23432,0.233961,-2.10003,28,0.0146514,10,-0.000491324,-2.67778,-0.434204,-0.135881,11.1799,0.233961,
2,0,0,1,0,54373.2,0.226833,0.226465,-2.18143,28,0.0144499,10,-0.000494017,-2.66126,-0.415521,-0.14199,12.0844,0.226465,
2,0,0,1,0,54373.3,0.219329,0.219003,-2.26207,28,0.0142407,10,-0.0004954,-2.64549,-0.59354,-0.0994036,8.75599,0.219003,
2,0,0,1,0,54373.4,0.21184,0.211463,-2.33623,28,0.0140247,10,-0.000494027,-2.63148,-0.609915,-0.0967348,8.79647,0.211463,
2,0,0,1,0,54373.5,0.204353,0.203991,-2.40837,28,0.0138017,10,-0.000491285,-2.61828,-0.518235,-0.113848,10.7075,0.2039911,
2,0,0,1,0,54373.6,0.196863,0.196538,-2.48371,28,0.0135716,10,-0.000488144,-2.6049,-0.673954,-0.0875431,8.49051,0.196538,
2,0,0,1,0,54373.7,0.189376,0.188994,-2.5691,28,0.0133341,10,-0.000485544,-2.59022,-0.545756,-0.108107,10.84,0.188994,
2,0,0,1,0,54373.8,0.18188,0.181532,-2.65536,28,0.0130885,10,-0.000482033,-2.57588,-0.385348,-0.153108,15.8693,0.181532,
2,0,0,1,0,54373.9,0.174385,0.173971,-2.75536,28,0.0128338,10,-0.000479353,-2.55982,-0.467662,-0.12616,13.5936,0.173971,
2,0,0,1,0,54374,0.166896,0.166553,-2.89104,28,0.0125687,10,-0.000481511,-2.53895,-0.37766,-0.156225,17.5958,0.166553,
2,0,0,1,0,54374,0.159409,0.159073,-3.05217,28,0.0122903,10,-0.000485517,-2.51539,-0.255419,-0.230993,27.5213,0.159073,
2,0,0,1,0,54374.1,0.151919,0.151552,-3.2836,28,0.0119933,10,-0.000497635,-2.48365,-0.201209,-0.293227,37.6769,0.151552,
2,0,0,1,0,54374.2,0.144425,0.144078,-3.6598,28,0.0116684,10,-0.000527296,-2.43654,-0.137253,-0.429864,61.5424,0.144078,
2,0,0,1,0,54374.3,0.136929,0.136574,-4.2413,28,0.0112991,10,-0.000579251,-2.3725,-0.101072,-0.583744,96.712,0.136574,
2,0,0,1,0,54374.4,0.129441,0.129073,-5.01034,28,0.0108659,10,-0.000646701,-2.30013,-0.105676,-0.558313,109.236,0.129073,
2,0,0,1,0,54374.5,0.121952,0.121573,-5.81955,28,0.0103576,10,-0.000707499,-2.23511,-0.135082,-0.43677,98.9618,0.121573,
2,0,0,1,0,54374.6,0.114465,0.114141,-6.51593,28,0.0097786,10,-0.000743733,-2.18602,-0.177366,-0.332645,84.4818,0.114141,
2,0,0,1,0,54374.7,0.106976,0.106626,-7.04495,28,0.00914143,10,-0.000751173,-2.15212,-0.269136,-0.21922,60.2544,0.106626,
2,0,0,1,0,54374.8,0.0994721,0.0990872,-7.37868,28,0.00846185,10,-0.000731133,-2.13202,-0.705956,-0.0835747,24.0164,0.0990872,
2,0,0,1,0,54374.9,0.0919847,0.0916336,-7.44097,28,0.00776566,10,-0.000681843,-2.12837,6.04704,0.00975684,-2.83023,0.0916336,
2,0,0,1,0,54375,0.0844974,0.0841661,-7.30382,28,0.00707331,10,-0.000614734,-2.13645,0.707726,0.0833657,-23.7606,0.08416605,
2,0,0,1,0,54375.1,0.0770082,0.0766214,-7.10234,28,0.00639803,10,-0.000544191,-2.1486,0.574667,0.102668,-28.4517,0.0766214,
2,0,0,1,0,54375.2,0.0695208,0.0691457,-6.93175,28,0.00574078,10,-0.0004793,-2.15916,0.810335,0.0728094,-19.6923,0.0691457,
2,0,0,1,0,54375.3,0.0620245,0.0616653,-6.78967,28,0.00509703,10,-0.000418687,-2.16815,0.878439,0.0671646,-17.8101,0.0616653,
2,0,0,1,0,54375.4,0.0545282,0.0541795,-6.65589,28,0.00446567,10,-0.000360613,-2.17679,0.821653,0.0718065,-18.6635,0.0541795,
2,0,0,1,0,54375.5,0.0470408,0.0466908,-6.52041,28,0.00384792,10,-0.000304444,-2.18572,0.752654,0.0783893,-19.9226,0.0466908,
2,0,0,1,0,54375.5,0.0395516,0.039213,-6.34864,28,0.00324488,10,-0.000248949,-2.19732,0.712372,0.0828219,-20.508,0.039213,
2,0,0,1,0,54375.6,0.0320643,0.0317114,-6.15632,28,0.00265843,10,-0.000195225,-2.21068,0.472534,0.124859,-29.9999,0.0317114,
2,0,0,1,0,54375.7,0.0245751,0.0242285,-5.9425,28,0.00209123,10,-0.000143978,-2.22603,0.430357,0.137095,-31.7803,0.0242285,
2,0,0,1,0,54375.8,0.0170735,0.0167452,-5.71419,28,0.00154377,10,-9.56853e-05,-2.24305,0.509053,0.115902,-25.8812,0.0167452,
2,0,0,1,0,54375.9,0.00958429,0.00919993,-5.51611,28,0.00101712,10,-5.07478e-05,-2.25837,0.562343,0.104918,-22.5874,0.00919993,
2,0,0,1,0,54376,0.0020969,0.00168157,-5.40642,28,0.000507029,10,-9.09129e-06,-2.26709,1.00257,0.058849,-12.3496,0.00168157,
2,0,0,1,0,54376,0.000199195,-0.000248974,-5.3527,28,0.000379339,10,1.33268e-06,-2.27143, , , ,-0.000248974,