File: Figure_codes/Fig_3-5/rawdata_trumpetplot_data/after 10th/20221101_1-115_003_TrumpetPlot_ParaChange_from10_every3_09_CV_C01_17.csv
mode,ox/red,error,control changes,counter inc.,time/s,control/V,Ewe/V,<I>/mA,cycle number,(Q-Qo)/C,I Range,P/W,log(|I|),Tafel slope mV/dec,alpha_eff,dI/d(E-IR),E-IR/V,
2,0,0,0,0,34674.7,2.44065e-05,-0.000363498,-5.29514,18,0.0000000E+000,10,1.92477e-06,-2.27612, , , ,-0.000363498,
2,1,0,1,0,34674.8,0.00978761,0.00941571,1.20228,18,-0.000104462,10,1.13203e-05,-2.91999,0.00834923,7.06652,283.761,0.009415715,
2,1,0,1,0,34674.9,0.0197755,0.0194404,2.93748,18,0.000116121,10,5.71058e-05,-2.53203,0.0617675,0.955195,108.862,0.01944042,
2,1,0,1,0,34675,0.0297635,0.0294257,3.79181,18,0.000455992,10,0.000111577,-2.42115,0.129664,0.455023,67.1453,0.0294257,
2,1,0,1,0,34675.1,0.0397514,0.0394244,4.40752,18,0.000867137,10,0.000173764,-2.35581,0.169874,0.347317,59.7369,0.0394244,
2,1,0,1,0,34675.2,0.0497484,0.0494188,4.96854,18,0.00133643,10,0.00024554,-2.30377,0.21279,0.277269,53.6857,0.0494188,
2,1,0,1,0,34675.3,0.0597273,0.0594149,5.47106,18,0.00185811,10,0.000325063,-2.26193,0.253409,0.232826,49.6825,0.0594149,
2,1,0,1,0,34675.4,0.0697152,0.0693795,5.93235,18,0.00242889,10,0.000411584,-2.22677,0.323747,0.182241,42.1931,0.0693795,
2,1,0,1,0,34675.5,0.0797031,0.0793608,6.34491,18,0.00304337,10,0.000503537,-2.19757,0.371926,0.158634,39.2609,0.0793608,
2,1,0,1,0,34675.6,0.0896911,0.0893415,6.69276,18,0.00369586,10,0.000597941,-2.17439,0.419593,0.140613,36.782,0.0893415,
2,1,0,1,0,34675.7,0.099679,0.0993071,7.08071,18,0.00438299,10,0.000703166,-2.14992,0.379789,0.155349,42.8828,0.09930715,
2,1,0,1,0,34675.8,0.109667,0.109336,7.63918,18,0.00511667,10,0.000835235,-2.11695,0.264248,0.223275,66.6173,0.109336,
2,1,0,1,0,34675.9,0.119655,0.119309,8.36752,18,0.00591609,10,0.000998321,-2.0774,0.26963,0.218818,71.4246,0.119309,
2,1,0,1,0,34676,0.129643,0.129324,8.9942,18,0.0067858,10,0.00116317,-2.04604,0.390785,0.150978,52.9798,0.129324,
2,1,0,1,0,34676.1,0.139631,0.139332,9.40426,18,0.00770778,10,0.00131031,-2.02668,0.699335,0.0843659,30.9589,0.139332,
2,1,0,1,0,34676.2,0.149619,0.149291,9.49116,18,0.00865617,10,0.00141694,-2.02268,-0.827343,-0.0713127,-26.3474,0.149291,
2,1,0,1,0,34676.3,0.159607,0.159282,8.61673,18,0.00957117,10,0.00137249,-2.06466,-0.132099,-0.446633,-149.891,0.159282,
2,1,0,1,0,34676.4,0.169595,0.169305,6.94974,18,0.0103504,10,0.00117662,-2.15803,-0.098044,-0.601771,-163.265,0.169305,
2,1,0,1,0,34676.5,0.179582,0.179274,5.65243,18,0.010975,10,0.00101333,-2.24776,-0.134277,-0.439391,-97.1938,0.179274,
2,1,0,1,0,34676.6,0.18957,0.189255,4.92743,18,0.0115008,10,0.00093254,-2.30738,-0.212143,-0.278114,-53.5395,0.189255,
2,1,0,1,0,34676.7,0.199558,0.199203,4.50979,18,0.0119705,10,0.000898362,-2.34584,-0.330701,-0.178409,-31.375,0.1992027,
2,1,0,1,0,34676.8,0.209546,0.209268,4.25251,18,0.0124075,10,0.000889915,-2.37135,-0.419546,-0.140628,-23.3453,0.209268,
2,1,0,1,0,34676.9,0.219534,0.219235,4.07303,18,0.0128234,10,0.00089295,-2.39008,-0.737227,-0.0800297,-12.7355,0.219235,
2,1,0,1,0,34677,0.229522,0.229193,3.95519,18,0.0132254,10,0.000906502,-2.40283,-0.904871,-0.0652026,-10.0766,0.229193,
2,1,0,1,0,34677.1,0.23951,0.239168,3.87907,18,0.0136174,10,0.00092775,-2.41127,-1.75164,-0.0336826,-5.1,0.239168,
2,1,0,1,0,34677.2,0.249498,0.249246,3.81706,18,0.014002,10,0.000951385,-2.41827,-1.37362,-0.0429523,-6.39135,0.249246,
2,1,0,1,0,34677.3,0.259486,0.259182,3.76132,18,0.014381,10,0.000974868,-2.42466,-1.59568,-0.0369748,-5.42626,0.259182,
2,1,0,1,0,34677.4,0.269474,0.269151,3.71632,18,0.0147552,10,0.00100025,-2.42989,-2.10546,-0.0280224,-4.06336,0.269151,
2,1,0,1,0,34677.5,0.279462,0.279135,3.66856,18,0.0151249,10,0.00102402,-2.4355,-2.07467,-0.0284382,-4.07562,0.279135,
2,1,0,1,0,34677.6,0.28945,0.289099,3.62529,18,0.0154903,10,0.00104807,-2.44066,-3.09935,-0.0190363,-2.69591,0.289099,
2,1,0,1,0,34677.7,0.299438,0.299113,3.58451,18,0.0158511,10,0.00107217,-2.44557,-0.0343645,-1.71689,-223.2,0.299113,
2,0,0,1,0,34677.8,0.291747,0.291385,-0.662635,18,0.015924,10,-0.000193082,-3.17873,-0.00779158,-7.57228,161.658,0.291385,
2,0,0,1,0,34677.9,0.281759,0.281423,-1.51449,18,0.0158066,10,-0.000426214,-2.81973,-0.0714483,-0.825772,48.4329,0.281423,
2,0,0,1,0,34678,0.271771,0.27147,-1.8819,18,0.0156351,10,-0.00051088,-2.7254,-0.135402,-0.43574,31.8891,0.27147,
2,0,0,1,0,34678.1,0.261783,0.261412,-2.12595,18,0.0154338,10,-0.00055575,-2.67245,-0.246279,-0.239566,19.8732,0.261412,
2,0,0,1,0,34678.2,0.251795,0.251483,-2.31226,18,0.0152112,10,-0.000581494,-2.63596,-0.314397,-0.187661,16.956,0.2514832,
2,0,0,1,0,34678.3,0.241807,0.241495,-2.47085,18,0.0149714,10,-0.000596696,-2.60715,-0.37695,-0.156519,15.1184,0.241495,
2,0,0,1,0,34678.4,0.231815,0.231498,-2.61802,18,0.0147167,10,-0.000606066,-2.58203,-0.401913,-0.146798,14.9911,0.231498,
2,0,0,1,0,34678.5,0.221831,0.221528,-2.74687,18,0.0144487,10,-0.000608509,-2.56116,-0.471928,-0.125019,13.3852,0.221528,
2,0,0,1,0,34678.6,0.211843,0.211536,-2.87112,18,0.0141676,10,-0.000607346,-2.54195,-0.622496,-0.0947798,10.6271,0.211536,
2,0,0,1,0,34678.7,0.201856,0.201547,-2.997,18,0.0138739,10,-0.000604036,-2.52331,-0.592311,-0.0996098,11.6598,0.201547,
2,0,0,1,0,34678.8,0.191868,0.191576,-3.12785,18,0.0135672,10,-0.000599222,-2.50475,-0.464881,-0.126914,15.5348,0.191576,
2,0,0,1,0,34678.9,0.18188,0.181525,-3.2958,18,0.0132467,10,-0.000598268,-2.48204,-0.420719,-0.140236,17.9814,0.181525,
2,0,0,1,0,34679,0.171892,0.171578,-3.47229,18,0.012909,10,-0.000595768,-2.45938,-0.41405,-0.142495,19.3282,0.171578,
2,0,0,1,0,34679.1,0.161904,0.161583,-3.72829,18,0.0125497,10,-0.000602429,-2.42849,-0.275949,-0.213808,31.1233,0.161583,
2,0,0,1,0,34679.2,0.151916,0.15159,-4.13079,18,0.0121581,10,-0.000626185,-2.38397,-0.183426,-0.321656,52.0042,0.15159,
2,0,0,1,0,34679.3,0.141928,0.141613,-4.86423,18,0.0117116,10,-0.000688836,-2.31299,-0.112975,-0.52224,99.3836,0.141613,
2,0,0,1,0,34679.4,0.13194,0.131635,-6.06812,18,0.0111691,10,-0.000798776,-2.21695,-0.100522,-0.586934,138.999,0.131635,
2,0,0,1,0,34679.5,0.121952,0.121653,-7.453,18,0.0104927,10,-0.000906677,-2.12767,-0.132526,-0.445195,129.308,0.121653,
2,0,0,1,0,34679.6,0.111964,0.111657,-8.58265,18,0.00968829,10,-0.000958317,-2.06638,-0.207202,-0.284746,95.3128,0.111657,
2,0,0,1,0,34679.7,0.101976,0.101626,-9.33174,18,0.00878931,10,-0.000948344,-2.03004,-0.448065,-0.131677,47.8618,0.101626,
2,0,0,1,0,34679.8,0.0919883,0.0916689,-9.54826,18,0.00784142,10,-0.000875279,-2.02008,10.7622,0.00548215,-2.04149,0.0916689,
2,0,0,1,0,34679.9,0.0820004,0.0816945,-9.30085,18,0.00689722,10,-0.000759829,-2.03148,0.55265,0.106758,-38.7293,0.0816945,
2,0,0,1,0,34680,0.0720124,0.071659,-8.91996,18,0.00598706,10,-0.000639196,-2.04964,0.583345,0.101141,-35.2366,0.071659,
2,0,0,1,0,34680.1,0.0620245,0.0616906,-8.6314,18,0.00511064,10,-0.000532476,-2.06392,0.74655,0.0790302,-26.6358,0.0616906,
2,0,0,1,0,34680.2,0.0520366,0.0516703,-8.39208,18,0.00425975,10,-0.000433621,-2.07613,0.746272,0.0790596,-25.8894,0.0516703,
2,0,0,1,0,34680.3,0.0420486,0.0417178,-8.1287,18,0.00343371,10,-0.000339112,-2.08998,0.743388,0.0793663,-25.1997,0.0417178,
2,0,0,1,0,34680.4,0.0320607,0.0316941,-7.83091,18,0.00263612,10,-0.000248193,-2.10619,0.520465,0.11336,-34.6285,0.0316941,
2,0,0,1,0,34680.5,0.0220728,0.0217309,-7.46216,18,0.00187162,10,-0.00016216,-2.12714,0.432521,0.136409,-39.7141,0.0217309,
2,0,0,1,0,34680.6,0.0120848,0.0117159,-7.07985,18,0.00114528,10,-8.29466e-05,-2.14998,0.410984,0.143558,-39.6796,0.0117159,
2,0,0,1,0,34680.7,0.0020969,0.00168188,-6.81434,18,0.000454182,10,-1.14609e-05,-2.16658,0.850243,0.0693919,-18.3634,0.00168188,
2,0,0,1,0,34680.8,-0.00789103,-0.00827727,-6.58463,18,-0.000213553,10,5.45028e-05,-2.18147,1.11451,0.0529383,-13.6343,-0.00827727,
2,0,0,1,0,34680.9,-0.017879,-0.0182313,-6.5369,18,-0.000867579,10,0.000119176,-2.18463,-13.4447,-0.00438834,1.11859,-0.0182313,
2,0,0,1,0,34681,-0.0278669,-0.0282583,-6.58125,18,-0.00152206,10,0.000185975,-2.18169,-1.72928,-0.0341183,8.77392,-0.0282583,
2,0,0,1,0,34681.1,-0.0378548,-0.0382523,-6.72743,18,-0.0021865,10,0.00025734,-2.17215,-0.909473,-0.0648728,17.0152,-0.0382523,
2,0,0,1,0,34681.2,-0.0478428,-0.0482146,-6.92867,18,-0.00286843,10,0.000334063,-2.15935,-0.569459,-0.103607,28.0443,-0.0482146,
2,0,0,1,0,34681.3,-0.0578216,-0.0581998,-7.20724,18,-0.00357381,10,0.00041946,-2.14223,-0.535592,-0.110159,30.9764,-0.0581998,
2,0,0,1,0,34681.4,-0.0678187,-0.0682082,-7.54334,18,-0.00431034,10,0.000514517,-2.12244,-0.450723,-0.130901,38.5483,-0.0682082,
2,0,0,1,0,34681.5,-0.0778066,-0.078232,-7.95987,18,-0.00508469,10,0.000622716,-2.09909,-0.416504,-0.141655,44.0322,-0.078232,
2,0,0,1,0,34681.6,-0.0877945,-0.0881598,-8.45813,18,-0.00590462,10,0.000745667,-2.07273,-0.373493,-0.157968,52.1329,-0.0881598,
2,0,0,1,0,34681.7,-0.0977825,-0.098131,-8.97651,18,-0.00677592,10,0.000880873,-2.04689,-0.385944,-0.152872,53.5806,-0.098131,
2,0,0,1,1,34681.8,-0.0927386,-0.0930897,-2.64584,18,-0.00735022,10,0.000246301,-2.57744,-0.0116185,-5.07811,516.921,-0.0930897,
2,1,0,1,1,34681.9,-0.0827529,-0.0831339,0.885964,18,-0.00741511,10,-7.36537e-05,-3.05258,0.00706158,8.35508,245.432,-0.0831339,
2,1,0,1,1,34682,-0.0727627,-0.0731551,2.72889,18,-0.00722516,10,-0.000199632,-2.56401,0.0453893,1.29987,136.884,-0.0731551,
2,1,0,1,1,34682.1,-0.0627748,-0.0631174,3.79302,18,-0.00689397,10,-0.000239406,-2.42101,0.106197,0.555571,82.1042,-0.0631174,
2,1,0,1,1,34682.2,-0.0527868,-0.0531387,4.43356,18,-0.00647909,10,-0.000235594,-2.35325,0.219624,0.268641,46.4045,-0.0531387,
2,1,0,1,1,34682.3,-0.0427989,-0.043189,4.80832,18,-0.0060147,10,-0.000207666,-2.31801,0.364025,0.162077,30.406,-0.043189,
2,1,0,1,1,34682.4,-0.0328109,-0.0331933,5.01675,18,-0.00552243,10,-0.000166522,-2.29958,0.876959,0.067278,13.158,-0.0331933,
2,1,0,1,1,34682.5,-0.022823,-0.0232114,5.10805,18,-0.00501552,10,-0.000118565,-2.29175,2.68588,0.0219667,4.37497,-0.02321144,
2,1,0,1,1,34682.6,-0.0128351,-0.0132084,5.12773,18,-0.00450318,10,-6.77291e-05,-2.29008,-30.4312,-0.0019388,-0.388068,-0.0132084,
2,1,0,1,1,34682.7,-0.00284713,-0.00324319,5.13204,18,-0.00398974,10,-1.66442e-05,-2.28971,-9.85683,-0.0059857,-1.19855,-0.00324319,
2,1,0,1,1,34682.7,-2.55332e-05,-0.000268062,5.15232,18,-0.00384535,10,-1.38114e-06,-2.288, , , ,-0.000268062,