File: Figure_codes/Fig_3-5/rawdata_trumpetplot_data/after 10th/20221101_1-115_003_TrumpetPlot_ParaChange_from10_every3_09_CV_C01_33.csv
mode,ox/red,error,control changes,counter inc.,time/s,control/V,Ewe/V,<I>/mA,cycle number,(Q-Qo)/C,I Range,P/W,log(|I|),Tafel slope mV/dec,alpha_eff,dI/d(E-IR),E-IR/V,
2,0,0,0,0,66196.8,2.44065e-05,-0.000401673,-5.28178,34,0.0000000E+000,10,2.12155e-06,-2.27722, , , ,-0.000401673,
2,1,0,1,0,66196.9,0.00978761,0.00943393,0.566336,34,-0.000155189,10,5.34278e-06,-3.24693,0.0035095,16.8115,292.893,0.00943393,
2,1,0,1,0,66197,0.0197755,0.0194682,2.48557,34,1.09583e-05,10,4.83896e-05,-2.60457,0.044773,1.31776,126.652,0.0194682,
2,1,0,1,0,66197.1,0.0297635,0.0294392,3.46225,34,0.000312683,10,0.000101926,-2.46064,0.106915,0.551839,74.3074,0.0294392,
2,1,0,1,0,66197.2,0.0397514,0.0393838,4.10605,34,0.000692551,10,0.000161712,-2.38658,0.156108,0.377943,60.5812,0.0393838,
2,1,0,1,0,66197.3,0.0497484,0.0494453,4.6553,34,0.00113092,10,0.000230183,-2.33205,0.210174,0.28072,50.8587,0.0494453,
2,1,0,1,0,66197.4,0.0597273,0.0594006,5.12551,34,0.00161927,10,0.000304458,-2.29026,0.254038,0.232249,46.4154,0.0594006,
2,1,0,1,0,66197.5,0.0697152,0.069394,5.55812,34,0.00215379,10,0.0003857,-2.25507,0.323348,0.182466,39.5879,0.069394,
2,1,0,1,0,66197.6,0.0797031,0.0793664,5.94702,34,0.00272945,10,0.000471994,-2.2257,0.384053,0.153625,35.6444,0.0793664,
2,1,0,1,0,66197.7,0.0896911,0.0893473,6.27609,34,0.00334083,10,0.000560752,-2.20231,0.442417,0.133358,32.6796,0.0893473,
2,1,0,1,0,66197.8,0.099679,0.0993864,6.61303,34,0.00398387,10,0.000657245,-2.1796,0.40025,0.147408,38.041,0.0993864,
2,1,0,1,0,66197.9,0.109667,0.109364,7.0764,34,0.00466636,10,0.000773905,-2.15019,0.295185,0.199875,55.2474,0.109364,
2,1,0,1,0,66198,0.119655,0.11931,7.69538,34,0.0054041,10,0.000918138,-2.11377,0.287018,0.205562,61.7013,0.11931,
2,1,0,1,0,66198.1,0.129643,0.129296,8.27188,34,0.00620306,10,0.00106952,-2.0824,0.379842,0.155328,50.1016,0.129296,
2,1,0,1,0,66198.2,0.139631,0.139349,8.65735,34,0.00705094,10,0.00120639,-2.06261,0.690804,0.0854077,28.8656,0.1393486,
2,1,0,1,0,66198.3,0.149619,0.149319,8.76571,34,0.00792447,10,0.00130889,-2.05721,-1.32108,-0.0446603,-15.2499,0.149319,
2,1,0,1,0,66198.4,0.159607,0.159322,8.19672,34,0.00877901,10,0.00130592,-2.08636,-0.186945,-0.315601,-100.831,0.159322,
2,1,0,1,0,66198.5,0.169595,0.16927,6.97713,34,0.00953959,10,0.00118102,-2.15632,-0.125716,-0.469311,-127.735,0.16927,
2,1,0,1,0,66198.6,0.179582,0.179257,5.84268,34,0.010177,10,0.00104734,-2.23339,-0.145701,-0.404939,-92.5035,0.179257,
2,1,0,1,0,66198.7,0.18957,0.189209,5.1002,34,0.0107213,10,0.000965005,-2.29241,-0.205898,-0.28655,-57.1145,0.189209,
2,1,0,1,0,66198.8,0.199558,0.199227,4.63738,34,0.0112057,10,0.000923891,-2.33373,-0.288347,-0.204615,-37.0178,0.199227,
2,1,0,1,0,66198.9,0.209546,0.20925,4.33524,34,0.0116527,10,0.000907146,-2.36299,-0.361538,-0.163192,-27.5961,0.20925,
2,1,0,1,0,66199,0.219534,0.21923,4.11693,34,0.0120742,10,0.000902556,-2.38543,-0.548497,-0.107567,-17.2891,0.21923,
2,1,0,1,0,66199.1,0.229522,0.229233,3.97018,34,0.0124782,10,0.000910096,-2.40119,-0.705831,-0.0835894,-12.9617,0.229233,
2,1,0,1,0,66199.2,0.23951,0.239183,3.86842,34,0.0128699,10,0.00092526,-2.41247,-0.99517,-0.0592863,-8.95447,0.239183,
2,1,0,1,0,66199.3,0.249498,0.249235,3.79188,34,0.0132522,10,0.00094507,-2.42115,-1.37709,-0.042844,-6.33699,0.2492355,
2,1,0,1,0,66199.4,0.259486,0.259231,3.73072,34,0.013628,10,0.000967119,-2.42821,-1.26079,-0.0467961,-6.80927,0.259231,
2,1,0,1,0,66199.5,0.269474,0.269188,3.6743,34,0.0139982,10,0.000989079,-2.43483,-1.65707,-0.0356051,-5.10929,0.269188,
2,1,0,1,0,66199.6,0.279462,0.279152,3.63108,34,0.0143635,10,0.00101363,-2.43996,-2.04293,-0.0288801,-4.09367,0.279152,
2,1,0,1,0,66199.7,0.28945,0.289169,3.58607,34,0.0147243,10,0.00103698,-2.44538,-2.45757,-0.0240074,-3.35924,0.2891691,
2,1,0,1,0,66199.8,0.299438,0.299143,3.54357,34,0.0150803,10,0.00106003,-2.45056,-0.0414035,-1.425,-185.494,0.299143,
2,0,0,1,0,66199.9,0.291747,0.291394,-0.316806,34,0.0151826,10,-9.23153e-05,-3.49921,-0.00528789,-11.1576,192.285,0.291394,
2,0,0,1,0,66200,0.281759,0.281403,-1.39288,34,0.0150877,10,-0.000391961,-2.85609,-0.0495792,-1.19002,63.8739,0.281403,
2,0,0,1,0,66200.1,0.271771,0.271451,-1.85029,34,0.0149238,10,-0.000502263,-2.73276,-0.117518,-0.502049,36.1207,0.271451,
2,0,0,1,0,66200.2,0.261783,0.26145,-2.12826,34,0.0147244,10,-0.000556434,-2.67198,-0.221748,-0.266068,22.073,0.26145,
2,0,0,1,0,66200.3,0.251795,0.251448,-2.33479,34,0.0145014,10,-0.000587078,-2.63175,-0.292471,-0.20173,18.3586,0.251448,
2,0,0,1,0,66200.4,0.241807,0.241474,-2.49285,34,0.01426,10,-0.00060196,-2.6033,-0.367375,-0.160599,15.6771,0.241474,
2,0,0,1,0,66200.5,0.231815,0.231497,-2.64165,34,0.0140035,10,-0.000611534,-2.57812,-0.379058,-0.155649,16.0268,0.231497,
2,0,0,1,0,66200.6,0.221831,0.221499,-2.76745,34,0.0137336,10,-0.000612988,-2.55792,-0.472718,-0.12481,13.4719,0.221499,
2,0,0,1,0,66200.7,0.211844,0.211453,-2.8907,34,0.0134511,10,-0.000611248,-2.539,-0.710607,-0.0830277,9.35925,0.211453,
2,0,0,1,0,66200.8,0.201856,0.201504,-3.00501,34,0.0131565,10,-0.00060552,-2.52215,-0.602872,-0.0978649,11.4973,0.201504,
2,0,0,1,0,66200.9,0.191868,0.191507,-3.13439,34,0.0128498,10,-0.000600259,-2.50385,-0.50572,-0.116665,14.2925,0.191507,
2,0,0,1,0,66201,0.18188,0.181512,-3.27328,34,0.0125307,10,-0.000594139,-2.48502,-0.460877,-0.128017,16.3317,0.181512,
2,0,0,1,0,66201.1,0.171892,0.171559,-3.42687,34,0.0121967,10,-0.000587911,-2.4651,-0.463822,-0.127204,17.0059,0.171559,
2,0,0,1,0,66201.2,0.161904,0.161575,-3.63128,34,0.0118451,10,-0.000586724,-2.43994,-0.353469,-0.166917,23.6394,0.161575,
2,0,0,1,0,66201.3,0.151916,0.15157,-3.92719,34,0.0114687,10,-0.000595244,-2.40592,-0.24311,-0.242688,37.2632,0.15157,
2,0,0,1,0,66201.4,0.141928,0.141549,-4.44907,34,0.011053,10,-0.000629762,-2.35173,-0.14374,-0.410462,71.36,0.141549,
2,0,0,1,0,66201.5,0.13194,0.131623,-5.34089,34,0.0105681,10,-0.000702983,-2.27239,-0.114418,-0.515655,107.569,0.131623,
2,0,0,1,0,66201.6,0.121952,0.12163,-6.47724,34,0.00997839,10,-0.000787824,-2.18861,-0.137561,-0.428901,108.32,0.12163,
2,0,0,1,0,66201.7,0.111964,0.111647,-7.51383,34,0.00927799,10,-0.000838898,-2.12414,-0.179373,-0.328923,96.4236,0.111647,
2,0,0,1,0,66201.8,0.101976,0.101637,-8.32258,34,0.00848446,10,-0.000845878,-2.07974,-0.307108,-0.192115,62.2934,0.101637,
2,0,0,1,0,66201.9,0.0919883,0.0916573,-8.73554,34,0.0076291,10,-0.000800676,-2.05871,-0.927209,-0.0636318,21.6812,0.0916573,
2,0,0,1,0,66202,0.0820004,0.0816501,-8.73837,34,0.00675425,10,-0.000713489,-2.05857,1.25074,0.0471721,-16.076,0.0816501,
2,0,0,1,0,66202.1,0.0720124,0.0716577,-8.53211,34,0.00589145,10,-0.000611392,-2.06894,0.824672,0.0715436,-23.8264,0.0716577,
2,0,0,1,0,66202.2,0.0620245,0.0617114,-8.32956,34,0.00505,10,-0.000514028,-2.07938,1.01881,0.0579107,-18.8304,0.06171136,
2,0,0,1,0,66202.3,0.0520366,0.0516503,-8.15392,34,0.00422681,10,-0.000421153,-2.08863,0.918924,0.0642055,-20.4243,0.0516503,
2,0,0,1,0,66202.4,0.0420486,0.0417614,-7.94897,34,0.00342264,10,-0.00033196,-2.09969,0.881952,0.0668971,-20.7484,0.04176138,
2,0,0,1,0,66202.5,0.0320607,0.0317248,-7.69769,34,0.00264178,10,-0.000244207,-2.11364,0.5945,0.099243,-29.7897,0.03172477,
2,0,0,1,0,66202.6,0.0220728,0.0217079,-7.38382,34,0.00188842,10,-0.000160288,-2.13172,0.514655,0.11464,-33.026,0.0217079,
2,0,0,1,0,66202.7,0.0120848,0.0117976,-7.04903,34,0.00116778,10,-8.31617e-05,-2.15187,0.478479,0.123307,-33.9273,0.0117976,
2,0,0,1,0,66202.8,0.0020969,0.00173697,-6.7965,34,0.000478854,10,-1.18053e-05,-2.16771,0.812113,0.07265,-19.1994,0.00173697,
2,0,0,1,0,66202.9,-0.00789103,-0.00825735,-6.57098,34,-0.000187236,10,5.42589e-05,-2.18237,1.13697,0.0518923,-13.3217,-0.00825735,
2,0,0,1,0,66203,-0.017879,-0.0182222,-6.50027,34,-0.000838356,10,0.000118449,-2.18707,12.8624,0.00458703,-1.16254,-0.0182222,
2,0,0,1,0,66203.1,-0.0278669,-0.0281906,-6.51825,34,-0.00148733,10,0.000183754,-2.18587,-2.51361,-0.0234722,5.97438,-0.0281906,
2,0,0,1,0,66203.2,-0.0378548,-0.038251,-6.62962,34,-0.00214304,10,0.00025359,-2.17851,-1.17952,-0.0500205,12.9366,-0.038251,
2,0,0,1,0,66203.3,-0.0478428,-0.0482232,-6.79682,34,-0.00281313,10,0.000327764,-2.16769,-0.658781,-0.0895594,23.7872,-0.0482232,
2,0,0,1,0,66203.4,-0.0578216,-0.0581764,-7.03705,34,-0.00350317,10,0.00040939,-2.15261,-0.597684,-0.0987144,27.1171,-0.0581764,
2,0,0,1,0,66203.5,-0.0678187,-0.0682185,-7.33301,34,-0.0042203,10,0.000500247,-2.13472,-0.496795,-0.118761,33.9851,-0.0682185,
2,0,0,1,0,66203.6,-0.0778066,-0.0781873,-7.68329,34,-0.00496975,10,0.000600736,-2.11445,-0.465102,-0.126854,38.0621,-0.0781873,
2,0,0,1,0,66203.7,-0.0877945,-0.0881216,-8.10811,34,-0.00575801,10,0.0007145,-2.09108,-0.425228,-0.138749,43.9142,-0.08812163,
2,0,0,1,0,66203.8,-0.0977825,-0.0981401,-8.56847,34,-0.00659079,10,0.00084091,-2.0671,-0.418492,-0.140982,47.1572,-0.0981401,
2,0,0,1,1,66203.9,-0.0927386,-0.0930793,-3.19581,34,-0.00717139,10,0.000297463,-2.49542,-0.0156649,-3.76638,467.946,-0.0930793,
2,1,0,1,1,66204,-0.0827529,-0.0831066,0.171187,34,-0.00730461,10,-1.42268e-05,-3.76653,0.015015,3.9294,249.485,-0.0831066,
2,1,0,1,1,66204.1,-0.0727627,-0.0731231,2.1268,34,-0.00718189,10,-0.000155518,-2.67227,0.0314393,1.87663,153.168,-0.0731231,
2,1,0,1,1,66204.2,-0.0627747,-0.0631508,3.36,34,-0.0069032,10,-0.000212187,-2.47366,0.0776218,0.760096,99.2705,-0.0631508,
2,1,0,1,1,66204.3,-0.0527868,-0.0531296,4.15475,34,-0.00652444,10,-0.00022074,-2.38145,0.154797,0.381145,61.6723,-0.05312958,
2,1,0,1,1,66204.4,-0.0427989,-0.0431764,4.65597,34,-0.00608192,10,-0.000201028,-2.33199,0.258701,0.228063,41.4458,-0.0431764,
2,1,0,1,1,66204.5,-0.0328109,-0.0331833,4.96574,34,-0.0056003,10,-0.00016478,-2.30402,0.503959,0.117073,22.6458,-0.0331833,
2,1,0,1,1,66204.6,-0.022823,-0.023228,5.12135,34,-0.00509569,10,-0.000118959,-2.29062,1.18181,0.0499234,9.97532,-0.02322804,
2,1,0,1,1,66204.7,-0.0128351,-0.013198,5.17955,34,-0.00458028,10,-6.83597e-05,-2.28571,5.8516,0.0100827,2.04028,-0.013198,
2,1,0,1,1,66204.8,-0.00284713,-0.00320046,5.19472,34,-0.0040612,10,-1.66255e-05,-2.28444,-10.0348,-0.00587957,-1.19204,-0.00320046,
2,1,0,1,1,66204.8,-2.55332e-05,-0.000306236,5.20575,34,-0.00391513,10,-1.59419e-06,-2.28352, , , ,-0.000306236,