File: Figure_codes/Fig_3-5/rawdata_trumpetplot_data/after 10th/20221101_1-115_003_TrumpetPlot_ParaChange_from10_every3_08_CV_C01_2.csv
mode,ox/red,error,control changes,counter inc.,time/s,control/V,Ewe/V,<I>/mA,cycle number,(Q-Qo)/C,I Range,P/W,log(|I|),Tafel slope mV/dec,alpha_eff,dI/d(E-IR),E-IR/V,
2,0,0,0,0,5115.28,2.44065e-05,-0.000401673,-3.94739,3,0.0000000E+000,10,1.58556e-06,-2.40369, , , ,-0.000401673,
2,1,0,1,0,5115.37,0.0072942,0.00698921,1.90564,3,6.0437e-06,10,1.33189e-05,-2.71996,0.0159195,3.70614,253.571,0.00698921,
2,1,0,1,0,5115.46,0.0147816,0.0144268,2.8912,3,0.000241351,10,4.17107e-05,-2.53892,0.0898255,0.656829,73.8839,0.0144268,
2,1,0,1,0,5115.56,0.0222707,0.0219956,3.34508,3,0.000535647,10,7.35771e-05,-2.47559,0.158377,0.372529,48.4249,0.0219956,
2,1,0,1,0,5115.65,0.0297581,0.0294611,3.68477,3,0.000865615,10,0.000108558,-2.43359,0.17794,0.331572,47.6548,0.0294611,
2,1,0,1,0,5115.74,0.0372544,0.0369298,4.02777,3,0.00122845,10,0.000148745,-2.39494,0.205602,0.286962,45.1668,0.0369298,
2,1,0,1,0,5115.84,0.0447507,0.0444331,4.39153,3,0.00162438,10,0.000195129,-2.35738,0.207361,0.284528,48.785,0.0444331,
2,1,0,1,0,5115.93,0.0522381,0.0519259,4.75146,3,0.00205351,10,0.000246724,-2.32317,0.209723,0.281324,52.2137,0.0519259,
2,1,0,1,0,5116.03,0.0597273,0.0594272,5.10891,3,0.00251663,10,0.000303608,-2.29167,0.257743,0.22891,45.6551,0.0594272,
2,1,0,1,0,5116.12,0.0672147,0.0669445,5.45989,3,0.00301222,10,0.00036551,-2.26282,0.285686,0.20652,43.9069,0.0669445,
2,1,0,1,0,5116.21,0.0747038,0.0743835,5.7712,3,0.00353867,10,0.000429282,-2.23873,0.296074,0.199275,44.8642,0.07438346,
2,1,0,1,0,5116.31,0.0822055,0.0818872,6.06047,3,0.00409527,10,0.000496274,-2.21749,0.379689,0.15539,36.7667,0.0818872,
2,1,0,1,0,5116.4,0.0896946,0.0893258,6.35105,3,0.00467739,10,0.000567312,-2.19715,0.385761,0.152945,37.934,0.0893258,
2,1,0,1,0,5116.49,0.097182,0.0968257,6.68148,3,0.00528814,10,0.000646939,-2.17513,0.28387,0.207841,54.2563,0.0968257,
2,1,0,1,0,5116.59,0.104671,0.104381,7.13913,3,0.00593496,10,0.000745191,-2.14635,0.236024,0.249974,69.6982,0.104381,
2,1,0,1,0,5116.68,0.112159,0.111856,7.72481,3,0.00663092,10,0.000864067,-2.11211,0.226706,0.260248,78.4115,0.111856,
2,1,0,1,0,5116.77,0.119655,0.119376,8.34527,3,0.00738467,10,0.000996226,-2.07856,0.250386,0.235636,76.588,0.119376,
2,1,0,1,0,5116.87,0.127149,0.126807,8.85059,3,0.00819241,10,0.00112232,-2.05303,0.326182,0.180881,62.5301,0.126807,
2,1,0,1,0,5116.96,0.134639,0.134358,9.28456,3,0.00904371,10,0.00124746,-2.03224,0.448151,0.131652,47.7368,0.134358,
2,1,0,1,0,5117.06,0.142126,0.141836,9.61704,3,0.00993086,10,0.00136405,-2.01696,0.678232,0.0869909,32.6041,0.141836,
2,1,0,1,0,5117.15,0.149615,0.14932,9.57055,3,0.0108348,10,0.00142907,-2.01906,-0.409139,-0.144205,-53.6747,0.14932,
2,1,0,1,0,5117.24,0.157103,0.156812,8.65844,3,0.011697,10,0.00135775,-2.06256,-0.104469,-0.564759,-190.03,0.156812,
2,1,0,1,0,5117.34,0.164606,0.164267,7.0158,3,0.0124348,10,0.00115246,-2.15392,-0.0741441,-0.795747,-217.783,0.164267,
2,1,0,1,0,5117.43,0.172095,0.171781,5.6373,3,0.0130229,10,0.000968381,-2.24893,-0.0928166,-0.635662,-140.41,0.171781,
2,1,0,1,0,5117.52,0.179582,0.179268,4.8425,3,0.0135116,10,0.000868106,-2.31493,-0.135742,-0.434647,-82.4554,0.179268,
2,1,0,1,0,5117.62,0.18707,0.186781,4.36556,3,0.0139418,10,0.000815404,-2.35996,-0.190631,-0.309498,-52.684,0.186781,
2,1,0,1,0,5117.71,0.194559,0.194285,4.03607,3,0.0143345,10,0.000784147,-2.39404,-0.274672,-0.214802,-33.8435,0.194285,
2,1,0,1,0,5117.8,0.202062,0.201778,3.80053,3,0.0147025,10,0.000766863,-2.42016,-0.295049,-0.199967,-29.6636,0.201778,
2,1,0,1,0,5117.9,0.20955,0.209285,3.64897,3,0.0150518,10,0.000763676,-2.43783,-0.379639,-0.155411,-22.1067,0.209285,
2,1,0,1,0,5117.99,0.217039,0.216804,3.516,3,0.0153878,10,0.000762284,-2.45395,-0.789265,-0.0747531,-10.2837,0.216804,
2,1,0,1,0,5118.09,0.224526,0.224213,3.43114,3,0.0157145,10,0.000769306,-2.46456,-0.654186,-0.0901884,-12.105,0.224213,
2,1,0,1,0,5118.18,0.232016,0.231717,3.37198,3,0.0160339,10,0.000781346,-2.47211,-0.970031,-0.0608228,-7.99168,0.231717,
2,1,0,1,0,5118.27,0.23951,0.239217,3.31901,3,0.016348,10,0.000793965,-2.47899,-2.7358,-0.0215659,-2.78787,0.239217,
2,1,0,1,0,5118.37,0.247006,0.246693,3.26352,3,0.0166573,10,0.000805089,-2.48631,-0.882964,-0.0668204,-8.51024,0.246693,
2,1,0,1,0,5118.46,0.254494,0.254199,3.22679,3,0.0169623,10,0.000820244,-2.49123,-0.971673,-0.06072,-7.64817,0.254199,
2,1,0,1,0,5118.55,0.261983,0.261716,3.1915,3,0.0172636,10,0.000835267,-2.496,-2.38708,-0.0247164,-3.07634,0.261716,
2,1,0,1,0,5118.65,0.26947,0.269178,3.14984,3,0.0175617,10,0.00084787,-2.50171,-2.49532,-0.0236443,-2.91241,0.269178,
2,1,0,1,0,5118.74,0.276959,0.276665,3.12316,3,0.0178566,10,0.00086407,-2.50541,-1.01078,-0.058371,-7.11437,0.276665,
2,1,0,1,0,5118.83,0.284461,0.284168,3.09368,3,0.018149,10,0.000879124,-2.50952,-3.8463,-0.0153394,-1.84999,0.284168,
2,1,0,1,0,5118.93,0.29195,0.291674,3.05,3,0.0184377,10,0.000889607,-2.5157,-1.21908,-0.0483973,-5.76613,0.291674,
2,1,0,1,0,5119.02,0.299438,0.299172,3.02065,3,0.0187233,10,0.000903694,-2.5199,-0.0208212,-2.83365,-297.472,0.299172,
2,0,0,1,0,5119.1,0.29424,0.293951,-0.836737,3,0.0187558,10,-0.00024596,-3.07741,-0.0120588,-4.89271,136.606,0.293951,
2,0,0,1,0,5119.19,0.286753,0.286448,-1.29926,3,0.0186503,10,-0.000372172,-2.8863,-0.0838947,-0.703263,35.5899,0.286448,
2,0,0,1,0,5119.29,0.279264,0.278976,-1.53872,3,0.0185158,10,-0.000429265,-2.81284,-0.142193,-0.41493,24.7964,0.278976,
2,0,0,1,0,5119.38,0.271776,0.271448,-1.69491,3,0.0183631,10,-0.000460081,-2.77085,-0.156293,-0.377496,25.0358,0.271448,
2,0,0,1,0,5119.48,0.26428,0.26399,-1.83551,3,0.0181963,10,-0.000484555,-2.73624,-0.280993,-0.209969,15.0462,0.26399,
2,0,0,1,0,5119.57,0.256786,0.25648,-1.95527,3,0.0180179,10,-0.000501487,-2.70879,-0.358765,-0.164453,12.4794,0.25648,
2,0,0,1,0,5119.66,0.249296,0.248999,-2.0551,3,0.0178296,10,-0.000511719,-2.68717,-0.3521,-0.167566,13.4241,0.248999,
2,0,0,1,0,5119.76,0.241809,0.241487,-2.13655,3,0.017632,10,-0.000515949,-2.67029,-0.423304,-0.13938,11.6752,0.241487,
2,0,0,1,0,5119.85,0.23432,0.233972,-2.23427,3,0.0174261,10,-0.000522755,-2.65086,-0.542738,-0.108708,9.50373,0.233972,
2,0,0,1,0,5119.94,0.226833,0.226495,-2.32395,3,0.0172118,10,-0.000526364,-2.63377,-0.333351,-0.17699,15.998,0.2264954,
2,0,0,1,0,5120.04,0.219329,0.218969,-2.40605,3,0.016989,10,-0.00052685,-2.6187,-0.463029,-0.127422,11.9732,0.218969,
2,0,0,1,0,5120.13,0.21184,0.211553,-2.50391,3,0.0167583,10,-0.000529711,-2.60138,-0.809852,-0.0728528,7.10144,0.211553,
2,0,0,1,0,5120.22,0.204353,0.204019,-2.602,3,0.0165189,10,-0.000530856,-2.58469,-0.488547,-0.120766,12.2463,0.204019,
2,0,0,1,0,5120.32,0.196863,0.19657,-2.69242,3,0.0162703,10,-0.000529248,-2.56986,-0.419566,-0.140621,14.8257,0.19657,
2,0,0,1,0,5120.41,0.189376,0.189044,-2.82126,3,0.016011,10,-0.000533341,-2.54956,-0.458603,-0.128652,14.1773,0.189044,
2,0,0,1,0,5120.51,0.18188,0.181589,-2.98022,3,0.0157388,10,-0.000541176,-2.52575,-0.271451,-0.21735,25.2177,0.181589,
2,0,0,1,0,5120.6,0.174385,0.174056,-3.16696,3,0.0154506,10,-0.000551228,-2.49936,-0.226912,-0.260012,32.1643,0.174056,
2,0,0,1,0,5120.69,0.166896,0.166553,-3.44647,3,0.015141,10,-0.000574021,-2.46263,-0.199852,-0.295218,39.6751,0.166553,
2,0,0,1,0,5120.79,0.159409,0.159073,-3.84383,3,0.0148006,10,-0.00061145,-2.41524,-0.133566,-0.441728,66.2422,0.159073,
2,0,0,1,0,5120.88,0.151919,0.151619,-4.43787,3,0.014414,10,-0.000672864,-2.35283,-0.103582,-0.569595,99.1215,0.151619,
2,0,0,1,0,5120.97,0.144425,0.144095,-5.3751,3,0.0139556,10,-0.000774525,-2.26961,-0.086282,-0.683804,143.643,0.144095,
2,0,0,1,0,5121.07,0.136929,0.136622,-6.60981,3,0.0133949,10,-0.000903044,-2.17981,-0.085606,-0.689204,177.64,0.136622,
2,0,0,1,0,5121.16,0.129441,0.129112,-7.88593,3,0.0127147,10,-0.00101817,-2.10315,-0.110208,-0.53535,164.643,0.129112,
2,0,0,1,0,5121.25,0.121952,0.121628,-8.94279,3,0.0119228,10,-0.00108769,-2.04853,-0.190028,-0.310481,108.084,0.121628,
2,0,0,1,0,5121.35,0.114465,0.11417,-9.6051,3,0.0110509,10,-0.00109661,-2.0175,-0.379846,-0.155326,58.0978,0.11417,
2,0,0,1,0,5121.44,0.106976,0.10669,-9.82926,3,0.0101372,10,-0.00104869,-2.00748,-3.59599,-0.0164071,6.29052,0.10669,
2,0,0,1,0,5121.54,0.0994721,0.0991571,-9.69439,3,0.00921689,10,-0.000961268,-2.01348,0.518515,0.113787,-43.0352,0.0991571,
2,0,0,1,0,5121.63,0.0919847,0.0916663,-9.24936,3,0.0083274,10,-0.000847855,-2.03389,0.283463,0.20814,-75.0293,0.0916663,
2,0,0,1,0,5121.72,0.0844973,0.0841657,-8.64806,3,0.00748906,10,-0.00072787,-2.06308,0.269288,0.219096,-73.9689,0.0841657,
2,0,0,1,0,5121.82,0.0770082,0.0766566,-8.14302,3,0.00670378,10,-0.000624216,-2.08921,0.311156,0.189616,-60.2573,0.07665655,
2,0,0,1,0,5121.91,0.0695208,0.0692476,-7.7948,3,0.00595857,10,-0.000539771,-2.10819,0.444068,0.132863,-40.4031,0.0692476,
2,0,0,1,0,5122,0.0620245,0.0616752,-7.52401,3,0.0052408,10,-0.000464045,-2.12355,0.56391,0.104627,-30.7206,0.0616752,
2,0,0,1,0,5122.1,0.0545282,0.0542191,-7.27556,3,0.00454653,10,-0.000394474,-2.13813,0.529236,0.111482,-31.669,0.0542191,
2,0,0,1,0,5122.19,0.0470408,0.0467157,-7.02672,3,0.00387594,10,-0.000328258,-2.15325,0.4359,0.135352,-37.1199,0.0467157,
2,0,0,1,0,5122.28,0.0395517,0.0392556,-6.75052,3,0.00323041,10,-0.000264996,-2.17066,0.406127,0.145275,-38.1982,0.0392556,
2,0,0,1,0,5122.38,0.0320643,0.0317213,-6.39642,3,0.00261382,10,-0.000202903,-2.19406,0.293111,0.201289,-50.3054,0.03172126,
2,0,0,1,0,5122.47,0.0245751,0.024238,-6.05168,3,0.00203018,10,-0.000146681,-2.21812,0.282945,0.208521,-49.2444,0.024238,
2,0,0,1,0,5122.57,0.0170735,0.016765,-5.72514,3,0.0014776,10,-9.59818e-05,-2.24221,0.388894,0.151712,-33.9538,0.016765,
2,0,0,1,0,5122.66,0.00958429,0.00926128,-5.48944,3,0.000951953,10,-5.08392e-05,-2.26047,0.549365,0.107397,-23.0385,0.00926128,
2,0,0,1,0,5122.75,0.0020969,0.00173747,-5.4153,3,0.000443583,10,-9.40893e-06,-2.26638,1.70034,0.034699,-7.27457,0.00173747,
2,0,0,1,0,5122.78,0.000199195,-0.000147811,-5.35766,3,0.00031571,10,7.91924e-07,-2.27102, , , ,-0.000147811,