File: Figure_codes/Fig_3-5/rawdata_trumpetplot_data/after 10th/20221101_1-115_003_TrumpetPlot_ParaChange_from10_every3_14_CV_C01_23.csv
mode,ox/red,error,control changes,counter inc.,time/s,control/V,Ewe/V,<I>/mA,cycle number,(Q-Qo)/C,I Range,P/W,log(|I|),Tafel slope mV/dec,alpha_eff,dI/d(E-IR),E-IR/V,
2,1,0,1,0,46512.1,2.44065e-05,-0.000268062,33.1479,24,0.0000000E+000,10,-8.88568e-06,-1.47954, , , ,-0.000268062,
2,1,0,1,0,46512.1,0.0133084,0.0129022,36.9187,24,0.000463332,10,0.000476332,-1.43275,0.388482,0.151873,217.915,0.0129022,
2,1,0,1,0,46512.1,0.0273414,0.0270151,39.6074,24,0.000999911,10,0.00107,-1.40222,0.520712,0.113306,174.683,0.0270151,
2,1,0,1,0,46512.1,0.0413245,0.0409817,41.8225,24,0.00157055,10,0.00171396,-1.37859,0.649106,0.0908942,148.18,0.0409817,
2,1,0,1,0,46512.2,0.0553076,0.0549388,43.7872,24,0.0021702,10,0.00240562,-1.35865,0.746119,0.0790759,135.05,0.0549388,
2,1,0,1,0,46512.2,0.0693407,0.0689786,45.595,24,0.00279612,10,0.00314508,-1.34108,0.837562,0.0704425,125.229,0.0689786,
2,1,0,1,0,46512.2,0.0833238,0.0829569,47.2753,24,0.00344643,10,0.00392181,-1.32537,0.898177,0.0656886,121.222,0.0829569,
2,1,0,1,0,46512.2,0.0973069,0.0969097,49.0063,24,0.00412053,10,0.00474919,-1.30975,0.883777,0.0667589,127.735,0.0969097,
2,1,0,1,0,46512.2,0.11134,0.110906,50.8029,24,0.00481941,10,0.00563435,-1.29411,0.913966,0.0645539,127.95,0.110906,
2,1,0,1,0,46512.2,0.125323,0.124886,52.6688,24,0.00554333,10,0.00657762,-1.27845,0.846525,0.0696967,143.225,0.124886,
2,1,0,1,0,46512.2,0.139306,0.138951,54.6802,24,0.00629497,10,0.00759785,-1.26217,0.836263,0.070552,150.717,0.1389506,
2,1,0,1,0,46512.3,0.153339,0.152963,56.9245,24,0.00707628,10,0.00870733,-1.2447,0.802742,0.0734981,163.312,0.1529628,
2,1,0,1,0,46512.3,0.167322,0.166982,59.2645,24,0.00788976,10,0.00989612,-1.22721,0.811995,0.0726605,168,0.166982,
2,1,0,1,0,46512.3,0.181305,0.180955,61.519,24,0.00873584,10,0.0111322,-1.21099,0.925935,0.0637194,152.902,0.180955,
2,1,0,1,0,46512.3,0.195338,0.194956,63.4786,24,0.00961166,10,0.0123755,-1.19737,1.28492,0.0459174,113.524,0.194956,
2,1,0,1,0,46512.3,0.209322,0.208926,64.7008,24,0.0105098,10,0.0135177,-1.18909,2.68041,0.0220116,55.4299,0.208926,
2,1,0,1,0,46512.3,0.223305,0.222975,64.962,24,0.0114186,10,0.0144849,-1.18734,-10.4871,-0.00562598,-14.2334,0.222975,
2,1,0,1,0,46512.3,0.237338,0.236984,64.2616,24,0.0123245,10,0.015229,-1.19205,-1.65019,-0.0357535,-89.4476,0.2369841,
2,1,0,1,0,46512.4,0.251321,0.250959,62.5413,24,0.013213,10,0.0156953,-1.20383,-0.927666,-0.0636004,-154.836,0.250959,
2,1,0,1,0,46512.4,0.265304,0.26499,59.9229,24,0.0140709,10,0.015879,-1.22241,-0.659699,-0.0894348,-208.815,0.26499,
2,1,0,1,0,46512.4,0.279337,0.279041,56.7121,24,0.0148878,10,0.015825,-1.24632,-0.527202,-0.111912,-247.4,0.279041,
2,1,0,1,0,46512.4,0.29332,0.293057,53.1865,24,0.0156567,10,0.0155867,-1.2742,-0.491973,-0.119925,-249.75,0.293057,
2,1,0,1,0,46512.4,0.298714,0.298581,48.6559,24,0.0160713,10,0.0145277,-1.31286,0.0553007,1.06689,1825.4,0.298581,
2,1,0,1,0,46512.4,0.28473,0.284481,30.2012,24,0.0166079,10,0.00859167,-1.51998,0.0681993,0.865111,1024.42,0.284481,
2,1,0,1,0,46512.4,0.270747,0.270509,18.1968,24,0.016941,10,0.0049224,-1.74,0.0561259,1.05121,739.402,0.270509,
2,1,0,1,0,46512.4,0.256714,0.25647,9.19805,24,0.0171289,10,0.00235902,-2.0363,0.035958,1.6408,561.922,0.25647,
2,1,0,1,0,46512.5,0.242731,0.242476,2.25286,24,0.0172065,10,0.000546265,-2.64727,0.0210823,2.79856,441.443,0.242476,
2,0,0,1,0,46512.5,0.228748,0.228472,-3.26305,24,0.0171974,10,-0.000745517,-2.48638,-0.011904,-4.95632,355.474,0.228472,
2,0,0,1,0,46512.5,0.214715,0.214444,-7.77761,24,0.0171184,10,-0.00166786,-2.10915,-0.0589064,-1.00159,289.778,0.214444,
2,0,0,1,0,46512.5,0.200732,0.20047,-11.497,24,0.0169824,10,-0.00230481,-1.93941,-0.105731,-0.558019,245.99,0.20047,
2,0,0,1,0,46512.5,0.186735,0.186404,-14.6907,24,0.0167983,10,-0.0027384,-1.83296,-0.156566,-0.376837,214.267,0.186404,
2,0,0,1,0,46512.5,0.172716,0.172434,-17.5276,24,0.016572,10,-0.00302235,-1.75628,-0.207739,-0.28401,193.494,0.172434,
2,0,0,1,0,46512.5,0.158733,0.158415,-20.205,24,0.0163076,10,-0.00320078,-1.69454,-0.240289,-0.245537,193.412,0.158415,
2,0,0,1,0,46512.6,0.144719,0.144427,-23.0259,24,0.0160053,10,-0.00332555,-1.63778,-0.246249,-0.239595,215.565,0.144427,
2,0,0,1,0,46512.6,0.130717,0.130402,-26.3065,24,0.0156602,10,-0.00343041,-1.57994,-0.231921,-0.254397,262.141,0.1304016,
2,0,0,1,0,46512.6,0.116733,0.116477,-30.4229,24,0.0152637,10,-0.00354358,-1.5168,-0.217497,-0.271269,322.39,0.116477,
2,0,0,1,0,46512.6,0.102703,0.102423,-35.2404,24,0.0148044,10,-0.00360942,-1.45296,-0.230986,-0.255427,350.272,0.102423,
2,0,0,1,0,46512.6,0.0887172,0.0884307,-40.077,24,0.0142767,10,-0.00354403,-1.39711,-0.272376,-0.216612,337.727,0.0884307,
2,0,0,1,0,46512.6,0.0747341,0.0744927,-44.5705,24,0.013683,10,-0.00332017,-1.35095,-0.346402,-0.170322,294.959,0.0744927,
2,0,0,1,0,46512.6,0.0607011,0.060472,-48.4391,24,0.0130316,10,-0.00292921,-1.3148,-0.444419,-0.132757,249.885,0.060472,
2,0,0,1,0,46512.7,0.046718,0.0464906,-51.4754,24,0.0123311,10,-0.00239312,-1.2884,-0.617147,-0.0956013,191.584,0.0464906,
2,0,0,1,0,46512.7,0.0327349,0.032507,-53.8348,24,0.011593,10,-0.00175001,-1.26894,-0.824356,-0.071571,150.148,0.03250698,
2,0,0,1,0,46512.7,0.0187018,0.0183909,-55.7541,24,0.0108254,10,-0.00102536,-1.25372,-1.13501,-0.0519819,112.799,0.0183909,
2,0,0,1,0,46512.7,0.00471873,0.00441151,-56.9888,24,0.0100354,10,-0.000251407,-1.24421,-1.78754,-0.0330062,73.3431,0.00441151,
2,0,0,1,0,46512.7,-0.00926438,-0.00961449,-57.7735,24,0.0092311,10,0.000555462,-1.23827,-3.80461,-0.0155075,34.9241,-0.00961449,
2,0,0,1,0,46512.7,-0.0232974,-0.0236553,-58.0833,24,0.00841969,10,0.00137398,-1.23595,-36.7095,-0.00160721,3.63602,-0.0236553,
2,0,0,1,0,46512.7,-0.0372805,-0.037622,-57.8719,24,0.00760768,10,0.00217725,-1.23753,4.90545,0.0120274,-27.1376,-0.037622,
2,0,0,1,0,46512.8,-0.0512636,-0.0516564,-57.3356,24,0.00680098,10,0.00296175,-1.24158,2.93812,0.0200809,-44.9213,-0.0516564,
2,0,0,1,0,46512.8,-0.0652967,-0.0656432,-56.7113,24,0.00600277,10,0.00372271,-1.24633,2.69076,0.0219269,-48.4959,-0.0656432,
2,0,0,1,0,46512.8,-0.0792798,-0.0795717,-55.9988,24,0.00521405,10,0.00445592,-1.25182,2.73327,0.0215859,-47.1834,-0.0795717,
2,0,0,1,0,46512.8,-0.0932629,-0.0935987,-55.3946,24,0.00443449,10,0.00518486,-1.25653,3.42682,0.0172171,-37.2444,-0.0935987,
2,0,0,1,0,46512.8,-0.107296,-0.107649,-55.0051,24,0.00366199,10,0.00592125,-1.2596,5.57686,0.0105794,-22.7134,-0.107649,
2,0,0,1,0,46512.8,-0.121279,-0.121638,-54.7626,24,0.00289399,10,0.00666121,-1.26152,12.0244,0.00490671,-10.4904,-0.121638,
2,0,0,1,0,46512.8,-0.135262,-0.135643,-54.6972,24,0.00212803,10,0.00741928,-1.26204,-35.4907,-0.00166241,3.55158,-0.1356428,
2,0,0,1,0,46512.9,-0.149295,-0.14964,-54.8836,24,0.00136107,10,0.00821279,-1.26056,-7.38184,-0.00799258,17.1221,-0.14964,
2,0,0,1,0,46512.9,-0.163278,-0.16362,-55.1666,24,0.000590843,10,0.00902634,-1.25832,-5.41885,-0.0108879,23.4422,-0.1636195,
2,0,0,1,0,46512.9,-0.177261,-0.177622,-55.5197,24,-0.000183866,10,0.00986154,-1.25555,-4.62138,-0.0127667,27.6646,-0.1776222,
2,0,0,1,0,46512.9,-0.191295,-0.191617,-55.9367,24,-0.000964094,10,0.0107184,-1.2523,-4.42073,-0.0133462,29.1245,-0.191617,
2,0,0,0,1,46512.9,-0.199984,-0.200437,-55.8199,24,-0.00148525,10,0.0111884,-1.25321,-0.04047,-1.45787,2822.6,-0.2004368,
2,0,0,1,1,46512.9,-0.186686,-0.187115,-36.9936,24,-0.0020709,10,0.00692205,-1.43187,-0.084565,-0.697689,1020.86,-0.187115,
2,0,0,1,1,46512.9,-0.172667,-0.173109,-25.3567,24,-0.00250165,10,0.00438948,-1.59591,-0.0810923,-0.727566,719.148,-0.1731091,
2,0,0,1,1,46512.9,-0.158684,-0.159115,-16.3964,24,-0.00279076,10,0.00260892,-1.78525,-0.0641216,-0.920127,581.125,-0.159115,
2,0,0,1,1,46513,-0.14467,-0.145131,-8.87713,24,-0.00296581,10,0.00128835,-2.05173,-0.0389964,-1.51296,498.322,-0.145131,
2,0,0,1,1,46513,-0.130668,-0.131054,-2.38851,24,-0.00304309,10,0.000313025,-2.62187,-0.0203505,-2.8992,438.043,-0.1310544,
2,1,0,1,1,46513,-0.116685,-0.117122,3.39136,24,-0.00303481,10,-0.000397202,-2.46963,0.0100731,5.85718,394.738,-0.117122,
2,1,0,1,1,46513,-0.102654,-0.103128,8.69982,24,-0.00294937,10,-0.000897191,-2.06049,0.0525247,1.12328,362.732,-0.103128,
2,1,0,1,1,46513,-0.0886685,-0.0891238,13.5514,24,-0.00279271,10,-0.00120776,-1.86801,0.0918782,0.642154,333.527,-0.0891238,
2,1,0,1,1,46513,-0.0746854,-0.0750946,18.0378,24,-0.00257079,10,-0.00135454,-1.74382,0.133597,0.441627,307.837,-0.0750946,
2,1,0,1,1,46513,-0.0606523,-0.0610676,22.2132,24,-0.00228849,10,-0.0013565,-1.65339,0.178454,0.330617,284.465,-0.0610676,
2,1,0,1,1,46513.1,-0.0466692,-0.0470628,25.9843,24,-0.00195042,10,-0.00122289,-1.58529,0.229817,0.256725,259.232,-0.0470628,
2,1,0,1,1,46513.1,-0.0326861,-0.033059,29.4568,24,-0.00156162,10,-0.000973812,-1.53082,0.28359,0.208047,238.455,-0.033059,
2,1,0,1,1,46513.1,-0.018653,-0.0190415,32.6617,24,-0.00112624,10,-0.000621928,-1.48596,0.346751,0.170151,216.189,-0.0190415,
2,1,0,1,1,46513.1,-0.00466992,-0.0050558,35.4922,24,-0.000648546,10,-0.000179442,-1.44987, , , ,-0.0050558,
2,1,0,0,1,46513.1,-0.000175352,-0.000535284,36.3414,24,-0.000486927,10,-1.9453e-05,-1.4396, , , ,-0.000535284,