File: Figure_codes/Fig_3-5/rawdata_trumpetplot_data/after 10th/20221101_1-115_003_TrumpetPlot_ParaChange_from10_every3_08_CV_C01_17.csv
mode,ox/red,error,control changes,counter inc.,time/s,control/V,Ewe/V,<I>/mA,cycle number,(Q-Qo)/C,I Range,P/W,log(|I|),Tafel slope mV/dec,alpha_eff,dI/d(E-IR),E-IR/V,
2,0,0,0,0,34667.2,2.44065e-05,-0.000363498,-4.01989,18,0.0000000E+000,10,1.46122e-06,-2.39579, , , ,-0.000363498,
2,1,0,1,0,34667.3,0.00729419,0.00695649,0.81886,18,-7.98434e-05,10,5.69639e-06,-3.08679,0.00417507,14.1315,294.852,0.00695649,
2,1,0,1,0,34667.4,0.0147816,0.014499,2.17306,18,7.0866e-05,10,3.15073e-05,-2.66293,0.0421005,1.40141,117.044,0.014499,
2,1,0,1,0,34667.5,0.0222707,0.0219417,2.808,18,0.000307725,10,6.16125e-05,-2.5516,0.0983963,0.599616,65.5487,0.0219417,
2,1,0,1,0,34667.6,0.0297581,0.0294223,3.24354,18,0.000592706,10,9.54324e-05,-2.48898,0.148892,0.396262,50.0348,0.0294223,
2,1,0,1,0,34667.7,0.0372544,0.0369272,3.60301,18,0.000914527,10,0.000133049,-2.44333,0.175844,0.335525,47.1216,0.0369272,
2,1,0,1,0,34667.8,0.0447507,0.0444699,3.93161,18,0.00126911,10,0.000174838,-2.40543,0.195897,0.301178,46.329,0.0444699,
2,1,0,1,0,34667.9,0.0522381,0.0519306,4.2552,18,0.00165423,10,0.000220975,-2.37108,0.24416,0.241645,40.18,0.0519306,
2,1,0,1,0,34668,0.0597273,0.0594142,4.57486,18,0.00206861,10,0.000271812,-2.33962,0.259499,0.227361,40.5035,0.0594142,
2,1,0,1,0,34668.1,0.0672147,0.0669169,4.85056,18,0.00251058,10,0.000324584,-2.31421,0.29305,0.201331,38.0993,0.0669169,
2,1,0,1,0,34668.2,0.0747038,0.0743875,5.10738,18,0.00297808,10,0.000379925,-2.2918,0.399216,0.14779,29.4552,0.07438755,
2,1,0,1,0,34668.3,0.0822055,0.0819056,5.3381,18,0.00346934,10,0.00043722,-2.27261,0.456289,0.129304,26.9099,0.0819056,
2,1,0,1,0,34668.4,0.0896946,0.0893646,5.53464,18,0.00397945,10,0.000494601,-2.25691,0.456845,0.129147,27.9279,0.0893646,
2,1,0,1,0,34668.4,0.097182,0.0969085,5.76007,18,0.00450914,10,0.0005582,-2.23957,0.37091,0.159068,35.8031,0.09690854,
2,1,0,1,0,34668.5,0.104671,0.104376,6.09786,18,0.00506417,10,0.000636473,-2.21482,0.273714,0.215553,51.2431,0.104376,
2,1,0,1,0,34668.6,0.112159,0.111815,6.52803,18,0.00565481,10,0.00072993,-2.18522,0.236968,0.248979,63.3975,0.111815,
2,1,0,1,0,34668.7,0.119655,0.119346,7.00463,18,0.00628998,10,0.000835976,-2.15462,0.278665,0.211724,57.8364,0.119346,
2,1,0,1,0,34668.8,0.127149,0.126834,7.38517,18,0.00696618,10,0.000936693,-2.13164,0.40747,0.144796,41.715,0.126834,
2,1,0,1,0,34668.9,0.134639,0.134296,7.65931,18,0.00767219,10,0.00102862,-2.11581,0.572165,0.103117,30.8123,0.134296,
2,1,0,1,0,34669,0.142126,0.141834,7.81769,18,0.00839865,10,0.00110882,-2.10692,1.66259,0.0354868,10.8161,0.141834,
2,1,0,1,0,34669.1,0.149615,0.149305,7.70396,18,0.0091296,10,0.00115024,-2.11329,-0.344287,-0.171368,-51.3456,0.149305,
2,1,0,1,0,34669.2,0.157102,0.156806,7.02131,18,0.00982419,10,0.00110098,-2.15358,-0.123188,-0.478943,-130.741,0.1568059,
2,1,0,1,0,34669.3,0.164606,0.164308,5.91247,18,0.0104327,10,0.000971464,-2.22823,-0.0923544,-0.638844,-147.526,0.164308,
2,1,0,1,0,34669.4,0.172095,0.17176,4.95985,18,0.0109404,10,0.000851905,-2.30453,-0.106271,-0.555184,-107.812,0.17176,
2,1,0,1,0,34669.5,0.179582,0.179282,4.34245,18,0.0113746,10,0.000778524,-2.36227,-0.152502,-0.386879,-65.6669,0.179282,
2,1,0,1,0,34669.6,0.18707,0.186714,3.94673,18,0.0117621,10,0.000736911,-2.40376,-0.222566,-0.26509,-40.8538,0.186714,
2,1,0,1,0,34669.7,0.194559,0.194239,3.6909,18,0.0121197,10,0.000716914,-2.43287,-0.295552,-0.199626,-28.7653,0.194239,
2,1,0,1,0,34669.8,0.202062,0.201726,3.52089,18,0.0124582,10,0.000710254,-2.45335,-0.430541,-0.137037,-18.7929,0.201726,
2,1,0,1,0,34669.9,0.20955,0.209217,3.39537,18,0.0127826,10,0.000710369,-2.46911,-0.569646,-0.103573,-13.7376,0.209217,
2,1,0,1,0,34669.9,0.217039,0.216699,3.3033,18,0.0130973,10,0.000715824,-2.48105,-0.609879,-0.0967404,-12.5111,0.2166995,
2,1,0,1,0,34670,0.224526,0.22425,3.24872,18,0.013405,10,0.000728527,-2.48829,-0.752821,-0.0783719,-9.92779,0.22425,
2,1,0,1,0,34670.1,0.232016,0.231705,3.19082,18,0.0137073,10,0.000739327,-2.4961,-1.94062,-0.0304026,-3.79005,0.231705,
2,1,0,1,0,34670.2,0.23951,0.239206,3.14868,18,0.0140057,10,0.000753183,-2.50187,-2.81183,-0.0209828,-2.58284,0.239206,
2,1,0,1,0,34670.3,0.247006,0.246742,3.12525,18,0.0143007,10,0.000771131,-2.50511,-1.34621,-0.0438267,-5.33669,0.246742,
2,1,0,1,0,34670.4,0.254494,0.254169,3.09173,18,0.0145924,10,0.000785819,-2.5098,-3.60338,-0.0163735,-1.97406,0.254169,
2,1,0,1,0,34670.5,0.261983,0.261651,3.06233,18,0.0148815,10,0.00080126,-2.51395,-1.6345,-0.0360966,-4.31365,0.2616508,
2,1,0,1,0,34670.6,0.26947,0.269139,3.0424,18,0.0151682,10,0.00081883,-2.51678,-2.07872,-0.0283828,-3.3656,0.269139,
2,1,0,1,0,34670.7,0.276959,0.276633,3.01476,18,0.0154526,10,0.000833983,-2.52075,-22.8318,-0.00258412,-0.304154,0.276633,
2,1,0,1,0,34670.8,0.284461,0.284148,2.9847,18,0.0157353,10,0.000848097,-2.5251,-3.45877,-0.0170581,-1.99148,0.284148,
2,1,0,1,0,34670.9,0.29195,0.291686,2.96633,18,0.016015,10,0.000865238,-2.52778,-1.0875,-0.0542526,-6.27288,0.291686,
2,1,0,1,0,34671,0.299438,0.299156,2.94305,18,0.0162923,10,0.000880432,-2.5312,-0.0304105,-1.94012,-204.666,0.299156,
2,0,0,1,0,34671.1,0.29424,0.293957,-0.290919,18,0.0163657,10,-8.55179e-05,-3.53623,-0.00819498,-7.19953,195.177,0.2939575,
2,0,0,1,0,34671.2,0.286753,0.286449,-1.03556,18,0.0162954,10,-0.000296637,-2.98482,-0.0431099,-1.3686,54.5354,0.286449,
2,0,0,1,0,34671.2,0.279264,0.278986,-1.33979,18,0.0161819,10,-0.000373782,-2.87296,-0.0953307,-0.618898,32.2427,0.278986,
2,0,0,1,0,34671.3,0.271776,0.271464,-1.52872,18,0.016046,10,-0.000414992,-2.81567,-0.153956,-0.383227,22.9287,0.271464,
2,0,0,1,0,34671.4,0.26428,0.263984,-1.68491,18,0.0158941,10,-0.00044479,-2.77342,-0.215453,-0.273842,17.9634,0.263984,
2,0,0,1,0,34671.5,0.256786,0.256458,-1.8052,18,0.0157296,10,-0.000462957,-2.74348,-0.251422,-0.234665,16.4812,0.256458,
2,0,0,1,0,34671.6,0.249296,0.248944,-1.90546,18,0.0155548,10,-0.000474353,-2.72,-0.39829,-0.148133,11.0303,0.248944,
2,0,0,1,0,34671.7,0.241809,0.241448,-2.00445,18,0.0153706,10,-0.000483971,-2.698,-0.466023,-0.126603,9.89174,0.241448,
2,0,0,1,0,34671.8,0.23432,0.234017,-2.08895,18,0.015178,10,-0.000488852,-2.68007,-0.368026,-0.160315,13.101,0.234017,
2,0,0,1,0,34671.9,0.226832,0.226543,-2.17232,18,0.0149773,10,-0.000492125,-2.66308,-0.413229,-0.142778,12.0979,0.2265431,
2,0,0,1,0,34672,0.219329,0.219006,-2.26164,18,0.0147687,10,-0.000495313,-2.64558,-0.575598,-0.102502,9.01054,0.219006,
2,0,0,1,0,34672.1,0.21184,0.211543,-2.33844,18,0.014553,10,-0.00049468,-2.63107,-0.517174,-0.114082,10.375,0.211543,
2,0,0,1,0,34672.2,0.204353,0.20404,-2.41475,18,0.0143299,10,-0.000492706,-2.61713,-0.591699,-0.0997128,9.38863,0.20404,
2,0,0,1,0,34672.3,0.196863,0.196557,-2.48803,18,0.0140994,10,-0.00048904,-2.60414,-0.543676,-0.108521,10.5634,0.196557,
2,0,0,1,0,34672.4,0.189376,0.189048,-2.58037,18,0.013861,10,-0.000487813,-2.58832,-0.457961,-0.128832,12.995,0.189048,
2,0,0,1,0,34672.5,0.18188,0.181526,-2.68119,18,0.0136138,10,-0.000486706,-2.57167,-0.390221,-0.151197,15.8106,0.181526,
2,0,0,1,0,34672.6,0.174385,0.174013,-2.79173,18,0.0133565,10,-0.000485796,-2.55413,-0.407194,-0.144894,15.8086,0.174013,
2,0,0,1,0,34672.6,0.166896,0.166547,-2.9406,18,0.0130877,10,-0.000489747,-2.53156,-0.305401,-0.193189,22.1374,0.166547,
2,0,0,1,0,34672.7,0.159409,0.159034,-3.12747,18,0.0128033,10,-0.000497375,-2.50481,-0.239179,-0.246678,30.1392,0.159034,
2,0,0,1,0,34672.8,0.151919,0.151569,-3.40879,18,0.0124967,10,-0.000516667,-2.4674,-0.174747,-0.33763,45.097,0.151569,
2,0,0,1,0,34672.9,0.144425,0.144075,-3.86868,18,0.0121562,10,-0.00055738,-2.41244,-0.117357,-0.502741,76.1332,0.144075,
2,0,0,1,0,34673,0.136929,0.136572,-4.56538,18,0.0117619,10,-0.000623501,-2.34052,-0.0942118,-0.626249,111.656,0.136572,
2,0,0,1,0,34673.1,0.129441,0.129098,-5.44335,18,0.0112929,10,-0.000702725,-2.26413,-0.102177,-0.577431,122.715,0.129098,
2,0,0,1,0,34673.2,0.121952,0.121627,-6.33271,18,0.0107398,10,-0.00077023,-2.19841,-0.137548,-0.428942,105.791,0.121627,
2,0,0,1,0,34673.3,0.114465,0.114135,-7.05507,18,0.010111,10,-0.000805232,-2.1515,-0.190098,-0.310366,85.3248,0.114135,
2,0,0,1,0,34673.4,0.106976,0.106654,-7.56181,18,0.00942404,10,-0.000806497,-2.12137,-0.336505,-0.175332,51.7323,0.106654,
2,0,0,1,0,34673.5,0.0994721,0.0991417,-7.83836,18,0.00869839,10,-0.000777109,-2.10577,-1.14384,-0.0515807,15.7582,0.0991417,
2,0,0,1,0,34673.6,0.0919847,0.0916435,-7.82626,18,0.00796261,10,-0.000717226,-2.10645,1.45666,0.0405037,-12.3556,0.0916435,
2,0,0,1,0,34673.7,0.0844973,0.08415,-7.60685,18,0.00723811,10,-0.000640117,-2.11879,0.506901,0.116394,-34.5745,0.08415,
2,0,0,1,0,34673.8,0.0770082,0.0767036,-7.35439,18,0.00653715,10,-0.000564108,-2.13345,0.495092,0.11917,-34.1943,0.0767036,
2,0,0,1,0,34673.9,0.0695208,0.0691835,-7.14969,18,0.00585836,10,-0.000494641,-2.14571,0.799567,0.07379,-20.5916,0.0691835,
2,0,0,1,0,34674,0.0620245,0.0617289,-6.9796,18,0.00519544,10,-0.000430843,-2.15617,0.779659,0.0756741,-20.6425,0.0617289,
2,0,0,1,0,34674.1,0.0545282,0.0541932,-6.83049,18,0.00454707,10,-0.000370166,-2.16555,0.789742,0.0747079,-19.9221,0.0541932,
2,0,0,1,0,34674.1,0.0470408,0.0467215,-6.669,18,0.00391412,10,-0.000311586,-2.17594,0.697841,0.0845465,-22.0019,0.0467215,
2,0,0,1,0,34674.2,0.0395517,0.0391824,-6.49363,18,0.00329736,10,-0.000254436,-2.18751,0.636051,0.0927599,-23.4756,0.0391824,
2,0,0,1,0,34674.3,0.0320643,0.0317056,-6.28259,18,0.00269865,10,-0.000199193,-2.20186,0.418089,0.141118,-34.5759,0.0317056,
2,0,0,1,0,34674.4,0.0245751,0.0242462,-6.04597,18,0.00212079,10,-0.000146592,-2.21853,0.420089,0.140446,-33.133,0.02424619,
2,0,0,1,0,34674.5,0.0170735,0.0167445,-5.79668,18,0.00156442,10,-9.70627e-05,-2.23682,0.46717,0.126292,-28.6246,0.0167445,
2,0,0,1,0,34674.6,0.00958428,0.00923163,-5.58845,18,0.00103038,10,-5.15905e-05,-2.25271,0.499627,0.118088,-25.786,0.00923163,
2,0,0,1,0,34674.7,0.0020969,0.00172588,-5.4779,18,0.000513891,10,-9.45421e-06,-2.26139,1.22072,0.048332,-10.2708,0.00172588,
2,0,0,1,0,34674.7,0.000199195,-0.000185986,-5.42483,18,0.000384637,10,1.00894e-06,-2.26561, , , ,-0.000185986,