File: Figure_codes/Fig_3-5/rawdata_trumpetplot_data/after 10th/20221101_1-115_003_TrumpetPlot_ParaChange_from10_every3_13_CV_C01_10.csv
mode,ox/red,error,control changes,counter inc.,time/s,control/V,Ewe/V,<I>/mA,cycle number,(Q-Qo)/C,I Range,P/W,log(|I|),Tafel slope mV/dec,alpha_eff,dI/d(E-IR),E-IR/V,
2,1,0,1,0,20899.2,2.44065e-05,-0.000306236,21.1244,11,0.0000000E+000,10,-6.46904e-06,-1.67522, , , ,-0.000306236,
2,1,0,1,0,20899.2,0.0122624,0.0119171,25.2997,11,0.000355803,10,0.000301498,-1.59688,0.225938,0.261134,256.036,0.01191707,
2,1,0,1,0,20899.2,0.0250636,0.0247024,28.1123,11,0.000784377,10,0.00069444,-1.5511,0.329453,0.179085,195.881,0.0247024,
2,1,0,1,0,20899.2,0.0378704,0.0374739,30.3986,11,0.00125315,10,0.00113916,-1.51715,0.419508,0.140641,166.617,0.0374739,
2,1,0,1,0,20899.2,0.0506632,0.0502911,32.4403,11,0.00175636,10,0.00163146,-1.48891,0.473108,0.124707,157.866,0.0502911,
2,1,0,1,0,20899.2,0.0634672,0.0631082,34.4643,11,0.00229191,10,0.00217498,-1.46263,0.501363,0.117679,158.253,0.0631082,
2,1,0,1,0,20899.3,0.0762629,0.0758808,36.547,11,0.00286007,10,0.00277322,-1.43715,0.505891,0.116626,166.28,0.0758808,
2,1,0,1,0,20899.3,0.0890668,0.0886884,38.72,11,0.0034622,10,0.00343401,-1.41207,0.511984,0.115238,174.098,0.0886884,
2,1,0,1,0,20899.3,0.10186,0.101469,40.9674,11,0.00409985,10,0.00415694,-1.38756,0.520406,0.113373,181.334,0.101469,
2,1,0,1,0,20899.3,0.114666,0.114274,43.3312,11,0.00477461,10,0.00495163,-1.3632,0.537648,0.109737,185.564,0.114274,
2,1,0,1,0,20899.3,0.127462,0.127086,45.7146,11,0.00548703,10,0.00580967,-1.33994,0.53324,0.110644,197.689,0.1270857,
2,1,0,1,0,20899.3,0.140263,0.139905,48.4242,11,0.00624038,10,0.00677478,-1.31494,0.515136,0.114533,216.484,0.139905,
2,1,0,1,0,20899.4,0.153064,0.152697,51.2872,11,0.00703813,10,0.00783138,-1.28999,0.521386,0.11316,226.412,0.152697,
2,1,0,1,0,20899.4,0.165866,0.165513,54.1446,11,0.00788205,10,0.00896162,-1.26644,0.579789,0.101761,214.843,0.165513,
2,1,0,1,0,20899.4,0.178667,0.178312,56.6973,11,0.00876973,10,0.0101098,-1.24644,0.730585,0.0807572,178.443,0.178312,
2,1,0,1,0,20899.4,0.191463,0.191073,58.599,11,0.00969365,10,0.0111967,-1.23211,1.28596,0.0458801,104.627,0.191073,
2,1,0,1,0,20899.4,0.204269,0.203937,59.1995,11,0.0106383,10,0.0120729,-1.22768,-5.5812,-0.0105712,-24.3197,0.203937,
2,1,0,1,0,20899.4,0.217062,0.216725,57.8806,11,0.0115775,10,0.0125442,-1.23747,-0.726644,-0.0811951,-182.577,0.216725,
2,1,0,1,0,20899.4,0.229866,0.229554,54.5836,11,0.0124793,10,0.0125299,-1.26294,-0.391114,-0.150851,-320.181,0.229554,
2,1,0,1,0,20899.5,0.242662,0.242339,49.9193,11,0.0133161,10,0.0120974,-1.30173,-0.298764,-0.19748,-384.27,0.242339,
2,1,0,1,0,20899.5,0.255466,0.255162,45.0023,11,0.0140749,10,0.0114828,-1.34677,-0.281468,-0.209616,-368.406,0.255162,
2,1,0,1,0,20899.5,0.268259,0.26795,40.6029,11,0.0147583,10,0.0108795,-1.39144,-0.298834,-0.197434,-313.449,0.26795,
2,1,0,1,0,20899.5,0.281065,0.280757,37.0431,11,0.0153781,10,0.0104001,-1.43129,-0.347498,-0.169785,-245.902,0.280757,
2,1,0,1,0,20899.5,0.293861,0.293532,34.2423,11,0.0159472,10,0.0100512,-1.46544,-0.411984,-0.14321,-192.114,0.293532,
2,1,0,1,0,20899.5,0.298983,0.298846,30.7013,11,0.016247,10,0.00917495,-1.51284,0.0317416,1.85876,1890.93,0.2988461,
2,1,0,1,0,20899.6,0.286187,0.285922,12.7978,11,0.0165745,10,0.00365916,-1.89287,0.0292171,2.01936,993.218,0.285922,
2,1,0,1,0,20899.6,0.273386,0.273121,2.96547,11,0.0166933,10,0.00080993,-2.52791,0.0112945,5.22377,608.161,0.273121,
2,0,0,1,0,20899.6,0.260585,0.2603,-3.38757,11,0.0166859,10,-0.000881786,-2.47011,-0.0123796,-4.76589,406.822,0.2603,
2,0,0,1,0,20899.6,0.247783,0.247536,-7.75443,11,0.0165944,10,-0.0019195,-2.11045,-0.0591994,-0.996632,289.537,0.247536,
2,0,0,1,0,20899.6,0.234982,0.234637,-10.9293,11,0.0164434,10,-0.00256442,-1.96141,-0.114807,-0.513906,216.099,0.234637,
2,0,0,1,0,20899.6,0.222187,0.221901,-13.3442,11,0.0162481,10,-0.0029611,-1.87471,-0.180552,-0.326777,169.183,0.2219009,
2,0,0,1,0,20899.6,0.20938,0.209034,-15.3103,11,0.0160181,10,-0.00320037,-1.81502,-0.250785,-0.235261,140.076,0.209034,
2,0,0,1,0,20899.7,0.196587,0.196287,-16.9653,11,0.0157593,10,-0.00333006,-1.77044,-0.323063,-0.182627,120.683,0.196287,
2,0,0,1,0,20899.7,0.183783,0.183435,-18.4699,11,0.0154756,10,-0.00338801,-1.73354,-0.366596,-0.16094,115.884,0.183435,
2,0,0,1,0,20899.7,0.170987,0.170669,-19.9462,11,0.0151682,10,-0.0034042,-1.70014,-0.384483,-0.153453,119.531,0.170669,
2,0,0,1,0,20899.7,0.158183,0.157888,-21.5791,11,0.0148361,10,-0.0034071,-1.66597,-0.352369,-0.167438,141.33,0.157888,
2,0,0,1,0,20899.7,0.145385,0.14508,-23.6424,11,0.0144748,10,-0.00343003,-1.62631,-0.28908,-0.204096,188.996,0.14508,
2,0,0,1,0,20899.7,0.132584,0.13227,-26.5113,11,0.0140745,10,-0.00350664,-1.57657,-0.231406,-0.254963,264.791,0.13227,
2,0,0,1,0,20899.8,0.119783,0.119532,-30.4501,11,0.0136199,10,-0.00363978,-1.51641,-0.200588,-0.294135,350.368,0.119532,
2,0,0,1,0,20899.8,0.106987,0.10671,-35.2951,11,0.013094,10,-0.00376634,-1.45229,-0.208656,-0.282763,388.968,0.10671,
2,0,0,1,0,20899.8,0.0941801,0.093896,-40.2648,11,0.0124887,10,-0.00378071,-1.39507,-0.247357,-0.238522,373.589,0.093896,
2,0,0,1,0,20899.8,0.0813844,0.081133,-44.814,11,0.0118072,10,-0.00363589,-1.34859,-0.306057,-0.192774,336.164,0.081133,
2,0,0,1,0,20899.8,0.0685832,0.0683402,-48.6997,11,0.0110574,10,-0.00332815,-1.31247,-0.416425,-0.141682,268.55,0.0683402,
2,0,0,1,0,20899.8,0.0557876,0.0555284,-51.6754,11,0.0102529,10,-0.00286945,-1.28672,-0.611382,-0.0965027,194.103,0.0555284,
2,0,0,1,0,20899.9,0.0429808,0.0426816,-53.6515,11,0.00940856,10,-0.00228993,-1.27042,-1.07478,-0.0548948,114.685,0.0426816,
2,0,0,1,0,20899.9,0.030188,0.029857,-54.6833,11,0.00854065,10,-0.00163268,-1.26215,-2.33857,-0.0252291,53.7748,0.029857,
2,0,0,1,0,20899.9,0.017384,0.0170929,-55.0971,11,0.00766151,10,-0.000941769,-1.25887,-9.26556,-0.00636767,13.68,0.0170929,
2,0,0,1,0,20899.9,0.00458834,0.00426518,-55.0711,11,0.00677959,10,-0.000234888,-1.25908,9.03949,0.00652692,-14.0215,0.00426518,
2,0,0,1,0,20899.9,-0.00821564,-0.00860074,-54.7052,11,0.0059006,10,0.000470505,-1.26197,2.68518,0.0219725,-46.8679,-0.00860074,
2,0,0,1,0,20899.9,-0.0210196,-0.0213797,-53.8908,11,0.00503129,10,0.00115217,-1.26849,1.49812,0.0393827,-82.7275,-0.0213797,
2,0,0,1,0,20900,-0.0338153,-0.0341799,-52.6025,11,0.00417884,10,0.00179795,-1.27899,1.07651,0.0548065,-112.449,-0.0341799,
2,0,0,1,0,20900,-0.0466193,-0.0470034,-51.067,11,0.0033494,10,0.00240032,-1.29186,0.946183,0.0623558,-124.254,-0.0470034,
2,0,0,1,0,20900,-0.0594121,-0.0597707,-49.5489,11,0.00254493,10,0.00296157,-1.30497,1.0581,0.0557605,-107.886,-0.0597707,
2,0,0,1,0,20900,-0.0722189,-0.0725624,-48.3469,11,0.00176244,10,0.00350817,-1.31563,1.45382,0.0405827,-76.6491,-0.0725624,
2,0,0,1,0,20900,-0.0850146,-0.0854028,-47.5702,11,0.00099574,10,0.00406263,-1.32267,2.55275,0.0231123,-42.9626,-0.0854028,
2,0,0,1,0,20900,-0.0978158,-0.0981468,-47.2388,11,0.000237747,10,0.00463634,-1.3257,11.2331,0.00525233,-9.69451,-0.0981468,
2,0,0,1,0,20900,-0.110611,-0.110974,-47.3053,11,-0.000518229,10,0.00524964,-1.32509,-5.6117,-0.0105137,19.4313,-0.1109735,
2,0,0,1,0,20900.1,-0.123418,-0.123785,-47.7457,11,-0.0012783,10,0.00591021,-1.32107,-2.40212,-0.0245616,45.7934,-0.123785,
2,0,0,1,0,20900.1,-0.136214,-0.136602,-48.4548,11,-0.00204762,10,0.00661904,-1.31466,-1.74589,-0.0337937,63.9302,-0.136602,
2,0,0,1,0,20900.1,-0.149015,-0.149385,-49.3673,11,-0.00283014,10,0.00737472,-1.30656,-1.49167,-0.0395531,76.2127,-0.1493846,
2,0,0,1,0,20900.1,-0.161816,-0.162171,-50.3614,11,-0.00362809,10,0.00816716,-1.2979,-1.47676,-0.0399522,78.5268,-0.162171,
2,0,0,1,0,20900.1,-0.174615,-0.17494,-51.3549,11,-0.00444215,10,0.00898405,-1.28942,-1.51976,-0.0388218,77.8156,-0.17494,
2,0,0,1,0,20900.1,-0.187419,-0.187744,-52.328,11,-0.0052719,10,0.00982426,-1.28127,-1.68628,-0.0349882,71.4351,-0.187744,
2,0,0,1,0,20900.2,-0.199647,-0.199998,-53.1939,11,-0.00607938,10,0.0106387,-1.27414,0.271578,0.217249,-437.594,-0.199998,
2,0,0,1,1,20900.2,-0.192535,-0.192986,-39.5959,11,-0.00654416,10,0.00764147,-1.40235,-0.0640183,-0.921611,1453.29,-0.192986,
2,0,0,1,1,20900.2,-0.179739,-0.180143,-25.3839,11,-0.00705503,10,0.00457272,-1.59544,-0.0631095,-0.934883,925.691,-0.180143,
2,0,0,1,1,20900.2,-0.166932,-0.167358,-15.0596,11,-0.00737403,10,0.00252035,-1.82219,-0.0475077,-1.24191,718.642,-0.1673585,
2,0,0,1,1,20900.2,-0.154139,-0.154591,-6.77833,11,-0.00754572,10,0.00104787,-2.16888,-0.0240203,-2.45626,592.782,-0.1545912,
2,0,0,1,1,20900.2,-0.141335,-0.141762,0.184276,11,-0.00759624,10,-2.61234e-05,-3.73453,0.745031,0.0791913,500.653,-0.141762,
2,1,0,1,1,20900.2,-0.12854,-0.129028,6.18298,11,-0.00754363,10,-0.000797777,-2.2088,0.0294332,2.00454,440.671,-0.129028,
2,1,0,1,1,20900.3,-0.115736,-0.116206,11.4804,11,-0.00740107,10,-0.00133408,-1.94004,0.0657936,0.896744,392.692,-0.116206,
2,1,0,1,1,20900.3,-0.102932,-0.103399,16.2205,11,-0.00717826,10,-0.00167719,-1.78993,0.106101,0.556071,348.466,-0.103399,
2,1,0,1,1,20900.3,-0.0901361,-0.0905829,20.4484,11,-0.00688373,10,-0.00185228,-1.68934,0.15002,0.393281,312.123,-0.0905829,
2,1,0,1,1,20900.3,-0.0773322,-0.0777573,24.2513,11,-0.00652521,10,-0.00188572,-1.61527,0.199138,0.296276,279.234,-0.0777573,
2,1,0,1,1,20900.3,-0.0645393,-0.0649879,27.6349,11,-0.00610931,10,-0.00179593,-1.55854,0.253143,0.23307,250.647,-0.0649879,
2,1,0,1,1,20900.3,-0.0517325,-0.0521273,30.6618,11,-0.00564216,10,-0.00159832,-1.5134,0.316033,0.18669,222.889,-0.0521273,
2,1,0,1,1,20900.4,-0.0389369,-0.0393494,33.3098,11,-0.0051296,10,-0.00131072,-1.47743,0.396341,0.148862,193.237,-0.0393494,
2,1,0,1,1,20900.4,-0.0261357,-0.0265015,35.6041,11,-0.00457743,10,-0.00094356,-1.4485,0.496648,0.118796,164.877,-0.0265015,
2,1,0,1,1,20900.4,-0.01334,-0.013766,37.5475,11,-0.00399147,10,-0.000516878,-1.42542,0.628633,0.0938544,137.355,-0.013766,
2,1,0,1,1,20900.4,-0.000774628,-0.00116517,39.1192,11,-0.00338907,10,-4.55804e-05,-1.40761, , , ,-0.00116517,
2,1,0,0,1,20900.4,-0.000125413,-0.000458935,39.2093,11,-0.00335775,10,-1.79945e-05,-1.40661, , , ,-0.000458935,