File: Figure_codes/Fig_3-5/rawdata_trumpetplot_data/after 10th/20221101_1-115_003_TrumpetPlot_ParaChange_from10_every3_02_CV_C01_10.csv
mode,ox/red,error,control changes,counter inc.,time/s,control/V,Ewe/V,<I>/mA,cycle number,(Q-Qo)/C,I Range,P/W,log(|I|),Tafel slope mV/dec,alpha_eff,dI/d(E-IR),E-IR/V,
2,0,0,1,0,20041.3,2.44065e-05,-0.000382585,-0.373524,11,0.0000000E+000,10,1.42905e-07,-3.42768, , , ,-0.000382585,
2,0,0,1,0,20048.6,0.00729061,0.00697452,-0.0943953,11,-0.000935464,10,-6.58362e-07,-4.02505,-0.0298989,-1.97331,7.34586,0.00697452,
2,0,0,1,0,20056.1,0.0147815,0.0144789,-0.0579045,11,-0.00139996,10,-8.38396e-07,-4.23729,-0.0384029,-1.53634,3.48135,0.0144789,
2,0,0,1,0,20063.6,0.0222725,0.0219549,-0.0370199,11,-0.00166552,10,-8.12767e-07,-4.43157,-0.0360768,-1.6354,2.37953,0.0219549,
2,0,0,1,0,20071.1,0.0297635,0.0294318,-0.0216882,11,-0.00179663,10,-6.38323e-07,-4.66378,-0.0273513,-2.15712,1.79773,0.0294318,
2,0,0,1,0,20078.6,0.0372544,0.0369013,-0.00873842,11,-0.00181961,10,-3.22459e-07,-5.05857,-0.0105479,-5.59354,1.69108,0.0369013,
2,0,0,1,0,20086.1,0.0447454,0.0444047,0.00330372,11,-0.00174791,10,1.46701e-07,-5.481,0.00330712,17.8403,1.32193,0.0444047,
2,0,0,1,0,20093.5,0.0522363,0.0518975,0.013059,11,-0.001594,10,6.77732e-07,-4.88409,0.0192275,3.06852,1.55153,0.05189753,
2,1,0,1,0,20101,0.0597273,0.059401,0.0233825,11,-0.00136273,10,1.38895e-06,-4.63111,0.0454852,1.29713,1.17358,0.059401,
2,1,0,1,0,20108.5,0.0672183,0.0669077,0.0316596,11,-0.00106466,10,2.11827e-06,-4.4995,0.067653,0.872098,1.06029,0.0669077,
2,1,0,1,0,20116,0.0747092,0.0743856,0.0390766,11,-0.000706172,10,2.90674e-06,-4.40808,0.0950995,0.620403,0.953833,0.0743856,
2,1,0,1,0,20123.5,0.0822001,0.0818752,0.0454311,11,-0.000293365,10,3.71968e-06,-4.34265,0.0980263,0.601879,1.0815,0.0818752,
2,1,0,1,0,20131,0.0896911,0.0893458,0.05505,11,0.00017992,10,4.91848e-06,-4.25924,0.107243,0.550152,1.18546,0.08934582,
2,1,0,1,0,20138.5,0.0971821,0.0968567,0.0653308,11,0.000725399,10,6.32773e-06,-4.18488,0.0886082,0.665852,1.68666,0.0968567,
2,1,0,1,0,20146,0.104673,0.104329,0.0772772,11,0.00135428,10,8.06229e-06,-4.11195,0.123966,0.475937,1.41632,0.104329,
2,1,0,1,0,20153.5,0.112164,0.111853,0.0873393,11,0.00206298,10,9.76915e-06,-4.05879,0.185552,0.317971,1.06747,0.111853,
2,1,0,1,0,20161,0.119655,0.11933,0.09595,11,0.00284367,10,1.14497e-05,-4.01796,0.224515,0.262789,0.978794,0.11933,
2,1,0,1,0,20168.5,0.127146,0.126799,0.103225,11,0.0036895,10,1.30889e-05,-3.98621,0.239879,0.245957,0.992548,0.126799,
2,1,0,1,0,20175.9,0.134637,0.134316,0.105039,11,0.00457802,10,1.41083e-05,-3.97865,-0.338988,-0.174048,-0.709104,0.1343156,
2,1,0,1,0,20183.4,0.142128,0.14179,0.088412,11,0.00540828,10,1.2536e-05,-4.05349,-0.0753761,-0.782741,-2.69215,0.14179,
2,1,0,1,0,20190.9,0.149619,0.1493,0.0689822,11,0.00608881,10,1.02991e-05,-4.16126,-0.0713335,-0.827101,-2.23724,0.1493,
2,1,0,1,0,20198.4,0.15711,0.156766,0.0582909,11,0.00664945,10,9.13806e-06,-4.2344,-0.120982,-0.487675,-1.10624,0.156766,
2,1,0,1,0,20205.9,0.164601,0.164321,0.0530217,11,0.00715194,10,8.71256e-06,-4.27555,-0.232047,-0.254259,-0.527412,0.164321,
2,1,0,1,0,20213.4,0.172091,0.171796,0.0509021,11,0.00762778,10,8.74475e-06,-4.29326,-0.680751,-0.086669,-0.172539,0.171796,
2,1,0,1,0,20220.9,0.179582,0.179229,0.0504179,11,0.00809329,10,9.03636e-06,-4.29742,-0.731065,-0.0807041,-0.157923,0.179229,
2,1,0,1,0,20228.4,0.187073,0.186738,0.0503669,11,0.00855458,10,9.4054e-06,-4.29786,2.39352,0.0246499,0.0482095,0.186738,
2,1,0,1,0,20235.9,0.194564,0.194205,0.0503058,11,0.00901761,10,9.76965e-06,-4.29838,1.81906,0.0324343,0.0641488,0.194205,
2,1,0,1,0,20243.4,0.202055,0.201716,0.0507473,11,0.00948194,10,1.02365e-05,-4.29459,0.982145,0.0600726,0.119266,0.201716,
2,1,0,1,0,20250.9,0.209546,0.209215,0.0516002,11,0.00995082,10,1.07956e-05,-4.28735,1.02754,0.0574187,0.116156,0.209215,
2,1,0,1,0,20258.3,0.217037,0.216699,0.0524328,11,0.0104243,10,1.13621e-05,-4.2804,0.860474,0.0685669,0.14093,0.216699,
2,1,0,1,0,20265.8,0.224528,0.224211,0.0538661,11,0.010905,10,1.20774e-05,-4.26868,0.937568,0.0629287,0.132579,0.224211,
2,1,0,1,0,20273.3,0.232019,0.231686,0.0542244,11,0.0113934,10,1.2563e-05,-4.26581,1.59774,0.0369271,0.0784233,0.231686,
2,1,0,1,0,20280.8,0.23951,0.239163,0.0557451,11,0.0118874,10,1.33322e-05,-4.25379,1.71987,0.0343049,0.0746011,0.239163,
2,1,0,1,0,20288.3,0.247001,0.246694,0.0563988,11,0.0123876,10,1.39133e-05,-4.24873,0.597006,0.0988264,0.216847,0.246694,
2,1,0,1,0,20295.8,0.254492,0.254177,0.0572349,11,0.0128957,10,1.45478e-05,-4.24234,1.41341,0.041743,0.0936737,0.2541765,
2,1,0,1,0,20303.3,0.261983,0.26168,0.0577031,11,0.0134092,10,1.50997e-05,-4.2388,2.28251,0.0258487,0.0585013,0.26168,
2,1,0,1,0,20310.8,0.269474,0.26917,0.0596956,11,0.0139284,10,1.60682e-05,-4.22406,1.10424,0.0534306,0.123076,0.2691696,
2,1,0,1,0,20318.3,0.276965,0.276669,0.0598193,11,0.0144531,10,1.65501e-05,-4.22316,1.89369,0.0311562,0.072785,0.276669,
2,1,0,1,0,20325.8,0.284456,0.284173,0.0606711,11,0.0149839,10,1.72411e-05,-4.21702,0.878249,0.0671791,0.159451,0.284173,
2,1,0,1,0,20333.3,0.291947,0.291635,0.0617968,11,0.0155202,10,1.80221e-05,-4.20903,1.26911,0.0464893,0.11216,0.291635,
2,1,0,1,0,20340.7,0.299438,0.299117,0.0621351,11,0.0160622,10,1.85857e-05,-4.20666,-0.00467582,-12.6181,-20.4482,0.299117,
2,1,0,1,0,20347.6,0.293745,0.293423,0.0105565,11,0.0161538,10,3.09753e-06,-4.97648,0.0162355,3.63401,1.54749,0.293423,
2,1,0,1,0,20355.1,0.286254,0.285936,0.00265435,11,0.0161235,10,7.58973e-07,-5.57604,0.00492116,11.989,0.878396,0.285936,
2,0,0,1,0,20362.6,0.278763,0.278451,-0.00329988,11,0.0160435,10,-9.18857e-07,-5.4815,-0.00752813,-7.83727,0.796443,0.278451,
2,0,0,1,0,20370.1,0.271272,0.270937,-0.00819813,11,0.0159242,10,-2.22118e-06,-5.08629,-0.0341792,-1.7262,0.519054,0.270937,
2,0,0,1,0,20377.6,0.263781,0.263469,-0.0119793,11,0.0157726,10,-3.15618e-06,-4.92157,-0.056699,-1.04058,0.485616,0.263469,
2,0,0,1,0,20385,0.25629,0.255996,-0.0155044,11,0.0155923,10,-3.96908e-06,-4.80954,-0.0827433,-0.713049,0.424642,0.255996,
2,0,0,1,0,20392.5,0.248799,0.248494,-0.0181714,11,0.0153864,10,-4.51548e-06,-4.74061,-0.0764357,-0.771891,0.551931,0.248494,
2,0,0,1,0,20400,0.241308,0.24103,-0.0215504,11,0.015156,10,-5.19429e-06,-4.66654,-0.12522,-0.471171,0.396437,0.24103,
2,0,0,1,0,20407.5,0.233817,0.233532,-0.0243267,11,0.0149037,10,-5.68108e-06,-4.61392,-0.102981,-0.572921,0.539873,0.233532,
2,0,0,1,0,20415,0.226326,0.226013,-0.0273001,11,0.0146307,10,-6.17019e-06,-4.56384,-0.151936,-0.388322,0.412276,0.226013,
2,0,0,1,0,20422.5,0.218835,0.218532,-0.0298297,11,0.0143344,10,-6.51875e-06,-4.52535,-0.312387,-0.188868,0.220522,0.218532,
2,0,0,1,0,20430,0.211344,0.210986,-0.0329755,11,0.0140165,10,-6.95737e-06,-4.48181,-0.209366,-0.281804,0.361788,0.210986,
2,0,0,1,0,20437.5,0.203853,0.203509,-0.0351539,11,0.0136753,10,-7.15414e-06,-4.45403,-0.265751,-0.222013,0.306979,0.203509,
2,0,0,1,0,20445,0.196362,0.196033,-0.0389208,11,0.0133149,10,-7.62977e-06,-4.40982,-0.209451,-0.281689,0.425536,0.196033,
2,0,0,1,0,20452.5,0.188871,0.188603,-0.0413315,11,0.0129295,10,-7.79524e-06,-4.38372,-0.232539,-0.25372,0.411178,0.188603,
2,0,0,1,0,20460,0.18138,0.181077,-0.0459404,11,0.0125185,10,-8.31876e-06,-4.33781,-0.232003,-0.254307,0.448715,0.181077,
2,0,0,1,0,20467.4,0.173889,0.173552,-0.0493456,11,0.0120751,10,-8.56402e-06,-4.30675,-0.162007,-0.364183,0.707616,0.173552,
2,0,0,1,0,20474.9,0.166398,0.166055,-0.0556666,11,0.0115914,10,-9.24369e-06,-4.25441,-0.143944,-0.409883,0.893024,0.166055,
2,0,0,1,0,20482.4,0.158907,0.158632,-0.062769,11,0.0110559,10,-9.95716e-06,-4.20225,-0.114713,-0.514327,1.27196,0.1586317,
2,0,0,1,0,20489.9,0.151417,0.151092,-0.0745298,11,0.0104486,10,-1.12609e-05,-4.12767,-0.0955954,-0.617185,1.8079,0.151092,
2,0,0,1,0,20497.4,0.143926,0.143643,-0.0928201,11,0.00972794,10,-1.3333e-05,-4.03236,-0.0654372,-0.901628,3.26137,0.143643,
2,0,0,1,0,20504.9,0.136435,0.136072,-0.119128,11,0.00883772,10,-1.62099e-05,-3.92399,-0.0735402,-0.802283,3.70388,0.136072,
2,0,0,1,0,20512.4,0.128944,0.128632,-0.140266,11,0.00775767,10,-1.80427e-05,-3.85305,-0.169134,-0.348836,1.90316,0.128632,
2,0,0,1,0,20519.9,0.121453,0.121112,-0.148474,11,0.00656483,10,-1.79821e-05,-3.82835,-1.00024,-0.0589859,0.342523,0.121112,
2,0,0,1,0,20527.4,0.113962,0.113644,-0.146718,11,0.00535199,10,-1.66737e-05,-3.83352,1.80651,0.0326597,-0.188137,0.113644,
2,0,0,1,0,20534.9,0.106471,0.10611,-0.145124,11,0.00415412,10,-1.53991e-05,-3.83826,1.00201,0.0588814,-0.334941,0.10611,
2,0,0,1,0,20542.4,0.0989798,0.0986805,-0.140659,11,0.0029794,10,-1.38803e-05,-3.85183,0.483868,0.121934,-0.671502,0.0986805,
2,0,0,1,0,20549.8,0.0914889,0.0911984,-0.136171,11,0.00184257,10,-1.24186e-05,-3.86592,0.395532,0.149166,-0.78991,0.09119837,
2,0,0,1,0,20557.3,0.083998,0.0836823,-0.12972,11,0.000752051,10,-1.08552e-05,-3.88699,0.306812,0.1923,-0.970541,0.0836823,
2,0,0,1,0,20564.8,0.076507,0.0761501,-0.125879,11,-0.000298357,10,-9.5857e-06,-3.90005,0.656534,0.0898659,-0.439053,0.0761501,
2,0,0,1,0,20572.3,0.069016,0.0686806,-0.121166,11,-0.0013193,10,-8.32174e-06,-3.91662,0.711993,0.082866,-0.393357,0.0686806,
2,0,0,1,0,20579.8,0.0615251,0.0612185,-0.119012,11,-0.00231572,10,-7.28576e-06,-3.92441,0.928324,0.0635554,-0.294527,0.0612185,
2,0,0,1,0,20587.3,0.0540342,0.0536802,-0.116219,11,-0.0032915,10,-6.23864e-06,-3.93472,1.08709,0.0542732,-0.245527,0.05368017,
2,0,0,1,0,20594.8,0.0465432,0.0461979,-0.113399,11,-0.00424666,10,-5.23881e-06,-3.94539,0.973365,0.0606144,-0.268259,0.0461979,
2,0,0,1,0,20602.3,0.0390522,0.0387273,-0.110423,11,-0.00517893,10,-4.27637e-06,-3.95694,0.707192,0.0834285,-0.359824,0.0387273,
2,0,0,1,0,20609.8,0.0315613,0.0312239,-0.107467,11,-0.00609202,10,-3.35554e-06,-3.96873,0.625195,0.0943705,-0.397472,0.0312239,
2,0,0,1,0,20617.3,0.0240703,0.0237246,-0.10563,11,-0.00698632,10,-2.50604e-06,-3.97621,1.14207,0.0516605,-0.21346,0.02372464,
2,0,0,1,0,20624.8,0.0165794,0.0162616,-0.104694,11,-0.00786652,10,-1.70248e-06,-3.98008,1.57706,0.0374115,-0.152841,0.0162616,
2,0,0,1,0,20632.2,0.00908843,0.00878035,-0.106164,11,-0.00874678,10,-9.32154e-07,-3.97402,-0.715113,-0.0825044,0.341519,0.00878035,
2,0,0,1,0,20639.7,0.00159744,0.00121005,-0.109304,11,-0.00964324,10,-1.32264e-07,-3.96136, , , ,0.00121005,
2,0,0,1,0,20641.1,0.000199235,-0.00021841,-0.108957,11,-0.0098127,10,2.37974e-08,-3.96274, , , ,-0.00021841,