File: Figure_codes/Fig_3-5/rawdata_trumpetplot_data/after 10th/20221101_1-115_003_TrumpetPlot_ParaChange_from10_every3_05_CV_C01_4.csv
mode,ox/red,error,control changes,counter inc.,time/s,control/V,Ewe/V,<I>/mA,cycle number,(Q-Qo)/C,I Range,P/W,log(|I|),Tafel slope mV/dec,alpha_eff,dI/d(E-IR),E-IR/V,
2,0,0,1,0,9000.54,2.44065e-05,-0.000325324,-0.727158,5,0.0000000E+000,10,2.36561e-07,-3.13837, , , ,-0.000325324,
2,1,0,1,0,9000.9,0.00729063,0.00699247,0.759041,5,0.00019185,10,5.30757e-06,-3.11973,0.0686833,0.859015,25.2246,0.00699247,
2,1,0,1,0,9001.28,0.0147802,0.0144682,0.895192,5,0.000510858,10,1.29518e-05,-3.04808,0.128302,0.459853,16.0594,0.0144682,
2,1,0,1,0,9001.65,0.0222725,0.0219815,0.997429,5,0.000872949,10,2.1925e-05,-3.00112,0.169615,0.347847,13.5243,0.0219815,
2,1,0,1,0,9002.03,0.0297644,0.0294355,1.09631,5,0.00127199,10,3.22703e-05,-2.96007,0.192147,0.307056,13.0913,0.0294355,
2,1,0,1,0,9002.4,0.0372544,0.036912,1.19712,5,0.0017082,10,4.4188e-05,-2.92186,0.232164,0.25413,11.8708,0.036912,
2,1,0,1,0,9002.77,0.0447449,0.0444201,1.29528,5,0.00218205,10,5.75365e-05,-2.88764,0.232563,0.253695,12.8397,0.0444201,
2,1,0,1,0,9003.15,0.0522363,0.0519241,1.38815,5,0.00269272,10,7.20784e-05,-2.85756,0.246751,0.239107,12.9724,0.05192408,
2,1,0,1,0,9003.52,0.0597291,0.0594177,1.48017,5,0.00323802,10,8.79481e-05,-2.82969,0.271637,0.217202,12.5361,0.0594177,
2,1,0,1,0,9003.9,0.0672182,0.0669131,1.56667,5,0.00381535,10,0.000104831,-2.80502,0.385041,0.153231,9.3337,0.06691312,
2,1,0,1,0,9004.27,0.0747092,0.0744005,1.63861,5,0.00442212,10,0.000121914,-2.78552,0.429053,0.137512,8.78266,0.0744005,
2,1,0,1,0,9004.65,0.0822001,0.081932,1.69993,5,0.00505539,10,0.000139279,-2.76957,0.455016,0.129666,8.61708,0.081932,
2,1,0,1,0,9005.02,0.0896911,0.0893957,1.78495,5,0.00571496,10,0.000159567,-2.74837,0.315741,0.186862,13.0244,0.0893957,
2,1,0,1,0,9005.4,0.097182,0.0968768,1.90128,5,0.00641092,10,0.00018419,-2.72095,0.210732,0.279977,20.7754,0.0968768,
2,1,0,1,0,9005.77,0.104673,0.104366,2.07224,5,0.0071606,10,0.00021627,-2.68356,0.190834,0.309169,24.9741,0.104366,
2,1,0,1,0,9006.15,0.112164,0.111888,2.24785,5,0.00797753,10,0.000251508,-2.64823,0.246457,0.239393,20.9547,0.111888,
2,1,0,1,0,9006.52,0.119655,0.119358,2.38007,5,0.00885267,10,0.00028408,-2.62341,0.443302,0.133092,12.3698,0.1193579,
2,1,0,1,0,9006.89,0.127146,0.126864,2.47863,5,0.00977105,10,0.000314449,-2.60579,0.384049,0.153626,14.8929,0.126864,
2,1,0,1,0,9007.27,0.134637,0.134336,2.57247,5,0.0107281,10,0.000345574,-2.58965,1.44589,0.0408053,4.0943,0.1343357,
2,1,0,1,0,9007.64,0.142128,0.14181,2.49503,5,0.0116936,10,0.000353821,-2.60292,-0.206007,-0.286398,-27.7709,0.14181,
2,1,0,1,0,9008.02,0.149619,0.149311,2.13562,5,0.0125753,10,0.000318871,-2.67048,-0.0804202,-0.733647,-60.9059,0.149311,
2,1,0,1,0,9008.39,0.157108,0.156821,1.69754,5,0.0132968,10,0.00026621,-2.77018,-0.0755413,-0.78103,-51.78,0.156821,
2,1,0,1,0,9008.77,0.164601,0.164298,1.41034,5,0.0138809,10,0.000231716,-2.85068,-0.10648,-0.554093,-30.5248,0.164298,
2,1,0,1,0,9009.14,0.172092,0.171784,1.23601,5,0.014381,10,0.000212328,-2.90798,-0.163005,-0.361951,-17.5567,0.171784,
2,1,0,1,0,9009.52,0.179582,0.179279,1.13771,5,0.0148316,10,0.000203966,-2.94397,-0.270977,-0.217731,-9.69245,0.179279,
2,1,0,1,0,9009.89,0.187073,0.186772,1.08118,5,0.0152531,10,0.000201934,-2.9661,-0.423559,-0.139296,-5.86198,0.186772,
2,1,0,1,0,9010.27,0.194564,0.194246,1.04212,5,0.0156568,10,0.000202427,-2.98208,-0.605789,-0.0973937,-3.95732,0.194246,
2,1,0,1,0,9010.64,0.202057,0.201742,1.01551,5,0.0160487,10,0.00020487,-2.99332,-0.553306,-0.106632,-4.22198,0.201742,
2,1,0,1,0,9011.01,0.209546,0.209252,0.995256,5,0.0164323,10,0.000208259,-3.00207,-0.664094,-0.0888428,-3.45792,0.209252,
2,1,0,1,0,9011.39,0.217037,0.216759,0.974392,5,0.0168085,10,0.000211209,-3.01127,-1.18398,-0.0498317,-1.90308,0.216759,
2,1,0,1,0,9011.76,0.224528,0.224216,0.966447,5,0.0171796,10,0.000216693,-3.01482,-2.11461,-0.0279011,-1.051,0.224216,
2,1,0,1,0,9012.14,0.232019,0.231737,0.954978,5,0.0175458,10,0.000221304,-3.02001,-3.31123,-0.0178181,-0.663156,0.231737,
2,1,0,1,0,9012.51,0.23951,0.239215,0.942574,5,0.0179079,10,0.000225478,-3.02568,-2.60457,-0.0226525,-0.83273,0.239215,
2,1,0,1,0,9012.89,0.247001,0.246716,0.934374,5,0.0182662,10,0.000230525,-3.02948,-0.847163,-0.0696442,-2.53177,0.246716,
2,1,0,1,0,9013.26,0.254492,0.254152,0.922735,5,0.0186209,10,0.000234515,-3.03492,-1.08806,-0.0542249,-1.95616,0.254152,
2,1,0,1,0,9013.64,0.261983,0.261665,0.916411,5,0.018972,10,0.000239793,-3.03791,-1.77776,-0.0331878,-1.18439,0.261665,
2,1,0,1,0,9014.01,0.269474,0.269143,0.904131,5,0.0193199,10,0.000243341,-3.04377,63.4926,0.000929243,0.0327758,0.269143,
2,1,0,1,0,9014.39,0.276965,0.276674,0.895415,5,0.0196644,10,0.000247738,-3.04798,-1.55619,-0.0379132,-1.32585,0.276674,
2,1,0,1,0,9014.76,0.284456,0.284155,0.88657,5,0.0200052,10,0.000251923,-3.05229,-2.62806,-0.0224501,-0.775168,0.284155,
2,1,0,1,0,9015.13,0.291947,0.291645,0.877064,5,0.0203424,10,0.000255791,-3.05697,-1.20745,-0.0488632,-1.67077,0.2916449,
2,1,0,1,0,9015.51,0.299436,0.299156,0.864611,5,0.020676,10,0.000258654,-3.06318,-0.00200162,-29.4762,-419.271,0.299156,
2,0,0,1,0,9015.85,0.293745,0.293425,-0.220679,5,0.0206723,10,-6.47529e-05,-3.65624,-0.0252447,-2.33712,19.2638,0.293425,
2,0,0,1,0,9016.23,0.286254,0.285959,-0.313288,5,0.0205631,10,-8.95876e-05,-3.50406,-0.0761236,-0.775056,9.55817,0.285959,
2,0,0,1,0,9016.6,0.278763,0.278451,-0.377384,5,0.0204251,10,-0.000105083,-3.42322,-0.126195,-0.46753,6.87401,0.278451,
2,0,0,1,0,9016.98,0.271272,0.270945,-0.42602,5,0.0202672,10,-0.000115428,-3.37057,-0.149199,-0.395444,6.55045,0.270945,
2,0,0,1,0,9017.35,0.263781,0.263443,-0.463312,5,0.020093,10,-0.000122056,-3.33413,-0.222417,-0.265267,4.80642,0.263443,
2,0,0,1,0,9017.72,0.25629,0.255981,-0.499966,5,0.0199052,10,-0.000127982,-3.30106,-0.385812,-0.152924,2.9725,0.255981,
2,0,0,1,0,9018.1,0.248799,0.248539,-0.528244,5,0.0197052,10,-0.000131289,-3.27717,-0.353846,-0.166739,3.45098,0.248539,
2,0,0,1,0,9018.47,0.241308,0.240996,-0.55967,5,0.0194942,10,-0.000134878,-3.25207,-0.409674,-0.144017,3.14715,0.240996,
2,0,0,1,0,9018.85,0.233817,0.233511,-0.586041,5,0.0192725,10,-0.000136847,-3.23207,-0.333867,-0.176717,4.04392,0.2335113,
2,0,0,1,0,9019.22,0.226326,0.225999,-0.613753,5,0.0190406,10,-0.000138708,-3.21201,-0.386234,-0.152757,3.65295,0.225999,
2,0,0,1,0,9019.6,0.218835,0.218545,-0.640568,5,0.0187986,10,-0.000139993,-3.19343,-0.45089,-0.130852,3.26381,0.218545,
2,0,0,1,0,9019.97,0.211344,0.211058,-0.668817,5,0.0185468,10,-0.000141159,-3.17469,-0.510422,-0.115591,3.00535,0.211058,
2,0,0,1,0,9020.35,0.203855,0.203513,-0.69456,5,0.0182841,10,-0.000141352,-3.15829,-0.364331,-0.16194,4.41157,0.203513,
2,0,0,1,0,9020.72,0.196362,0.196041,-0.728567,5,0.0180104,10,-0.000142829,-3.13753,-0.371036,-0.159014,4.51501,0.196041,
2,0,0,1,0,9021.1,0.188871,0.188554,-0.76346,5,0.0177237,10,-0.000143954,-3.11721,-0.244788,-0.241024,7.16745,0.188554,
2,0,0,1,0,9021.47,0.18138,0.181089,-0.809897,5,0.0174223,10,-0.000146663,-3.09157,-0.277525,-0.212594,6.70843,0.181089,
2,0,0,1,0,9021.84,0.173891,0.173561,-0.867393,5,0.0171018,10,-0.000150546,-3.06178,-0.224459,-0.262854,8.90721,0.173561,
2,0,0,1,0,9022.22,0.166398,0.166075,-0.946017,5,0.016756,10,-0.00015711,-3.0241,-0.18692,-0.315643,11.6587,0.166075,
2,0,0,1,0,9022.59,0.158906,0.158596,-1.06478,5,0.0163732,10,-0.00016887,-2.97274,-0.119656,-0.49308,20.5825,0.158596,
2,0,0,1,0,9022.97,0.151417,0.151063,-1.26486,5,0.0159317,10,-0.000191073,-2.89796,-0.0863539,-0.683235,33.8759,0.1510627,
2,0,0,1,0,9023.34,0.143926,0.143661,-1.58,5,0.015395,10,-0.000226985,-2.80134,-0.0679429,-0.868376,53.7718,0.143661,
2,0,0,1,0,9023.72,0.136435,0.136075,-2.00752,5,0.0147158,10,-0.000273172,-2.69734,-0.0800061,-0.737444,57.5326,0.136075,
2,0,0,1,0,9024.09,0.128942,0.12865,-2.38474,5,0.0138812,10,-0.000306798,-2.62256,-0.141994,-0.415511,38.5105,0.12865,
2,0,0,1,0,9024.47,0.121453,0.12117,-2.59526,5,0.0129359,10,-0.000314469,-2.58582,-0.401035,-0.147119,14.8561,0.12117,
2,0,0,1,0,9024.84,0.113962,0.113643,-2.62603,5,0.0119452,10,-0.000298429,-2.5807,1.27287,0.046352,-4.75208,0.113643,
2,0,0,1,0,9025.22,0.106471,0.106182,-2.55412,5,0.0109639,10,-0.000271202,-2.59276,0.412363,0.143078,-14.2733,0.106182,
2,0,0,1,0,9025.59,0.0989799,0.0986777,-2.42439,5,0.010023,10,-0.000239233,-2.6154,0.302727,0.194895,-18.4196,0.0986777,
2,0,0,1,0,9025.96,0.0914889,0.0911761,-2.28618,5,0.00913545,10,-0.000208445,-2.64089,0.305188,0.193323,-17.2202,0.09117607,
2,0,0,1,0,9026.34,0.083998,0.0836878,-2.16798,5,0.00829582,10,-0.000181433,-2.66395,0.342714,0.172155,-14.5519,0.08368776,
2,0,0,1,0,9026.71,0.076507,0.0761649,-2.08592,5,0.00749237,10,-0.000158874,-2.6807,0.466688,0.126423,-10.2923,0.0761649,
2,0,0,1,0,9027.09,0.0690161,0.0687239,-2.01232,5,0.00671735,10,-0.000138294,-2.6963,0.476775,0.123748,-9.74767,0.0687239,
2,0,0,1,0,9027.46,0.0615251,0.0611795,-1.94906,5,0.00596683,10,-0.000119243,-2.71017,0.513879,0.114813,-8.75331,0.0611795,
2,0,0,1,0,9027.84,0.0540342,0.0537541,-1.88404,5,0.0052414,10,-0.000101275,-2.72491,0.568688,0.103747,-7.61814,0.0537541,
2,0,0,1,0,9028.21,0.0465432,0.0462592,-1.81144,5,0.00454156,10,-8.3796e-05,-2.74198,0.428877,0.137569,-9.73367,0.0462592,
2,0,0,1,0,9028.59,0.0390523,0.0387019,-1.73515,5,0.00387035,10,-6.71537e-05,-2.76066,0.323922,0.182143,-12.3038,0.0387019,
2,0,0,1,0,9028.96,0.0315626,0.0312119,-1.65093,5,0.00322935,10,-5.15285e-05,-2.78227,0.342899,0.172062,-11.0905,0.0312119,
2,0,0,1,0,9029.34,0.0240704,0.02377,-1.57327,5,0.0026175,10,-3.73967e-05,-2.8032,0.399516,0.147679,-9.11524,0.02377,
2,0,0,1,0,9029.71,0.0165785,0.0162635,-1.5206,5,0.00203038,10,-2.47303e-05,-2.81799,0.597539,0.0987383,-5.86586,0.0162635,
2,0,0,1,0,9030.08,0.00908846,0.00876218,-1.48436,5,0.00146122,10,-1.30063e-05,-2.82846,0.924575,0.0638131,-3.69217,0.00876218,
2,0,0,1,0,9030.46,0.0015984,0.00123523,-1.48945,5,0.000900616,10,-1.83982e-06,-2.82697, , , ,0.001235235,
2,0,0,1,0,9030.53,0.000199195,-0.000154153,-1.46792,5,0.00079569,10,2.26285e-07,-2.8333, , , ,-0.000154153,