File: Figure_codes/Fig_3-5/rawdata_trumpetplot_data/after 10th/20221101_1-115_003_TrumpetPlot_ParaChange_from10_every3_03_CV_C01_21.csv
mode,ox/red,error,control changes,counter inc.,time/s,control/V,Ewe/V,<I>/mA,cycle number,(Q-Qo)/C,I Range,P/W,log(|I|),Tafel slope mV/dec,alpha_eff,dI/d(E-IR),E-IR/V,
2,0,0,1,0,42312.8,2.44065e-05,-0.000382585,-0.104482,22,0.0000000E+000,10,3.99734e-08,-3.98096, , , ,-0.000382585,
2,1,0,1,0,42314.2,0.00729041,0.00697011,0.202039,22,0.000253183,10,1.40823e-06,-3.69456,0.0802779,0.734947,5.72592,0.00697011,
2,1,0,1,0,42315.7,0.0147815,0.0145097,0.233192,22,0.000601892,10,3.38354e-06,-3.63229,0.13994,0.42161,3.83809,0.0145097,
2,1,0,1,0,42317.2,0.0222725,0.0219634,0.259828,22,0.000993386,10,5.7067e-06,-3.58531,0.179555,0.32859,3.33148,0.0219634,
2,1,0,1,0,42318.7,0.0297635,0.0294129,0.286657,22,0.00142394,10,8.4314e-06,-3.54264,0.206562,0.285628,3.18432,0.0294129,
2,1,0,1,0,42320.2,0.0372545,0.0368866,0.311934,22,0.001894,10,1.15062e-05,-3.50594,0.208425,0.283076,3.45079,0.0368866,
2,1,0,1,0,42321.7,0.0447456,0.0444219,0.338259,22,0.0024024,10,1.50261e-05,-3.47075,0.237593,0.248324,3.27171,0.0444219,
2,1,0,1,0,42323.2,0.0522367,0.0519382,0.361613,22,0.00294839,10,1.87815e-05,-3.44176,0.231966,0.254348,3.58695,0.0519382,
2,1,0,1,0,42324.7,0.0597277,0.0593685,0.383912,22,0.00352881,10,2.27923e-05,-3.41577,0.306233,0.192664,2.87902,0.0593685,
2,1,0,1,0,42326.2,0.0672187,0.0668955,0.402882,22,0.00414026,10,2.6951e-05,-3.39482,0.339153,0.173963,2.72861,0.0668955,
2,1,0,1,0,42327.7,0.0747092,0.0744206,0.417397,22,0.00477769,10,3.10629e-05,-3.37945,0.512286,0.11517,1.87807,0.0744206,
2,1,0,0,0,42329.2,0.0822001,0.0818753,0.431401,22,0.00543744,10,3.53211e-05,-3.36512,0.531666,0.110972,1.87435,0.0818753,
2,1,0,1,0,42330.7,0.0896911,0.0893882,0.453197,22,0.00612196,10,4.05105e-05,-3.34371,0.292036,0.20203,3.57302,0.0893882,
2,1,0,0,0,42332.2,0.097182,0.0968726,0.483637,22,0.0068448,10,4.68511e-05,-3.31548,0.193453,0.304983,5.75786,0.0968726,
2,1,0,1,0,42333.7,0.104673,0.104378,0.527403,22,0.00762265,10,5.50494e-05,-3.27786,0.209445,0.281696,5.76628,0.104378,
2,1,0,0,0,42335.2,0.112164,0.111889,0.562933,22,0.00846086,10,6.2986e-05,-3.24954,0.379357,0.155526,3.41028,0.111889,
2,1,0,1,0,42336.7,0.119655,0.119362,0.587944,22,0.00934674,10,7.0178e-05,-3.23066,0.508183,0.1161,2.668,0.119362,
2,1,0,0,0,42338.2,0.127146,0.126812,0.6052,22,0.0102662,10,7.67466e-05,-3.2181,0.969208,0.0608745,1.44145,0.1268121,
2,1,0,1,0,42339.7,0.134637,0.134334,0.603476,22,0.011201,10,8.1067e-05,-3.21934,-0.377678,-0.156218,-3.67229,0.134334,
2,1,0,1,0,42341.2,0.142127,0.141795,0.541614,22,0.0120891,10,7.67983e-05,-3.26631,-0.104613,-0.563983,-11.8543,0.141795,
2,1,0,1,0,42342.7,0.149618,0.149271,0.435083,22,0.0128426,10,6.49453e-05,-3.36143,-0.077236,-0.763893,-13.0078,0.149271,
2,1,0,1,0,42344.2,0.157109,0.156801,0.362466,22,0.0134548,10,5.68351e-05,-3.44073,-0.121203,-0.486785,-6.90275,0.156801,
2,1,0,1,0,42345.7,0.1646,0.16427,0.330386,22,0.0139909,10,5.42724e-05,-3.48098,-0.280355,-0.210448,-2.70969,0.16427,
2,1,0,1,0,42347.2,0.172091,0.17175,0.311435,22,0.0144921,10,5.34889e-05,-3.50663,-0.472778,-0.124794,-1.52643,0.17175,
2,1,0,1,0,42348.7,0.179582,0.179253,0.302505,22,0.0149744,10,5.42251e-05,-3.51927,-0.876367,-0.0673234,-0.798607,0.179253,
2,1,0,1,0,42350.2,0.187074,0.186773,0.299287,22,0.015446,10,5.58987e-05,-3.52391,-1.43098,-0.0412305,-0.479378,0.186773,
2,1,0,1,0,42351.7,0.194564,0.19423,0.294798,22,0.0159107,10,5.72585e-05,-3.53048,-1.32443,-0.0445475,-0.512651,0.19423,
2,1,0,1,0,42353.2,0.202056,0.201752,0.291962,22,0.0163699,10,5.89039e-05,-3.53467,-1.01173,-0.058316,-0.662194,0.201752,
2,1,0,1,0,42354.7,0.209547,0.2092,0.288492,22,0.0168248,10,6.03524e-05,-3.53987,-1.78374,-0.0330765,-0.373152,0.2092,
2,1,0,1,0,42356.2,0.217038,0.216734,0.28536,22,0.0172755,10,6.18473e-05,-3.54461,-5.03303,-0.0117226,-0.131223,0.2167338,
2,1,0,1,0,42357.7,0.224529,0.224177,0.284631,22,0.0177234,10,6.38076e-05,-3.54572,-1.24265,-0.0474791,-0.527233,0.224177,
2,1,0,1,0,42359.2,0.232019,0.231706,0.281469,22,0.0181675,10,6.52182e-05,-3.55057,-4.4505,-0.0132569,-0.146253,0.231706,
2,1,0,0,0,42360.7,0.23951,0.239189,0.280972,22,0.0186087,10,6.72054e-05,-3.55134,-9.88459,-0.00596889,-0.0653824,0.239189,
2,1,0,1,0,42362.1,0.247001,0.246733,0.279226,22,0.0190477,10,6.88944e-05,-3.55404,-1.32753,-0.0444436,-0.48312,0.246733,
2,1,0,0,0,42363.6,0.254492,0.254165,0.27783,22,0.0194839,10,7.06147e-05,-3.55622,-1.83282,-0.0321909,-0.348743,0.254165,
2,1,0,1,0,42365.1,0.261983,0.261659,0.275857,22,0.0199175,10,7.21805e-05,-3.55932,-1.82782,-0.0322789,-0.346375,0.261659,
2,1,0,0,0,42366.6,0.269474,0.269122,0.274142,22,0.0203483,10,7.37776e-05,-3.56202,18.1801,0.00324531,0.0346301,0.269122,
2,1,0,1,0,42368.1,0.276965,0.276607,0.271744,22,0.0207768,10,7.51663e-05,-3.56584,-2.20793,-0.0267218,-0.284007,0.276607,
2,1,0,0,0,42369.6,0.284456,0.284122,0.270815,22,0.0212027,10,7.69445e-05,-3.56733,-1.43972,-0.0409802,-0.432496,0.284122,
2,1,0,1,0,42371.1,0.291947,0.291597,0.268705,22,0.0216255,10,7.83536e-05,-3.57072,-1.55492,-0.0379442,-0.398312,0.291597,
2,1,0,1,0,42372.6,0.299437,0.299078,0.265621,22,0.0220458,10,7.94412e-05,-3.57574,-0.0026171,-22.544,-119.773,0.299078,
2,0,0,1,0,42374,0.293744,0.293401,-0.0179673,22,0.0220855,10,-5.27162e-06,-4.74552,-0.00478775,-12.3231,5.89636,0.293401,
2,0,0,1,0,42375.5,0.286253,0.285931,-0.0464051,22,0.0220163,10,-1.32686e-05,-4.33343,-0.0338797,-1.74146,3.18796,0.285931,
2,0,0,0,0,42377,0.278763,0.27843,-0.0685359,22,0.0219096,10,-1.90824e-05,-4.16408,-0.059649,-0.98912,2.59747,0.2784301,
2,0,0,1,0,42378.5,0.271272,0.27094,-0.0846107,22,0.0217752,10,-2.29245e-05,-4.07257,-0.0870093,-0.678089,2.22885,0.27094,
2,0,0,0,0,42380,0.263781,0.26347,-0.0980984,22,0.0216183,10,-2.5846e-05,-4.00834,-0.118964,-0.495949,1.9003,0.26347,
2,0,0,1,0,42381.5,0.25629,0.255981,-0.109463,22,0.0214424,10,-2.80205e-05,-3.96073,-0.201784,-0.292392,1.25574,0.255981,
2,0,0,0,0,42383,0.248799,0.248474,-0.120658,22,0.02125,10,-2.99804e-05,-3.91844,-0.176685,-0.333928,1.56829,0.248474,
2,0,0,1,0,42384.5,0.241308,0.240997,-0.130412,22,0.0210422,10,-3.14289e-05,-3.88468,-0.246671,-0.239185,1.22284,0.240997,
2,0,0,0,0,42386,0.233817,0.233485,-0.140423,22,0.02082,10,-3.27865e-05,-3.85256,-0.294502,-0.200338,1.0949,0.233485,
2,0,0,1,0,42387.5,0.226326,0.226005,-0.148058,22,0.0205843,10,-3.34618e-05,-3.82957,-0.338754,-0.174168,1.01519,0.226005,
2,0,0,0,0,42389,0.218835,0.218504,-0.157391,22,0.020335,10,-3.43906e-05,-3.80302,-0.382963,-0.154062,0.944758,0.2185044,
2,0,0,1,0,42390.5,0.211344,0.21104,-0.165234,22,0.0200728,10,-3.48709e-05,-3.7819,-0.37903,-0.155661,1.00828,0.21104,
2,0,0,1,0,42392,0.203854,0.20352,-0.17383,22,0.0197971,10,-3.5378e-05,-3.75987,-0.372899,-0.15822,1.07926,0.20352,
2,0,0,1,0,42393.5,0.196363,0.196008,-0.184135,22,0.0195081,10,-3.6092e-05,-3.73486,-0.267837,-0.220283,1.5797,0.196008,
2,0,0,1,0,42395,0.188871,0.188543,-0.194828,22,0.0192036,10,-3.67334e-05,-3.71035,-0.308768,-0.191082,1.44788,0.188543,
2,0,0,1,0,42396.5,0.181381,0.181054,-0.205706,22,0.0188832,10,-3.72439e-05,-3.68675,-0.29756,-0.198279,1.59791,0.181054,
2,0,0,1,0,42398,0.173889,0.173529,-0.219137,22,0.018544,10,-3.80265e-05,-3.65929,-0.294081,-0.200625,1.71775,0.173529,
2,0,0,1,0,42399.5,0.166398,0.166078,-0.235783,22,0.0181819,10,-3.91584e-05,-3.62749,-0.224415,-0.262906,2.43588,0.166078,
2,0,0,1,0,42401,0.158907,0.15856,-0.25841,22,0.01779,10,-4.09733e-05,-3.58769,-0.15211,-0.387877,3.92744,0.15856,
2,0,0,1,0,42402.5,0.151416,0.15108,-0.293857,22,0.0173558,10,-4.4396e-05,-3.53186,-0.115321,-0.511617,5.88739,0.15108,
2,0,0,1,0,42404,0.143925,0.143592,-0.352342,22,0.0168529,10,-5.05934e-05,-3.45304,-0.0762744,-0.773523,10.6605,0.143592,
2,0,0,1,0,42405.5,0.136434,0.136082,-0.438957,22,0.016241,10,-5.97341e-05,-3.35758,-0.0782031,-0.754446,12.8859,0.136082,
2,0,0,1,0,42407,0.128943,0.128596,-0.530702,22,0.0154905,10,-6.82463e-05,-3.27515,-0.118379,-0.4984,10.2725,0.128596,
2,0,0,0,0,42408.5,0.121453,0.12115,-0.594559,22,0.0146194,10,-7.20306e-05,-3.2258,-0.231427,-0.25494,5.88845,0.12115,
2,0,0,1,0,42410,0.113962,0.113626,-0.611656,22,0.0136858,10,-6.95e-05,-3.21349,-12.7688,-0.00462063,0.110597,0.113626,
2,0,0,0,0,42411.5,0.106471,0.106076,-0.60844,22,0.0127447,10,-6.45408e-05,-3.21578,1.15471,0.0510952,-1.21891,0.106076,
2,0,0,1,0,42413,0.0989798,0.0986445,-0.597054,22,0.0118177,10,-5.88961e-05,-3.22399,0.712352,0.0828242,-1.92569,0.0986445,
2,0,0,0,0,42414.5,0.0914889,0.0911718,-0.581431,22,0.010913,10,-5.30101e-05,-3.2355,0.621683,0.0949036,-2.14454,0.0911718,
2,0,0,1,0,42416,0.083998,0.0836769,-0.559728,22,0.0100358,10,-4.68363e-05,-3.25202,0.374739,0.157443,-3.43767,0.0836769,
2,0,0,0,0,42417.5,0.076507,0.0761703,-0.541491,22,0.00918828,10,-4.12455e-05,-3.26641,0.456214,0.129325,-2.72992,0.0761703,
2,0,0,1,0,42419,0.069016,0.0687464,-0.521587,22,0.0083695,10,-3.58572e-05,-3.28267,0.560556,0.105253,-2.1511,0.0687464,
2,0,0,0,0,42420.4,0.0615251,0.0612154,-0.505951,22,0.00757604,10,-3.0972e-05,-3.29589,0.533379,0.110615,-2.18856,0.0612154,
2,0,0,1,0,42421.9,0.0540342,0.0537649,-0.489962,22,0.00680756,10,-2.63428e-05,-3.30984,0.699384,0.0843599,-1.61042,0.0537649,
2,0,0,1,0,42423.4,0.0465436,0.0462534,-0.47123,22,0.00606436,10,-2.1796e-05,-3.32677,0.496879,0.118741,-2.19005,0.0462534,
2,0,0,1,0,42424.9,0.0390526,0.0387128,-0.455269,22,0.00534737,10,-1.76247e-05,-3.34173,0.376428,0.156737,-2.78185,0.0387128,
2,0,0,1,0,42426.4,0.0315615,0.0312454,-0.438658,22,0.00465631,10,-1.3706e-05,-3.35787,0.490895,0.120189,-2.05847,0.0312454,
2,0,0,1,0,42427.9,0.0240706,0.0237609,-0.42331,22,0.00398923,10,-1.00582e-05,-3.37334,0.672323,0.0877555,-1.45601,0.0237609,
2,0,0,1,0,42429.4,0.0165795,0.0162702,-0.414358,22,0.00334045,10,-6.74167e-06,-3.38262,0.964567,0.0611673,-0.989413,0.0162702,
2,0,0,1,0,42430.9,0.00908846,0.00874965,-0.409977,22,0.00270241,10,-3.58715e-06,-3.38724,57.168,0.00103205,-0.0165072,0.00874965,
2,0,0,1,0,42432.4,0.00159739,0.00124808,-0.415248,22,0.00206477,10,-5.18264e-07,-3.38169, , , ,0.00124808,
2,0,0,0,0,42432.7,0.000199195,-0.000163081,-0.413294,22,0.00194501,10,6.74006e-08,-3.38374, , , ,-0.000163081,