File: Figure_codes/Fig_3-5/rawdata_trumpetplot_data/after 10th/20221101_1-115_003_TrumpetPlot_ParaChange_from10_every3_03_CV_C01_10.csv
mode,ox/red,error,control changes,counter inc.,time/s,control/V,Ewe/V,<I>/mA,cycle number,(Q-Qo)/C,I Range,P/W,log(|I|),Tafel slope mV/dec,alpha_eff,dI/d(E-IR),E-IR/V,
2,0,0,1,0,20641.3,2.44065e-05,-0.000497109,-0.098122,11,0.0000000E+000,10,4.87774e-08,-4.00823, , , ,-0.000497109,
2,1,0,1,0,20642.8,0.00729041,0.00697647,0.205574,11,0.00026348,10,1.43418e-06,-3.68703,0.0830991,0.709995,5.64526,0.006976468,
2,1,0,1,0,20644.3,0.0147815,0.0144334,0.238061,11,0.00062151,10,3.43603e-06,-3.62331,0.132535,0.445165,4.13884,0.0144334,
2,1,0,1,0,20645.8,0.0222725,0.0219888,0.267215,11,0.00102469,10,5.87573e-06,-3.57314,0.156065,0.378047,3.9423,0.0219888,
2,1,0,1,0,20647.3,0.0297635,0.0294351,0.296255,11,0.00146928,10,8.72027e-06,-3.52834,0.187065,0.315398,3.6257,0.0294351,
2,1,0,1,0,20648.8,0.0372545,0.0368951,0.321419,11,0.00195505,10,1.18588e-05,-3.49293,0.21521,0.274151,3.45217,0.0368951,
2,1,0,1,0,20650.3,0.0447456,0.0443839,0.348105,11,0.00248056,10,1.54502e-05,-3.45829,0.23874,0.24713,3.35084,0.0443839,
2,1,0,1,0,20651.8,0.0522367,0.0519243,0.372037,11,0.00304438,10,1.93178e-05,-3.42941,0.242769,0.243029,3.52992,0.0519243,
2,1,0,1,0,20653.3,0.0597277,0.0594556,0.395258,11,0.003644,10,2.35003e-05,-3.40312,0.28828,0.204662,3.15642,0.0594556,
2,1,0,1,0,20654.8,0.0672187,0.0669241,0.416919,11,0.00427621,10,2.79019e-05,-3.37995,0.375164,0.157265,2.54379,0.0669241,
2,1,0,1,0,20656.3,0.0747092,0.0744068,0.434038,11,0.00493591,10,3.22954e-05,-3.36247,0.435571,0.135455,2.29071,0.0744068,
2,1,0,0,0,20657.8,0.0822001,0.0818774,0.447666,11,0.00561995,10,3.66537e-05,-3.34905,0.511686,0.115305,2.0238,0.0818774,
2,1,0,1,0,20659.3,0.0896911,0.0893607,0.470096,11,0.00633093,10,4.20081e-05,-3.32781,0.251474,0.234617,4.31175,0.0893607,
2,1,0,0,0,20660.8,0.097182,0.0968525,0.504573,11,0.00708396,10,4.88691e-05,-3.29708,0.166703,0.353923,6.96475,0.0968525,
2,1,0,1,0,20662.2,0.104673,0.104351,0.551138,11,0.00789694,10,5.75116e-05,-3.25874,0.215424,0.273879,5.86459,0.104351,
2,1,0,0,0,20663.7,0.112164,0.111835,0.588323,11,0.00877364,10,6.5795e-05,-3.23038,0.449264,0.131326,3.00364,0.111835,
2,1,0,1,0,20665.2,0.119655,0.119343,0.61618,11,0.00969996,10,7.35365e-05,-3.21029,0.522996,0.112812,2.71383,0.119343,
2,1,0,0,0,20666.7,0.127146,0.126803,0.638712,11,0.0106669,10,8.09903e-05,-3.19469,0.508973,0.11592,2.9046,0.126803,
2,1,0,1,0,20668.2,0.134637,0.134296,0.646436,11,0.0116628,10,8.6814e-05,-3.18947,-0.436297,-0.135229,-3.40527,0.134296,
2,1,0,1,0,20669.7,0.142127,0.141798,0.582855,11,0.0126181,10,8.2648e-05,-3.23444,-0.102893,-0.573413,-12.9557,0.141798,
2,1,0,1,0,20671.2,0.149618,0.149332,0.469228,11,0.0134301,10,7.00706e-05,-3.32862,-0.076371,-0.772545,-14.1576,0.149332,
2,1,0,1,0,20672.7,0.157109,0.156789,0.387778,11,0.0140889,10,6.07995e-05,-3.41142,-0.110403,-0.534404,-8.10488,0.156789,
2,1,0,1,0,20674.2,0.1646,0.164276,0.349317,11,0.0146609,10,5.73844e-05,-3.45678,-0.226038,-0.261018,-3.56269,0.164276,
2,1,0,1,0,20675.7,0.172091,0.171792,0.326349,11,0.0151888,10,5.60643e-05,-3.48632,-0.347021,-0.170018,-2.17778,0.171792,
2,1,0,1,0,20677.2,0.179582,0.179234,0.316433,11,0.0156922,10,5.67157e-05,-3.49972,-0.544617,-0.108333,-1.33581,0.179234,
2,1,0,1,0,20678.7,0.187074,0.186766,0.307316,11,0.0161806,10,5.73963e-05,-3.51242,-0.816732,-0.0722391,-0.864718,0.186766,
2,1,0,1,0,20680.2,0.194564,0.19424,0.300668,11,0.0166583,10,5.84019e-05,-3.52191,-0.96555,-0.0611051,-0.718754,0.19424,
2,1,0,1,0,20681.7,0.202056,0.201698,0.296246,11,0.0171274,10,5.97523e-05,-3.52835,-0.81973,-0.0719749,-0.829607,0.2016983,
2,1,0,1,0,20683.2,0.209547,0.209228,0.291717,11,0.0175901,10,6.10355e-05,-3.53504,-1.69827,-0.0347412,-0.396099,0.209228,
2,1,0,1,0,20684.7,0.217038,0.216697,0.287688,11,0.0180472,10,6.23411e-05,-3.54108,-0.965698,-0.0610957,-0.68785,0.2166968,
2,1,0,1,0,20686.2,0.224529,0.224264,0.285811,11,0.0184994,10,6.4097e-05,-3.54392,-1.13152,-0.0521421,-0.580021,0.224264,
2,1,0,1,0,20687.7,0.232019,0.231721,0.282263,11,0.018947,10,6.54064e-05,-3.54935,-0.909623,-0.064862,-0.715039,0.231721,
2,1,0,0,0,20689.2,0.23951,0.239168,0.280592,11,0.0193911,10,6.71086e-05,-3.55192,-2.2307,-0.026449,-0.289072,0.239168,
2,1,0,1,0,20690.7,0.247001,0.246735,0.277796,11,0.0198314,10,6.8542e-05,-3.55627,-1.77231,-0.0332898,-0.361159,0.246735,
2,1,0,0,0,20692.2,0.254492,0.254196,0.275142,11,0.0202682,10,6.99398e-05,-3.56044,-1.70896,-0.0345239,-0.371775,0.254196,
2,1,0,1,0,20693.7,0.261983,0.261679,0.273879,11,0.0207019,10,7.16682e-05,-3.56244,-3.58533,-0.0164559,-0.175257,0.261679,
2,1,0,0,0,20695.2,0.269474,0.269155,0.271792,11,0.0211328,10,7.31542e-05,-3.56576,4.58525,0.0128673,0.136748,0.269155,
2,1,0,1,0,20696.7,0.276965,0.276644,0.269262,11,0.0215607,10,7.44897e-05,-3.56983,-4.32969,-0.0136268,-0.144077,0.276644,
2,1,0,0,0,20698.2,0.284456,0.284137,0.268664,11,0.0219857,10,7.63374e-05,-3.57079,-2.27475,-0.0259369,-0.271288,0.284137,
2,1,0,1,0,20699.7,0.291947,0.291592,0.265679,11,0.0224077,10,7.747e-05,-3.57564,-3.27616,-0.0180089,-0.187206,0.291592,
2,1,0,1,0,20701.2,0.299437,0.299131,0.262184,11,0.0228268,10,7.84272e-05,-3.58139,-0.00243165,-24.2633,-123.524,0.2991311,
2,0,0,1,0,20702.6,0.293744,0.293444,-0.0165361,11,0.0228623,10,-4.85242e-06,-4.78157,-0.00479092,-12.315,5.68766,0.293444,
2,0,0,1,0,20704.1,0.286253,0.285944,-0.0461638,11,0.0227914,10,-1.32003e-05,-4.3357,-0.0343464,-1.71779,3.12203,0.285944,
2,0,0,0,0,20705.6,0.278763,0.278489,-0.0676648,11,0.0226836,10,-1.88439e-05,-4.16964,-0.0689493,-0.855702,2.23289,0.278489,
2,0,0,1,0,20707.1,0.271272,0.270966,-0.083162,11,0.0225485,10,-2.25341e-05,-4.08008,-0.0957019,-0.616497,1.98982,0.2709659,
2,0,0,0,0,20708.6,0.263781,0.263438,-0.0960961,11,0.0223911,10,-2.53154e-05,-4.01729,-0.12562,-0.46967,1.76974,0.263438,
2,0,0,1,0,20710.1,0.25629,0.255962,-0.107972,11,0.022215,10,-2.76367e-05,-3.96669,-0.205552,-0.287032,1.20448,0.255962,
2,0,0,0,0,20711.6,0.248799,0.248494,-0.117768,11,0.0220224,10,-2.92647e-05,-3.92897,-0.200998,-0.293535,1.35945,0.248494,
2,0,0,1,0,20713.1,0.241308,0.241013,-0.128881,11,0.0218145,10,-3.1062e-05,-3.88981,-0.186338,-0.316629,1.5842,0.241013,
2,0,0,0,0,20714.6,0.233817,0.23352,-0.138292,11,0.0215921,10,-3.22939e-05,-3.8592,-0.23998,-0.245854,1.32228,0.23352,
2,0,0,1,0,20716.1,0.226326,0.226039,-0.147376,11,0.0213556,10,-3.33127e-05,-3.83157,-0.275346,-0.214276,1.2389,0.226039,
2,0,0,0,0,20717.6,0.218835,0.218508,-0.157017,11,0.0211055,10,-3.43094e-05,-3.80405,-0.46727,-0.126265,0.76887,0.218508,
2,0,0,1,0,20719.1,0.211344,0.211057,-0.166014,11,0.0208423,10,-3.50384e-05,-3.77986,-0.399297,-0.14776,0.953648,0.211057,
2,0,0,1,0,20720.5,0.203854,0.203516,-0.17488,11,0.020565,10,-3.5591e-05,-3.75726,-0.366045,-0.161182,1.09875,0.203516,
2,0,0,1,0,20722,0.196363,0.196015,-0.184947,11,0.0202735,10,-3.62522e-05,-3.73295,-0.264697,-0.222896,1.60374,0.196015,
2,0,0,1,0,20723.5,0.188871,0.188526,-0.195511,11,0.0199658,10,-3.68588e-05,-3.70883,-0.206342,-0.285933,2.18361,0.188526,
2,0,0,1,0,20725,0.181381,0.18109,-0.208103,11,0.0196405,10,-3.76855e-05,-3.68172,-0.277465,-0.212639,1.72273,0.18109,
2,0,0,1,0,20726.5,0.173889,0.173552,-0.223757,11,0.0192948,10,-3.88334e-05,-3.65022,-0.213777,-0.275988,2.39887,0.173552,
2,0,0,1,0,20728,0.166398,0.166082,-0.242503,11,0.0189225,10,-4.02755e-05,-3.61528,-0.200202,-0.294702,2.81624,0.166082,
2,0,0,1,0,20729.5,0.158907,0.15859,-0.269881,11,0.0185145,10,-4.28006e-05,-3.56883,-0.140126,-0.421051,4.47528,0.15859,
2,0,0,1,0,20731,0.151416,0.151079,-0.315688,11,0.0180532,10,-4.76939e-05,-3.50074,-0.0943298,-0.625465,7.72414,0.151079,
2,0,0,1,0,20732.5,0.143925,0.143636,-0.390498,11,0.0175046,10,-5.60896e-05,-3.40838,-0.0691965,-0.852645,12.9695,0.143636,
2,0,0,1,0,20734,0.136434,0.136112,-0.497956,11,0.0168192,10,-6.77776e-05,-3.30281,-0.0771305,-0.764937,14.7597,0.136112,
2,0,0,1,0,20735.5,0.128943,0.128667,-0.596262,11,0.0159729,10,-7.67194e-05,-3.22456,-0.134766,-0.437794,10.1279,0.128667,
2,0,0,0,0,20737,0.121453,0.121102,-0.649254,11,0.0150089,10,-7.86259e-05,-3.18759,-0.514752,-0.114618,2.89565,0.121102,
2,0,0,1,0,20738.5,0.113962,0.113655,-0.652051,11,0.0140032,10,-7.41086e-05,-3.18572,0.939181,0.0628207,-1.60214,0.113655,
2,0,0,0,0,20740,0.106471,0.106193,-0.638973,11,0.0130082,10,-6.78541e-05,-3.19452,0.788277,0.0748468,-1.87132,0.106193,
2,0,0,1,0,20741.5,0.0989799,0.0986774,-0.619185,11,0.0120399,10,-6.10996e-05,-3.20818,0.590111,0.0999811,-2.41025,0.0986774,
2,0,0,0,0,20743,0.0914889,0.0911538,-0.596484,11,0.0111056,10,-5.43718e-05,-3.2244,0.430813,0.13695,-3.17945,0.0911538,
2,0,0,1,0,20744.5,0.083998,0.0836652,-0.570538,11,0.0102074,10,-4.77342e-05,-3.24372,0.319807,0.184486,-4.10223,0.0836652,
2,0,0,0,0,20746,0.076507,0.0761586,-0.55142,11,0.0093439,10,-4.19954e-05,-3.25852,0.403936,0.146063,-3.13521,0.07615862,
2,0,0,1,0,20747.5,0.0690161,0.0687283,-0.530113,11,0.00851032,10,-3.64338e-05,-3.27563,0.613574,0.0961579,-1.99802,0.0687283,
2,0,0,0,0,20749,0.0615251,0.0612132,-0.514558,11,0.00770227,10,-3.14978e-05,-3.28857,0.472953,0.124748,-2.51086,0.0612132,
2,0,0,1,0,20750.5,0.0540342,0.0537045,-0.499418,11,0.00691936,10,-2.6821e-05,-3.30154,0.510386,0.115599,-2.24772,0.0537045,
2,0,0,1,0,20752,0.0465436,0.0462472,-0.480781,11,0.00616129,10,-2.22348e-05,-3.31805,0.42164,0.13993,-2.62962,0.0462472,
2,0,0,1,0,20753.5,0.0390526,0.0387393,-0.464044,11,0.00542892,10,-1.79767e-05,-3.33344,0.346539,0.170255,-3.07771,0.03873929,
2,0,0,1,0,20755,0.0315615,0.0312601,-0.447923,11,0.00472309,10,-1.40022e-05,-3.3488,0.475879,0.123981,-2.16215,0.0312601,
2,0,0,1,0,20756.5,0.0240706,0.0237566,-0.430653,11,0.00404199,10,-1.02309e-05,-3.36587,0.531109,0.111088,-1.87641,0.0237566,
2,0,0,1,0,20758,0.0165795,0.0162212,-0.42093,11,0.00338127,10,-6.82799e-06,-3.37579,0.706102,0.0835573,-1.37306,0.0162212,
2,0,0,1,0,20759.5,0.00908846,0.0087297,-0.414667,11,0.00273361,10,-3.61992e-06,-3.3823,3.45609,0.0170713,-0.276125,0.0087297,
2,0,0,1,0,20761,0.00159739,0.00123242,-0.41774,11,0.0020886,10,-5.14831e-07,-3.37909, , , ,0.00123242,
2,0,0,0,0,20761.3,0.000199195,-0.000140177,-0.415611,11,0.00196776,10,5.82588e-08,-3.38131, , , ,-0.000140177,