File: Figure_codes/Fig_3-5/rawdata_trumpetplot_data/after 10th/20221101_1-115_003_TrumpetPlot_ParaChange_from10_every3_09_CV_C01_2.csv
mode,ox/red,error,control changes,counter inc.,time/s,control/V,Ewe/V,<I>/mA,cycle number,(Q-Qo)/C,I Range,P/W,log(|I|),Tafel slope mV/dec,alpha_eff,dI/d(E-IR),E-IR/V,
2,0,0,0,0,5122.78,2.44065e-05,-0.000268062,-5.20609,3,0.0000000E+000,10,1.39555e-06,-2.28349, , , ,-0.000268062,
2,1,0,1,0,5122.88,0.00978761,0.00946734,2.58172,3,1.60252e-05,10,2.4442e-05,-2.58809,0.024395,2.41853,232.85,0.00946734,
2,1,0,1,0,5122.98,0.0197755,0.0194969,3.82303,3,0.000347694,10,7.4537e-05,-2.41759,0.12118,0.48688,72.6302,0.0194969,
2,1,0,1,0,5123.08,0.0297635,0.0294405,4.45319,3,0.000762873,10,0.000131104,-2.35133,0.185344,0.318326,55.3173,0.0294405,
2,1,0,1,0,5123.18,0.0397514,0.0394435,5.02156,3,0.00123663,10,0.000198068,-2.29916,0.184302,0.320127,62.8408,0.0394435,
2,1,0,1,0,5123.28,0.0497484,0.0494444,5.62921,3,0.00176843,10,0.000278333,-2.24955,0.215778,0.273429,59.8928,0.0494444,
2,1,0,1,0,5123.38,0.0597273,0.0594223,6.20232,3,0.00235823,10,0.000368556,-2.20745,0.245912,0.239924,57.9959,0.0594223,
2,1,0,1,0,5123.48,0.0697152,0.0694351,6.74649,3,0.00300537,10,0.000468443,-2.17092,0.314044,0.187872,49.5149,0.0694351,
2,1,0,1,0,5123.58,0.0797031,0.0793681,7.25887,3,0.00370551,10,0.000576123,-2.13913,0.338726,0.174182,49.3812,0.0793681,
2,1,0,1,0,5123.68,0.0896911,0.089383,7.72149,3,0.00445454,10,0.00069017,-2.1123,0.356884,0.16532,49.899,0.089383,
2,1,0,1,0,5123.78,0.099679,0.0993906,8.28586,3,0.00525212,10,0.000823536,-2.08166,0.305485,0.193136,62.3746,0.0993906,
2,1,0,1,0,5123.88,0.109667,0.10935,9.06976,3,0.00611588,10,0.000991774,-2.0424,0.226582,0.260391,92.2297,0.10935,
2,1,0,1,0,5123.98,0.119655,0.119307,10.0399,3,0.00706993,10,0.00119784,-1.99827,0.251054,0.235009,92.0131,0.119307,
2,1,0,1,0,5124.08,0.129643,0.129344,10.8892,3,0.00811727,10,0.00140845,-1.96301,0.330729,0.178394,75.7752,0.129344,
2,1,0,1,0,5124.18,0.139631,0.139325,11.5482,3,0.00924024,10,0.00160895,-1.93749,0.462698,0.127513,57.4803,0.139325,
2,1,0,1,0,5124.28,0.149619,0.149328,11.8214,3,0.0104133,10,0.00176526,-1.92733,-1.07411,-0.0549294,-25.2625,0.149328,
2,1,0,1,0,5124.38,0.159607,0.159327,10.6048,3,0.0115504,10,0.00168963,-1.9745,-0.108031,-0.54614,-225.304,0.159327,
2,1,0,1,0,5124.48,0.169595,0.169315,7.99354,3,0.0124804,10,0.00135342,-2.09726,-0.0753459,-0.783055,-244.55,0.169315,
2,1,0,1,0,5124.58,0.179582,0.17924,6.21447,3,0.0131795,10,0.00111388,-2.2066,-0.118702,-0.497042,-121.055,0.17924,
2,1,0,1,0,5124.68,0.18957,0.189276,5.35672,3,0.0137536,10,0.0010139,-2.2711,-0.196347,-0.300488,-62.913,0.189276,
2,1,0,1,0,5124.78,0.199558,0.199256,4.8661,3,0.0142619,10,0.000969601,-2.31282,-0.302139,-0.195274,-37.0665,0.199256,
2,1,0,1,0,5124.88,0.209546,0.209239,4.5538,3,0.0147312,10,0.000952831,-2.34163,-0.34284,-0.172092,-30.5854,0.209239,
2,1,0,1,0,5124.98,0.219534,0.219251,4.33801,3,0.0151744,10,0.000951114,-2.36271,-0.606241,-0.0973211,-16.4723,0.219251,
2,1,0,1,0,5125.08,0.229522,0.229223,4.18216,3,0.0156001,10,0.000958645,-2.3786,-0.716533,-0.082341,-13.4576,0.229223,
2,1,0,1,0,5125.17,0.23951,0.239213,4.08052,3,0.0160133,10,0.000976113,-2.38928,-1.30705,-0.0451399,-7.19767,0.239213,
2,1,0,1,0,5125.27,0.249498,0.249181,4.00488,3,0.016417,10,0.00099794,-2.39741,-1.6933,-0.0348433,-5.44172,0.249181,
2,1,0,1,0,5125.37,0.259486,0.259208,3.94095,3,0.0168136,10,0.00102153,-2.4044,-1.00082,-0.0589518,-9.0513,0.259208,
2,1,0,1,0,5125.47,0.269474,0.269168,3.87513,3,0.0172039,10,0.00104306,-2.41171,-2.21414,-0.0266469,-4.03371,0.2691685,
2,1,0,1,0,5125.57,0.279462,0.279202,3.81848,3,0.0175887,10,0.00106612,-2.41811,-1.69123,-0.0348859,-5.20025,0.279202,
2,1,0,1,0,5125.67,0.28945,0.289153,3.7632,3,0.0179677,10,0.00108814,-2.42444,-2.03506,-0.0289917,-4.258,0.289153,
2,1,0,1,0,5125.77,0.299438,0.299146,3.71228,3,0.0183411,10,0.00111052,-2.43036,-0.0248018,-2.37886,-311.106,0.299146,
2,0,0,1,0,5125.86,0.291747,0.291428,-1.27442,3,0.0183569,10,-0.000371403,-2.89469,-0.0263709,-2.23732,106.961,0.291428,
2,0,0,1,0,5125.96,0.281759,0.281457,-1.81448,3,0.0181976,10,-0.000510697,-2.74125,-0.113823,-0.518349,36.6269,0.281457,
2,0,0,1,0,5126.06,0.271771,0.271458,-2.11202,3,0.0180004,10,-0.000573326,-2.6753,-0.17427,-0.338556,27.812,0.271458,
2,0,0,1,0,5126.16,0.261783,0.261487,-2.32936,3,0.0177781,10,-0.000609097,-2.63276,-0.311679,-0.189297,17.1633,0.261487,
2,0,0,1,0,5126.26,0.251795,0.25144,-2.49634,3,0.0175366,10,-0.000627679,-2.6027,-0.356904,-0.165311,16.1208,0.25144,
2,0,0,1,0,5126.36,0.241807,0.24149,-2.64988,3,0.0172787,10,-0.000639919,-2.57677,-0.381677,-0.154581,16.0405,0.24149,
2,0,0,1,0,5126.46,0.231815,0.231506,-2.80155,3,0.0170061,10,-0.000648577,-2.5526,-0.373912,-0.157791,17.2333,0.231506,
2,0,0,1,0,5126.56,0.221831,0.221521,-2.93645,3,0.0167195,10,-0.000650485,-2.53218,-0.478884,-0.123203,14.1041,0.221521,
2,0,0,1,0,5126.66,0.211843,0.211517,-3.07976,3,0.0164186,10,-0.000651423,-2.51148,-0.547893,-0.107685,12.9317,0.211517,
2,0,0,1,0,5126.76,0.201856,0.201556,-3.2259,3,0.0161028,10,-0.000650202,-2.49135,-0.487701,-0.120976,15.2774,0.201556,
2,0,0,1,0,5126.86,0.191868,0.191526,-3.41168,3,0.0157705,10,-0.000653427,-2.46703,-0.371553,-0.158793,21.1872,0.191526,
2,0,0,1,0,5126.96,0.18188,0.181559,-3.64834,3,0.0154185,10,-0.00066239,-2.4379,-0.286349,-0.206042,29.2906,0.181559,
2,0,0,1,0,5127.06,0.171892,0.171527,-3.96579,3,0.0150388,10,-0.000680241,-2.40167,-0.239338,-0.246514,38.209,0.171527,
2,0,0,1,0,5127.16,0.161904,0.161603,-4.47188,3,0.0146186,10,-0.000722669,-2.34951,-0.154652,-0.381502,66.6882,0.161603,
2,0,0,1,0,5127.26,0.151916,0.151608,-5.33051,3,0.0141318,10,-0.00080815,-2.27323,-0.110731,-0.532824,111.264,0.151608,
2,0,0,1,0,5127.36,0.141928,0.141616,-6.81361,3,0.0135299,10,-0.000964918,-2.16662,-0.0856427,-0.688908,183.3,0.141616,
2,0,0,1,0,5127.46,0.13194,0.131644,-8.77655,3,0.012753,10,-0.00115538,-2.05668,-0.101122,-0.583452,199.777,0.131644,
2,0,0,1,0,5127.56,0.121952,0.121647,-10.5922,3,0.0117804,10,-0.00128852,-1.97501,-0.16788,-0.351441,144.945,0.121647,
2,0,0,1,0,5127.66,0.111964,0.111659,-11.6931,3,0.0106604,10,-0.00130565,-1.93207,-0.370917,-0.159065,72.4872,0.111659,
2,0,0,1,0,5127.76,0.101976,0.101633,-12.0123,3,0.00946901,10,-0.00122085,-1.92037,2.75732,0.0213976,-10.0162,0.101633,
2,0,0,1,0,5127.86,0.0919883,0.0916826,-11.5584,3,0.00828524,10,-0.00105971,-1.9371,0.368607,0.160062,-72.2053,0.0916826,
2,0,0,1,0,5127.96,0.0820004,0.0816829,-10.6585,3,0.00717431,10,-0.000870617,-1.9723,0.267116,0.220878,-91.9034,0.08168292,
2,0,0,1,0,5128.06,0.0720124,0.0716759,-9.87925,3,0.0061507,10,-0.000708104,-2.00528,0.36714,0.160702,-62.0613,0.0716759,
2,0,0,1,0,5128.16,0.0620245,0.0617209,-9.37827,3,0.00518961,10,-0.000578835,-2.02788,0.469844,0.125573,-45.9838,0.0617209,
2,0,0,1,0,5128.26,0.0520366,0.051698,-8.97897,3,0.00427221,10,-0.000464195,-2.04677,0.489699,0.120482,-42.2018,0.051698,
2,0,0,1,0,5128.36,0.0420486,0.0417224,-8.55894,3,0.00339508,10,-0.000357099,-2.06758,0.470044,0.12552,-41.9536,0.0417224,
2,0,0,1,0,5128.46,0.0320607,0.0317302,-8.06849,3,0.00256394,10,-0.000256014,-2.09321,0.32179,0.183349,-57.6326,0.03173016,
2,0,0,1,0,5128.56,0.0220728,0.0217283,-7.47752,3,0.00178754,10,-0.000162474,-2.12624,0.30496,0.193468,-56.4452,0.0217283,
2,0,0,1,0,5128.66,0.0120848,0.0117711,-6.96435,3,0.00106679,10,-8.19777e-05,-2.15712,0.352707,0.167277,-45.5121,0.0117711,
2,0,0,1,0,5128.76,0.0020969,0.0016988,-6.71872,3,0.00038694,10,-1.14138e-05,-2.17271,1.32041,0.0446831,-11.651,0.0016988,
2,0,0,1,0,5128.86,-0.00789103,-0.00825279,-6.54794,3,-0.000274078,10,5.40388e-05,-2.1839,9.99065,0.00590552,-1.51324,-0.00825279,
2,0,0,1,0,5128.96,-0.017879,-0.0181994,-6.60743,3,-0.000930242,10,0.000120251,-2.17997,-1.24259,-0.0474816,12.2377,-0.0181994,
2,0,0,1,0,5129.06,-0.0278669,-0.0282627,-6.75302,3,-0.00159717,10,0.000190858,-2.1705,-0.901071,-0.0654777,17.2714,-0.0282627,
2,0,0,1,0,5129.16,-0.0378548,-0.0382195,-6.98098,3,-0.00228293,10,0.000266809,-2.15608,-0.663685,-0.0888977,24.1969,-0.0382195,
2,0,0,1,0,5129.26,-0.0478428,-0.0482289,-7.26084,3,-0.00299445,10,0.000350182,-2.13901,-0.45748,-0.128967,36.6032,-0.0482289,
2,0,0,1,0,5129.36,-0.0578216,-0.0581981,-7.61971,3,-0.00373737,10,0.000443452,-2.11806,-0.442435,-0.133353,39.6671,-0.0581981,
2,0,0,1,0,5129.46,-0.0678187,-0.068155,-8.06358,3,-0.00452051,10,0.000549574,-2.09347,-0.363099,-0.16249,51.1107,-0.068155,
2,0,0,1,0,5129.56,-0.0778066,-0.0781808,-8.59379,3,-0.00535244,10,0.000671869,-2.06582,-0.347863,-0.169607,56.932,-0.07818079,
2,0,0,1,0,5129.66,-0.0877945,-0.0881415,-9.22944,3,-0.00624284,10,0.000813497,-2.03482,-0.309722,-0.190493,68.5862,-0.0881415,
2,0,0,1,0,5129.76,-0.0977825,-0.0981249,-9.86929,3,-0.00719755,10,0.000968423,-2.00571,-0.358981,-0.164354,63.2919,-0.0981249,
2,0,0,1,1,5129.85,-0.0927386,-0.0931092,-1.06036,3,-0.00774016,10,9.87292e-05,-2.97455,-0.00212336,-27.7861,628.273,-0.0931092,
2,1,0,1,1,5129.95,-0.0827529,-0.0831539,2.59966,3,-0.00763019,10,-0.000216172,-2.58508,0.0273475,2.15742,213.687,-0.0831539,
2,1,0,1,1,5130.05,-0.0727627,-0.0731144,4.06455,3,-0.00728759,10,-0.000297178,-2.39099,0.095826,0.615699,96.9229,-0.0731144,
2,1,0,1,1,5130.15,-0.0627748,-0.0630671,4.76204,3,-0.00684229,10,-0.000300328,-2.32221,0.212259,0.277962,51.6544,-0.0630671,
2,1,0,1,1,5130.25,-0.0527868,-0.0531151,5.14853,3,-0.00634405,10,-0.000273465,-2.28832,0.439253,0.134319,26.9511,-0.0531151,
2,1,0,1,1,5130.35,-0.0427989,-0.0431551,5.34028,3,-0.00581812,10,-0.00023046,-2.27244,0.797461,0.0739848,15.4164,-0.0431551,
2,1,0,1,1,5130.45,-0.0328109,-0.0331633,5.42419,3,-0.00527964,10,-0.000179884,-2.26567,2.60331,0.0226634,4.792,-0.0331633,
2,1,0,1,1,5130.55,-0.022823,-0.0231608,5.43245,3,-0.00473663,10,-0.00012582,-2.265,31.275,0.00188649,0.399822,-0.0231608,
2,1,0,1,1,5130.65,-0.0128351,-0.0131819,5.40836,3,-0.00419433,10,-7.12927e-05,-2.26693,-3.3271,-0.0177332,-3.74374,-0.0131819,
2,1,0,1,1,5130.75,-0.00284713,-0.00317141,5.38772,3,-0.00365421,10,-1.70867e-05,-2.26859,-4.98426,-0.0118373,-2.48849,-0.00317141,
2,1,0,1,1,5130.78,-2.55332e-05,-0.000363498,5.40801,3,-0.00350259,10,-1.9658e-06,-2.26696, , , ,-0.000363498,