File: Figure_codes/Fig_3-5/rawdata_trumpetplot_data/after 10th/20221101_1-115_003_TrumpetPlot_ParaChange_from10_every3_14_CV_C01_15.csv
mode,ox/red,error,control changes,counter inc.,time/s,control/V,Ewe/V,<I>/mA,cycle number,(Q-Qo)/C,I Range,P/W,log(|I|),Tafel slope mV/dec,alpha_eff,dI/d(E-IR),E-IR/V,
2,1,0,1,0,30751.1,2.44065e-05,-0.000363498,35.4484,16,0.0000000E+000,10,-1.28854e-05,-1.4504, , , ,-0.000363498,
2,1,0,1,0,30751.1,0.0133084,0.0129573,39.1817,16,0.000492982,10,0.00050769,-1.40692,0.411533,0.143366,218.424,0.0129573,
2,1,0,1,0,30751.1,0.0273414,0.0269833,41.8622,16,0.00106132,10,0.00112958,-1.37818,0.561211,0.10513,171.285,0.0269833,
2,1,0,1,0,30751.1,0.0413245,0.0409658,44.0282,16,0.00166313,10,0.00180365,-1.35627,0.703426,0.0838753,143.92,0.0409658,
2,1,0,1,0,30751.1,0.0553076,0.0549706,45.9068,16,0.00229308,10,0.00252352,-1.33812,0.807157,0.073096,130.95,0.0549706,
2,1,0,1,0,30751.1,0.0693407,0.0689945,47.6619,16,0.00294851,10,0.00328841,-1.32183,0.895106,0.0659139,122.547,0.0689945,
2,1,0,1,0,30751.1,0.0833238,0.0829441,49.3633,16,0.00362779,10,0.0040944,-1.3066,0.918022,0.0642686,123.82,0.0829441,
2,1,0,1,0,30751.2,0.0973069,0.0969542,51.1206,16,0.00433135,10,0.00495636,-1.2914,0.907445,0.0650177,129.751,0.0969542,
2,1,0,1,0,30751.2,0.11134,0.110905,53.0359,16,0.00506029,10,0.00588194,-1.27543,0.845021,0.0698208,144.565,0.110905,
2,1,0,1,0,30751.2,0.125323,0.124995,55.1081,16,0.00581744,10,0.00688821,-1.25878,0.847449,0.0696207,149.731,0.124995,
2,1,0,1,0,30751.2,0.139306,0.138942,57.2817,16,0.00660407,10,0.00795884,-1.24198,0.791567,0.0745357,166.792,0.138942,
2,1,0,1,0,30751.2,0.153339,0.152996,59.7389,16,0.00742337,10,0.00913979,-1.22374,0.763673,0.0772582,180.217,0.152996,
2,1,0,1,0,30751.2,0.167322,0.166997,62.3502,16,0.00827821,10,0.0104123,-1.20516,0.771485,0.0764759,186.021,0.166997,
2,1,0,1,0,30751.2,0.181305,0.180966,64.8984,16,0.00916935,10,0.0117444,-1.18777,0.855245,0.0689861,174.588,0.180966,
2,1,0,1,0,30751.3,0.195338,0.194978,67.135,16,0.0100944,10,0.0130899,-1.17305,1.13127,0.052154,136.425,0.194978,
2,1,0,1,0,30751.3,0.209322,0.209001,68.6587,16,0.0110461,10,0.0143497,-1.1633,2.22705,0.0264924,70.7843,0.209001,
2,1,0,1,0,30751.3,0.223305,0.222918,69.0436,16,0.0120116,10,0.0153911,-1.16088,-9.34687,-0.00631227,-16.9594,0.2229178,
2,1,0,1,0,30751.3,0.237338,0.237047,68.122,16,0.0129734,10,0.0161481,-1.16671,-1.33795,-0.0440974,-116.878,0.237047,
2,1,0,1,0,30751.3,0.251321,0.250981,65.8356,16,0.0139124,10,0.0165235,-1.18154,-0.735292,-0.0802403,-205.574,0.250981,
2,1,0,1,0,30751.3,0.265304,0.265002,62.4415,16,0.0148111,10,0.0165471,-1.20453,-0.534334,-0.110418,-268.541,0.265002,
2,1,0,1,0,30751.3,0.279337,0.279013,58.3838,16,0.015657,10,0.0162899,-1.23371,-0.442625,-0.133296,-303.408,0.279013,
2,1,0,1,0,30751.4,0.29332,0.293007,54.1378,16,0.0164441,10,0.0158628,-1.2665,-0.419611,-0.140606,-298.441,0.293007,
2,1,0,1,0,30751.4,0.298714,0.298601,49.2282,16,0.016865,10,0.0146996,-1.30779,0.0505709,1.16668,1995.37,0.298601,
2,1,0,1,0,30751.4,0.28473,0.284501,28.929,16,0.0173952,10,0.00823033,-1.53867,0.0602044,0.979994,1112.3,0.284501,
2,1,0,1,0,30751.4,0.270747,0.270493,16.0932,16,0.017704,10,0.0043531,-1.79336,0.0469009,1.25797,777.531,0.270493,
2,1,0,1,0,30751.4,0.256714,0.256435,6.78152,16,0.0178597,10,0.00173902,-2.16867,0.024289,2.42908,571.591,0.256435,
2,1,0,1,0,30751.4,0.242731,0.242462,-0.204834,16,0.017903,10,-4.96645e-05,-3.6886,1.05079,0.0561483,436.667,0.242462,
2,0,0,1,0,30751.4,0.228748,0.228464,-5.60602,16,0.0178604,10,-0.00128077,-2.25135,-0.0328637,-1.79529,345.314,0.228464,
2,0,0,1,0,30751.4,0.214715,0.214411,-9.92715,16,0.0177498,10,-0.00212849,-2.00318,-0.0803221,-0.734542,276.565,0.214411,
2,0,0,1,0,30751.5,0.200732,0.200453,-13.4563,16,0.017585,10,-0.00269736,-1.87107,-0.132353,-0.445779,231.174,0.2004531,
2,0,0,1,0,30751.5,0.186735,0.186436,-16.4699,16,0.0173748,10,-0.00307058,-1.78331,-0.186007,-0.317192,202.49,0.186436,
2,0,0,1,0,30751.5,0.172716,0.172412,-19.1477,16,0.0171249,10,-0.00330129,-1.71788,-0.237486,-0.248436,185.166,0.172412,
2,0,0,1,0,30751.5,0.158733,0.158413,-21.7181,16,0.0168386,10,-0.00344043,-1.66318,-0.265562,-0.22217,188.393,0.158413,
2,0,0,1,0,30751.5,0.144719,0.144445,-24.5469,16,0.016515,10,-0.00354566,-1.61,-0.256576,-0.229951,220.662,0.144445,
2,0,0,1,0,30751.5,0.130717,0.130461,-27.9623,16,0.016148,10,-0.00364799,-1.55343,-0.233111,-0.253098,277.238,0.130461,
2,0,0,1,0,30751.5,0.116733,0.116447,-32.3365,16,0.0157267,10,-0.00376548,-1.49031,-0.215693,-0.273536,345.821,0.116447,
2,0,0,1,0,30751.6,0.102703,0.102425,-37.5429,16,0.0152378,10,-0.00384532,-1.42547,-0.227126,-0.259767,379.498,0.102425,
2,0,0,1,0,30751.6,0.0887173,0.0884318,-42.7846,16,0.0146751,10,-0.00378352,-1.36871,-0.267665,-0.220425,366.79,0.0884318,
2,0,0,1,0,30751.6,0.0747341,0.0744704,-47.6365,16,0.0140409,10,-0.00354751,-1.32206,-0.340033,-0.173513,321.323,0.0744704,
2,0,0,1,0,30751.6,0.0607011,0.0604688,-51.8418,16,0.0133438,10,-0.00313481,-1.28532,-0.438199,-0.134642,271.358,0.0604688,
2,0,0,1,0,30751.6,0.046718,0.0464662,-55.1569,16,0.0125935,10,-0.00256293,-1.2584,-0.615014,-0.0959328,205.843,0.0464662,
2,0,0,1,0,30751.6,0.0327349,0.0325282,-57.6156,16,0.0118032,10,-0.00187413,-1.23946,-0.854705,-0.0690297,154.954,0.0325282,
2,0,0,1,0,30751.6,0.0187018,0.0184131,-59.5081,16,0.0109825,10,-0.00109573,-1.22542,-1.25811,-0.0468958,108.651,0.0184131,
2,0,0,1,0,30751.7,0.00471873,0.00443378,-60.6846,16,0.0101404,10,-0.000269062,-1.21692,-2.09895,-0.0281092,66.4928,0.00443378,
2,0,0,1,0,30751.7,-0.00926438,-0.00959646,-61.366,16,0.00928525,10,0.000588896,-1.21207,-4.92577,-0.0119778,28.6489,-0.00959646,
2,0,0,1,0,30751.7,-0.0232974,-0.0236278,-61.5667,16,0.00842429,10,0.00145468,-1.21065,32.4303,0.00181929,-4.364,-0.0236278,
2,0,0,1,0,30751.7,-0.0372805,-0.037588,-61.2293,16,0.0075643,10,0.00230149,-1.21304,3.53165,0.0167061,-39.8694,-0.037588,
2,0,0,1,0,30751.7,-0.0512636,-0.0516236,-60.4889,16,0.0067121,10,0.00312265,-1.21832,2.23336,0.0264176,-62.3185,-0.0516236,
2,0,0,1,0,30751.7,-0.0652967,-0.0656771,-59.5793,16,0.00587178,10,0.003913,-1.2249,2.02174,0.0291828,-67.8196,-0.0656771,
2,0,0,1,0,30751.7,-0.0792798,-0.0796692,-58.5923,16,0.00504473,10,0.00466801,-1.23216,2.06397,0.0285857,-65.4002,-0.0796692,
2,0,0,1,0,30751.8,-0.0932629,-0.093603,-57.7659,16,0.00423049,10,0.00540706,-1.23833,2.62381,0.0224863,-50.7284,-0.093603,
2,0,0,1,0,30751.8,-0.107296,-0.107632,-57.2242,16,0.00342603,10,0.00615917,-1.24242,4.3344,0.013612,-30.4083,-0.107632,
2,0,0,1,0,30751.8,-0.121279,-0.121618,-56.8864,16,0.00262761,10,0.0069184,-1.24499,9.20758,0.00640777,-14.2373,-0.121618,
2,0,0,1,0,30751.8,-0.135262,-0.135597,-56.8283,16,0.00183194,10,0.00770576,-1.24544,-29.1876,-0.0020214,4.48582,-0.1355972,
2,0,0,1,0,30751.8,-0.149295,-0.14962,-57.0409,16,0.0010352,10,0.00853446,-1.24381,-6.18577,-0.00953802,21.2317,-0.14962,
2,0,0,1,0,30751.8,-0.163278,-0.163613,-57.3629,16,0.000234479,10,0.00938532,-1.24137,-4.56334,-0.0129291,28.9595,-0.163613,
2,0,0,1,0,30751.8,-0.177261,-0.177611,-57.8225,16,-0.000571832,10,0.0102699,-1.2379,-3.86633,-0.01526,34.4393,-0.177611,
2,0,0,1,0,30751.9,-0.191295,-0.191588,-58.3732,16,-0.00138506,10,0.0111836,-1.23379,-3.44612,-0.0171207,38.9789,-0.191588,
2,0,0,0,1,30751.9,-0.199984,-0.200494,-58.3456,16,-0.00192928,10,0.0116979,-1.23399,-0.0409529,-1.44068,2915.94,-0.200494,
2,0,0,1,1,30751.9,-0.186686,-0.187132,-38.4662,16,-0.00254187,10,0.00719825,-1.41492,-0.0808851,-0.72943,1107.57,-0.187132,
2,0,0,1,1,30751.9,-0.172667,-0.173095,-25.6916,16,-0.00298482,10,0.0044471,-1.59021,-0.074694,-0.789889,790.149,-0.173095,
2,0,0,1,1,30751.9,-0.158684,-0.159103,-15.8721,16,-0.00327241,10,0.0025253,-1.79937,-0.0562901,-1.04814,637.972,-0.159103,
2,0,0,1,1,30751.9,-0.14467,-0.145134,-7.69616,16,-0.00343525,10,0.00111698,-2.11373,-0.0300067,-1.96622,538.747,-0.145134,
2,0,0,1,1,30751.9,-0.130668,-0.131092,-0.678607,16,-0.00349195,10,8.89596e-05,-3.16838,-0.0838039,-0.704025,468.367,-0.131092,
2,1,0,1,1,30751.9,-0.116685,-0.11715,5.5167,16,-0.00345676,10,-0.000646283,-2.25832,0.0253568,2.32679,419.304,-0.11715,
2,1,0,1,1,30752,-0.102654,-0.103118,11.1401,16,-0.00333943,10,-0.00114874,-1.95311,0.0646446,0.912682,382.523,-0.103118,
2,1,0,1,1,30752,-0.0886685,-0.0891355,16.2148,16,-0.00314684,10,-0.00144531,-1.79009,0.106083,0.556168,347.296,-0.0891355,
2,1,0,1,1,30752,-0.0746854,-0.0750798,20.8838,16,-0.00288612,10,-0.00156795,-1.68019,0.150248,0.392684,317.313,-0.0750798,
2,1,0,1,1,30752,-0.0606523,-0.0610474,25.1785,16,-0.00256318,10,-0.00153708,-1.59897,0.198137,0.297774,290.564,-0.0610474,
2,1,0,1,1,30752,-0.0466692,-0.047085,29.0238,16,-0.00218309,10,-0.00136658,-1.53725,0.254078,0.232213,262.037,-0.047085,
2,1,0,1,1,30752,-0.0326861,-0.0330792,32.538,16,-0.00175146,10,-0.00107633,-1.48761,0.31469,0.187486,237.302,-0.0330792,
2,1,0,1,1,30752,-0.018653,-0.0190638,35.721,16,-0.00127323,10,-0.000680976,-1.44708,0.382849,0.154108,214.134,-0.0190638,
2,1,0,1,1,30752.1,-0.00466992,-0.00506852,38.4988,16,-0.000753039,10,-0.000195132,-1.41455, , , ,-0.00506852,
2,1,0,0,1,30752.1,-0.000175352,-0.000592546,39.3104,16,-0.000577938,10,-2.32932e-05,-1.40549, , , ,-0.000592546,