File: Figure_codes/Fig_3-5/rawdata_trumpetplot_data/after 10th/20221101_1-115_003_TrumpetPlot_ParaChange_from10_every3_10_CV_C01_23.csv
mode,ox/red,error,control changes,counter inc.,time/s,control/V,Ewe/V,<I>/mA,cycle number,(Q-Qo)/C,I Range,P/W,log(|I|),Tafel slope mV/dec,alpha_eff,dI/d(E-IR),E-IR/V,
2,1,0,0,0,46503.5,-2.44065e-05,-0.000401673,5.13324,24,0.0000000E+000,10,-2.06188e-06,-2.28961, , , ,-0.000401673,
2,1,0,1,0,46503.6,0.00977853,0.0094309,7.51353,24,0.000320629,10,7.08594e-05,-2.12416,0.118894,0.496242,145.196,0.0094309,
2,1,0,1,0,46503.6,0.0197755,0.0194569,8.61838,24,0.000726333,10,0.000167687,-2.06457,0.237539,0.24838,83.4029,0.0194569,
2,1,0,1,0,46503.7,0.0297726,0.029457,9.33977,24,0.00117617,10,0.000275121,-2.02966,0.343346,0.171838,62.614,0.029457,
2,1,0,1,0,46503.7,0.0397514,0.0394264,9.94315,24,0.00165756,10,0.000392023,-2.00248,0.361087,0.163396,63.4145,0.0394264,
2,1,0,1,0,46503.8,0.0497393,0.0494197,10.5527,24,0.00216885,10,0.000521509,-1.97664,0.403586,0.146189,60.1799,0.0494197,
2,1,0,1,0,46503.8,0.0597364,0.0594267,11.171,24,0.00271154,10,0.000663856,-1.95191,0.391767,0.1506,65.5995,0.0594267,
2,1,0,1,0,46503.9,0.0697152,0.0693641,11.8057,24,0.00328477,10,0.00081889,-1.92791,0.425496,0.138662,63.9518,0.0693641,
2,1,0,1,0,46503.9,0.0796941,0.0793807,12.462,24,0.00389052,10,0.000989246,-1.90441,0.452084,0.130507,63.4426,0.0793807,
2,1,0,1,0,46504,0.0896911,0.0893009,13.0643,24,0.00452901,10,0.00116665,-1.88391,0.486777,0.121205,61.8589,0.0893009,
2,1,0,1,0,46504,0.099679,0.0993486,13.6672,24,0.00519618,10,0.00135782,-1.86432,0.563332,0.104734,55.799,0.0993486,
2,1,0,1,0,46504.1,0.109658,0.109316,14.2659,24,0.00589251,10,0.00155949,-1.8457,0.481078,0.122641,68.346,0.1093157,
2,1,0,1,0,46504.1,0.119655,0.119297,15.0688,24,0.00662513,10,0.00179765,-1.82192,0.399063,0.147846,86.8967,0.119297,
2,1,0,1,0,46504.2,0.129652,0.129305,16.0012,24,0.00740167,10,0.00206904,-1.79585,0.377818,0.15616,97.5437,0.129305,
2,1,0,1,0,46504.2,0.139631,0.139274,16.9158,24,0.00822375,10,0.00235592,-1.77171,0.46488,0.126914,83.745,0.139274,
2,1,0,1,0,46504.3,0.149619,0.149299,17.6238,24,0.00908673,10,0.00263122,-1.7539,0.700591,0.0842146,57.9008,0.149299,
2,1,0,1,0,46504.3,0.159616,0.159294,17.9121,24,0.00997788,10,0.0028533,-1.74685,-3.95509,-0.0149175,-10.4194,0.159294,
2,1,0,1,0,46504.4,0.169595,0.169255,17.3153,24,0.0108612,10,0.0029307,-1.76157,-0.344357,-0.171334,-115.607,0.169255,
2,1,0,1,0,46504.4,0.179573,0.179313,15.6527,24,0.0116871,10,0.00280674,-1.80541,-0.174164,-0.338761,-206.751,0.179313,
2,1,0,1,0,46504.5,0.18957,0.189253,13.5607,24,0.012417,10,0.0025664,-1.86772,-0.154183,-0.382662,-202.58,0.189253,
2,1,0,1,0,46504.5,0.199558,0.199225,11.8017,24,0.0130474,10,0.0023512,-1.92805,-0.18806,-0.31373,-144.518,0.199225,
2,1,0,1,0,46504.6,0.209537,0.209232,10.5473,24,0.0136027,10,0.00220682,-1.97686,-0.233132,-0.253076,-104.254,0.209232,
2,1,0,1,0,46504.6,0.219534,0.21925,9.6729,24,0.0141066,10,0.00212078,-2.01444,-0.319963,-0.184396,-69.6105,0.21925,
2,1,0,1,0,46504.7,0.229531,0.229212,9.04945,24,0.0145739,10,0.00207424,-2.04338,-0.387593,-0.152222,-53.8302,0.229212,
2,1,0,1,0,46504.7,0.23951,0.239185,8.6162,24,0.0150141,10,0.00206086,-2.06468,-0.562756,-0.104841,-35.2365,0.239185,
2,1,0,1,0,46504.8,0.249498,0.249169,8.27314,24,0.0154351,10,0.00206141,-2.08233,-0.641147,-0.0920226,-29.7264,0.249169,
2,1,0,1,0,46504.8,0.259495,0.259238,8.01892,24,0.015842,10,0.00207881,-2.09588,-0.747464,-0.0789336,-24.6797,0.259238,
2,1,0,1,0,46504.9,0.269474,0.269164,7.80168,24,0.0162365,10,0.00209993,-2.10781,-0.944638,-0.0624578,-19.0312,0.269164,
2,1,0,1,0,46504.9,0.279453,0.279142,7.63123,24,0.0166215,10,0.00213019,-2.11741,-0.975074,-0.0605082,-18.0112,0.2791416,
2,1,0,1,0,46505,0.28945,0.289139,7.46849,24,0.016999,10,0.00215943,-2.12677,-1.3023,-0.0453044,-13.2202,0.289139,
2,1,0,1,0,46505,0.299438,0.299156,7.33781,24,0.0173684,10,0.00219515,-2.13443,-0.0671495,-0.878636,-242.796,0.299156,
2,1,0,1,0,46505.1,0.291747,0.291423,1.02134,24,0.0175295,10,0.000297642,-2.99083,0.00496754,11.8771,401.462,0.291423,
2,0,0,1,0,46505.1,0.28175,0.281417,-1.51683,24,0.0175074,10,-0.000426864,-2.81906,-0.0203881,-2.89384,165.242,0.281417,
2,0,0,1,0,46505.2,0.27178,0.271473,-2.7156,24,0.0173988,10,-0.000737211,-2.56613,-0.0674384,-0.874872,92.4667,0.271473,
2,0,0,1,0,46505.2,0.261783,0.261509,-3.44842,24,0.0172434,10,-0.000901794,-2.46238,-0.135069,-0.436813,58.5675,0.2615093,
2,0,0,1,0,46505.3,0.251786,0.251482,-3.94536,24,0.0170578,10,-0.000992189,-2.40391,-0.207707,-0.284054,43.8141,0.251482,
2,0,0,1,0,46505.3,0.241807,0.241472,-4.34191,24,0.0168503,10,-0.00104845,-2.36232,-0.270605,-0.21803,36.9797,0.241472,
2,0,0,1,0,46505.4,0.231824,0.231517,-4.67283,24,0.016625,10,-0.00108184,-2.33042,-0.325283,-0.181381,33.0935,0.231517,
2,0,0,1,0,46505.4,0.221822,0.221534,-4.95982,24,0.0163841,10,-0.00109877,-2.30453,-0.41198,-0.143211,27.6836,0.221534,
2,0,0,1,0,46505.5,0.211843,0.211516,-5.22291,24,0.0161299,10,-0.00110473,-2.28209,-0.518402,-0.113811,23.1997,0.211516,
2,0,0,1,0,46505.5,0.201865,0.20156,-5.48061,24,0.0158629,10,-0.00110467,-2.26117,-0.522016,-0.113023,24.1417,0.20156,
2,0,0,1,0,46505.6,0.191868,0.191546,-5.72774,24,0.0155827,10,-0.00109712,-2.24202,-0.521379,-0.113161,25.3385,0.191546,
2,0,0,1,0,46505.6,0.18188,0.181583,-6.01245,24,0.0152901,10,-0.00109176,-2.22095,-0.426978,-0.13818,32.3295,0.181583,
2,0,0,1,0,46505.7,0.171901,0.171584,-6.30868,24,0.0149831,10,-0.00108247,-2.20006,-0.45132,-0.130728,32.2099,0.171584,
2,0,0,1,0,46505.7,0.161904,0.161567,-6.70167,24,0.0146583,10,-0.00108277,-2.17382,-0.349045,-0.169033,44.1413,0.161567,
2,0,0,1,0,46505.8,0.151907,0.151607,-7.23418,24,0.0143107,10,-0.00109675,-2.14061,-0.253016,-0.233187,66.0015,0.151607,
2,0,0,1,0,46505.8,0.141928,0.141603,-8.12123,24,0.0139293,10,-0.00114999,-2.09038,-0.169811,-0.347446,110.104,0.141603,
2,0,0,1,0,46505.9,0.13194,0.131624,-9.51963,24,0.0134917,10,-0.00125302,-2.02138,-0.130052,-0.453666,168.714,0.131624,
2,0,0,1,0,46505.9,0.121943,0.121681,-11.3556,24,0.0129707,10,-0.00138175,-1.94479,-0.136285,-0.432917,191.576,0.121681,
2,0,0,1,0,46506,0.111964,0.11162,-13.1898,24,0.0123572,10,-0.00147225,-1.87976,-0.176061,-0.335112,172.484,0.1116202,
2,0,0,1,0,46506,0.101985,0.101686,-14.7595,24,0.0116582,10,-0.00150083,-1.83093,-0.247672,-0.238218,137.026,0.101686,
2,0,0,1,0,46506.1,0.0919883,0.0917397,-15.9093,24,0.0108893,10,-0.00145952,-1.79835,-0.38472,-0.153358,95.2382,0.0917397,
2,0,0,1,0,46506.1,0.0820004,0.0816674,-16.5418,24,0.010077,10,-0.00135093,-1.78142,-1.22729,-0.0480734,30.9856,0.0816674,
2,0,0,1,0,46506.2,0.0720215,0.0716911,-16.6066,24,0.00924854,10,-0.00119054,-1.77972,2.90121,0.0203363,-13.175,0.0716911,
2,0,0,1,0,46506.2,0.0620245,0.0617206,-16.3773,24,0.00842332,10,-0.00101081,-1.78576,1.24077,0.047551,-30.3844,0.0617206,
2,0,0,1,0,46506.3,0.0520275,0.0517267,-16.0783,24,0.00761182,10,-0.000831679,-1.79376,1.19055,0.0495569,-31.1014,0.0517267,
2,0,0,1,0,46506.3,0.0420486,0.0417511,-15.7781,24,0.00681695,10,-0.000658751,-1.80195,1.22575,0.0481338,-29.6288,0.0417511,
2,0,0,1,0,46506.4,0.0320607,0.0317266,-15.4231,24,0.00603828,10,-0.000489323,-1.81183,0.858147,0.0687528,-41.3811,0.0317266,
2,0,0,1,0,46506.4,0.0220637,0.0217726,-14.9891,24,0.00527772,10,-0.000326351,-1.82422,0.693501,0.0850755,-49.7231,0.0217726,
2,0,0,1,0,46506.5,0.0120848,0.0117832,-14.4258,24,0.00454352,10,-0.000169982,-1.84086,0.512785,0.115058,-64.7955,0.0117832,
2,0,0,1,0,46506.5,0.00210598,0.0017283,-13.845,24,0.00383932,10,-2.39283e-05,-1.85871,0.591751,0.0997041,-53.7263,0.0017283,
2,0,0,1,0,46506.6,-0.00789103,-0.00823876,-13.2238,24,0.00316318,10,0.000108948,-1.87864,0.58858,0.100241,-51.8044,-0.00823876,
2,0,0,1,0,46506.6,-0.017879,-0.0182563,-12.809,24,0.00251434,10,0.000233844,-1.89249,0.948735,0.0621881,-31.0566,-0.0182563,
2,0,0,1,0,46506.7,-0.0278578,-0.0282041,-12.5355,24,0.00188275,10,0.000353552,-1.90186,1.4878,0.0396559,-19.4278,-0.0282041,
2,0,0,1,0,46506.7,-0.0378549,-0.0382475,-12.4548,24,0.00125856,10,0.000476365,-1.90466,8.2267,0.00717177,-3.48336,-0.0382475,
2,0,0,1,0,46506.8,-0.0478519,-0.0482189,-12.4867,24,0.00063538,10,0.000602092,-1.90355,-2.16102,-0.0273019,13.3224,-0.0482189,
2,0,0,1,0,46506.8,-0.0578126,-0.0581998,-12.6537,24,9.60378e-06,10,0.000736445,-1.89778,-1.45085,-0.0406659,20.0746,-0.0581998,
2,0,0,1,0,46506.9,-0.0678187,-0.0681756,-12.8988,24,-0.000628841,10,0.000879382,-1.88945,-0.942419,-0.0626049,31.522,-0.0681756,
2,0,0,1,0,46506.9,-0.0778157,-0.0781513,-13.2405,24,-0.00128205,10,0.00103476,-1.8781,-0.838732,-0.0703443,36.3334,-0.0781513,
2,0,0,1,0,46507,-0.0877945,-0.088166,-13.6688,24,-0.00195308,10,0.00120512,-1.86427,-0.658253,-0.0896312,47.848,-0.088166,
2,0,0,1,0,46507,-0.0977734,-0.0981323,-14.1841,24,-0.00264783,10,0.00139192,-1.8482,-0.582539,-0.101281,56.0822,-0.09813226,
2,0,0,1,1,46507.1,-0.0936874,-0.0940322,-7.15731,24,-0.00312499,10,0.000673017,-2.14525,-0.021301,-2.76982,772.703,-0.0940322,
2,0,0,1,1,46507.1,-0.0837086,-0.0840987,-1.44506,24,-0.00332603,10,0.000121528,-2.84011,-0.00676614,-8.7199,439.846,-0.0840987,
2,1,0,1,1,46507.2,-0.0737025,-0.0741256,2.16134,24,-0.0033016,10,-0.00016021,-2.66528,0.0163218,3.6148,294.915,-0.0741256,
2,1,0,1,1,46507.2,-0.0637236,-0.0641247,4.65758,24,-0.00312759,10,-0.000298666,-2.33184,0.052764,1.11819,202.012,-0.0641247,
2,1,0,1,1,46507.3,-0.0537448,-0.0541264,6.4223,24,-0.00284845,10,-0.000347616,-2.19231,0.101698,0.58015,145.081,-0.0541264,
2,1,0,1,1,46507.3,-0.0437477,-0.0441064,7.67164,24,-0.00249411,10,-0.000338369,-2.11511,0.170155,0.346743,103.612,-0.04410645,
2,1,0,1,1,46507.4,-0.0337507,-0.034103,8.53029,24,-0.0020875,10,-0.000290908,-2.06904,0.272436,0.216565,72.1168,-0.034103,
2,1,0,1,1,46507.4,-0.0237809,-0.024129,9.1133,24,-0.00164709,10,-0.000219894,-2.04032,0.4461,0.132257,46.9667,-0.024129,
2,1,0,1,1,46507.4,-0.0137839,-0.0141029,9.46891,24,-0.00118182,10,-0.000133539,-2.0237,0.862758,0.0683853,25.2718,-0.0141029,
2,1,0,1,1,46507.5,-0.0037869,-0.00415754,9.68223,24,-0.000702584,10,-4.02542e-05,-2.01402,1.39023,0.0424391,16.0243,-0.00415754,
2,1,0,1,1,46507.5,-2.55332e-05,-0.000325324,9.70822,24,-0.000521083,10,-3.15831e-06,-2.01286, , , ,-0.000325324,