File: Figure_codes/Fig_3-5/rawdata_trumpetplot_data/after 10th/20221101_1-115_003_TrumpetPlot_ParaChange_from10_every3_07_CV_C01_18.csv
mode,ox/red,error,control changes,counter inc.,time/s,control/V,Ewe/V,<I>/mA,cycle number,(Q-Qo)/C,I Range,P/W,log(|I|),Tafel slope mV/dec,alpha_eff,dI/d(E-IR),E-IR/V,
2,0,0,0,0,36627.4,2.44065e-05,-0.000382585,-2.73002,19,0.0000000E+000,10,1.04447e-06,-2.56383, , , ,-0.000382585,
2,1,0,1,0,36627.5,0.007288,0.00695975,1.01885,19,-2.79895e-05,10,7.09095e-06,-2.99189,0.0101925,5.78857,201.969,0.00695975,
2,1,0,1,0,36627.6,0.0147816,0.0144575,1.90561,19,0.000165811,10,2.75505e-05,-2.71996,0.0601323,0.981171,72.3671,0.0144575,
2,1,0,1,0,36627.7,0.0222712,0.0219248,2.32563,19,0.000433914,10,5.0989e-05,-2.63346,0.12152,0.485517,43.925,0.0219248,
2,1,0,1,0,36627.9,0.0297648,0.029464,2.62799,19,0.000745114,10,7.7431e-05,-2.58038,0.170648,0.345741,35.2519,0.029464,
2,1,0,1,0,36628,0.0372518,0.0369437,2.88555,19,0.00109072,10,0.000106603,-2.53977,0.189369,0.31156,35.0679,0.0369437,
2,1,0,1,0,36628.1,0.0447467,0.0444429,3.13191,19,0.00146887,10,0.000139191,-2.50419,0.222463,0.265212,32.494,0.0444429,
2,1,0,1,0,36628.2,0.052235,0.0519311,3.38421,19,0.00187778,10,0.000175746,-2.47054,0.239552,0.246293,32.5042,0.0519311,
2,1,0,1,0,36628.4,0.0597299,0.0594145,3.62193,19,0.00231698,10,0.000215195,-2.44106,0.273884,0.21542,30.3365,0.0594145,
2,1,0,1,0,36628.5,0.0672156,0.0669082,3.83345,19,0.00278356,10,0.000256489,-2.41641,0.291527,0.202382,30.214,0.0669082,
2,1,0,1,0,36628.6,0.0747105,0.0744013,4.0181,19,0.00327594,10,0.000298952,-2.39598,0.380051,0.155243,24.3542,0.0744013,
2,1,0,1,0,36628.7,0.0821988,0.0818884,4.18425,19,0.00379019,10,0.000342641,-2.37838,0.533236,0.110645,18.0662,0.0818884,
2,1,0,1,0,36628.9,0.0896937,0.0893449,4.33877,19,0.0043241,10,0.000387647,-2.36263,0.520025,0.113456,19.2015,0.0893449,
2,1,0,1,0,36629,0.0971794,0.0968334,4.5133,19,0.0048778,10,0.000437038,-2.34551,0.333486,0.176919,31.1801,0.0968334,
2,1,0,1,0,36629.1,0.104674,0.104341,4.78783,19,0.00545926,10,0.000499568,-2.31986,0.242286,0.243514,45.5101,0.104341,
2,1,0,1,0,36629.2,0.112163,0.111838,5.14631,19,0.00608066,10,0.000575553,-2.2885,0.229121,0.257506,51.7566,0.111838,
2,1,0,1,0,36629.4,0.119657,0.119368,5.52798,19,0.00674973,10,0.000659864,-2.25743,0.295895,0.199395,42.9465,0.119368,
2,1,0,1,0,36629.5,0.127143,0.126863,5.80868,19,0.00745999,10,0.000736904,-2.23592,0.425168,0.138769,31.4378,0.126863,
2,1,0,1,0,36629.6,0.134638,0.134259,5.99602,19,0.00820017,10,0.000805022,-2.22214,0.623895,0.0945673,22.1458,0.134259,
2,1,0,1,0,36629.7,0.142126,0.141805,6.08708,19,0.00895824,10,0.00086318,-2.21559,11.7899,0.00500428,1.18787,0.141805,
2,1,0,1,0,36629.9,0.149621,0.149293,5.89187,19,0.00971332,10,0.000879617,-2.22975,-0.217618,-0.271117,-62.1027,0.149293,
2,1,0,1,0,36630,0.157107,0.156751,5.19136,19,0.010411,10,0.00081375,-2.28472,-0.0986513,-0.598066,-120.65,0.156751,
2,1,0,1,0,36630.1,0.164602,0.164304,4.26814,19,0.0110023,10,0.000701272,-2.36976,-0.0898004,-0.657013,-109.647,0.164304,
2,1,0,1,0,36630.2,0.17209,0.171819,3.57777,19,0.0114911,10,0.000614729,-2.44639,-0.115248,-0.511938,-71.8568,0.171819,
2,1,0,1,0,36630.4,0.179585,0.179283,3.1643,19,0.0119124,10,0.000567305,-2.49972,-0.165685,-0.356097,-44.0803,0.179283,
2,1,0,1,0,36630.5,0.187072,0.186725,2.9156,19,0.0122924,10,0.000544415,-2.53527,-0.266898,-0.221059,-25.1606,0.186725,
2,1,0,1,0,36630.6,0.194566,0.194285,2.76167,19,0.012648,10,0.000536551,-2.55883,-0.448624,-0.131513,-14.1715,0.194285,
2,1,0,1,0,36630.7,0.202055,0.201755,2.65862,19,0.0129876,10,0.000536388,-2.57534,-0.572403,-0.103074,-10.6996,0.201755,
2,1,0,1,0,36630.9,0.209549,0.209255,2.59168,19,0.0133171,10,0.000542322,-2.58642,-0.617005,-0.0956233,-9.68506,0.209255,
2,1,0,1,0,36631,0.217036,0.216716,2.54128,19,0.0136389,10,0.000550736,-2.59495,-0.831489,-0.070957,-7.02767,0.2167163,
2,1,0,1,0,36631.1,0.224529,0.224264,2.50163,19,0.0139556,10,0.000561025,-2.60178,-1.14267,-0.0516336,-5.04324,0.224264,
2,1,0,1,0,36631.2,0.232019,0.231707,2.46951,19,0.0142677,10,0.000572204,-2.60739,-4.39205,-0.0134334,-1.29622,0.231707,
2,1,0,1,0,36631.4,0.239513,0.239184,2.44638,19,0.0145766,10,0.000585133,-2.61148,-2.17417,-0.0271368,-2.59319,0.239184,
2,1,0,1,0,36631.5,0.247001,0.246654,2.42404,19,0.0148824,10,0.000597898,-2.61546,-1.3364,-0.0441485,-4.17104,0.246654,
2,1,0,1,0,36631.6,0.254493,0.254176,2.40609,19,0.0151857,10,0.000611572,-2.61869,-2.48344,-0.0237574,-2.22866,0.254176,
2,1,0,1,0,36631.7,0.261983,0.261644,2.37899,19,0.0154863,10,0.000622448,-2.62361,-4.83027,-0.0122146,-1.13744,0.261644,
2,1,0,1,0,36631.9,0.269477,0.26918,2.36205,19,0.0157848,10,0.000635816,-2.62671,-3.72767,-0.0158276,-1.46181,0.26918,
2,1,0,1,0,36632,0.276965,0.276734,2.3491,19,0.0160808,10,0.000650076,-2.6291,-1.78544,-0.0330451,-3.02798,0.276734,
2,1,0,1,0,36632.1,0.284457,0.284167,2.33274,19,0.0163745,10,0.000662888,-2.63213,-3.55208,-0.01661,-1.50846,0.284167,
2,1,0,1,0,36632.2,0.291947,0.291623,2.31283,19,0.0166655,10,0.000674472,-2.63586,-2.61954,-0.0225231,-2.02806,0.291623,
2,1,0,1,0,36632.4,0.29944,0.299173,2.28393,19,0.0169542,10,0.000683293,-2.64132,-0.00805269,-7.32674,-513.644,0.299173,
2,0,0,1,0,36632.5,0.293742,0.293429,-0.371423,19,0.0170163,10,-0.000108986,-3.43013,-0.00455585,-12.9504,120.467,0.293429,
2,0,0,1,0,36632.6,0.286254,0.285906,-0.838158,19,0.0169329,10,-0.000239634,-3.07667,-0.0532378,-1.10823,36.0301,0.285906,
2,0,0,1,0,36632.7,0.278761,0.278447,-1.05097,19,0.0168117,10,-0.000292638,-2.97841,-0.102499,-0.575613,23.4873,0.278447,
2,0,0,1,0,36632.8,0.271272,0.270985,-1.18908,19,0.0166697,10,-0.000322223,-2.92479,-0.153519,-0.384316,17.8097,0.270985,
2,0,0,1,0,36633,0.263778,0.263452,-1.29513,19,0.0165119,10,-0.000341205,-2.88769,-0.224345,-0.262988,13.3335,0.263452,
2,0,0,1,0,36633.1,0.25629,0.255975,-1.3953,19,0.0163418,10,-0.000357163,-2.85533,-0.355487,-0.165969,8.98915,0.2559754,
2,0,0,1,0,36633.2,0.248797,0.248483,-1.47431,19,0.0161609,10,-0.000366341,-2.83141,-0.325374,-0.18133,10.4053,0.248483,
2,0,0,1,0,36633.3,0.241308,0.240962,-1.54483,19,0.0159706,10,-0.000372246,-2.81112,-0.311207,-0.189584,11.4311,0.240962,
2,0,0,1,0,36633.5,0.233814,0.233502,-1.60896,19,0.0157714,10,-0.000375695,-2.79346,-0.424308,-0.13905,8.7584,0.233502,
2,0,0,1,0,36633.6,0.226326,0.226022,-1.67669,19,0.015564,10,-0.000378968,-2.77555,-0.518967,-0.113687,7.44338,0.226022,
2,0,0,1,0,36633.7,0.218834,0.218511,-1.74334,19,0.0153486,10,-0.00038094,-2.75862,-0.428,-0.13785,9.35439,0.218511,
2,0,0,1,0,36633.8,0.211344,0.211051,-1.80203,19,0.0151256,10,-0.000380321,-2.74424,-0.445671,-0.132385,9.29018,0.211051,
2,0,0,1,0,36634,0.203856,0.203522,-1.86214,19,0.0148947,10,-0.000378987,-2.72999,-0.495166,-0.119152,8.68163,0.2035218,
2,0,0,1,0,36634.1,0.196362,0.196033,-1.92925,19,0.0146558,10,-0.000378196,-2.71461,-0.598672,-0.0985515,7.4204,0.196033,
2,0,0,1,0,36634.2,0.18887,0.188554,-2.00162,19,0.0144085,10,-0.000377414,-2.69862,-0.465441,-0.126761,9.87963,0.188554,
2,0,0,1,0,36634.3,0.18138,0.181045,-2.08103,19,0.0141522,10,-0.000376761,-2.68172,-0.372054,-0.158579,12.8602,0.181045,
2,0,0,1,0,36634.5,0.173892,0.173549,-2.17344,19,0.0138851,10,-0.000377199,-2.66285,-0.311712,-0.189277,16.0345,0.173549,
2,0,0,1,0,36634.6,0.166398,0.166094,-2.28449,19,0.0136048,10,-0.00037944,-2.64121,-0.303665,-0.194293,17.3773,0.166094,
2,0,0,1,0,36634.7,0.158905,0.158562,-2.44685,19,0.0133074,10,-0.000387977,-2.61139,-0.240271,-0.245556,23.4934,0.158562,
2,0,0,1,0,36634.8,0.151417,0.151071,-2.68993,19,0.0129856,10,-0.00040637,-2.57026,-0.154349,-0.38225,40.1963,0.151071,
2,0,0,1,0,36635,0.143927,0.143594,-3.07136,19,0.0126254,10,-0.000441029,-2.51267,-0.10269,-0.574543,69.1719,0.143594,
2,0,0,1,0,36635.1,0.136435,0.136117,-3.6705,19,0.0122034,10,-0.000499616,-2.43527,-0.0917318,-0.643179,92.3782,0.136117,
2,0,0,1,0,36635.2,0.128941,0.128603,-4.40871,19,0.011697,10,-0.000566972,-2.35569,-0.102148,-0.577595,99.1617,0.128603,
2,0,0,1,0,36635.3,0.121453,0.121146,-5.10093,19,0.0111006,10,-0.00061796,-2.29235,-0.141734,-0.416274,82.6348,0.121146,
2,0,0,1,0,36635.5,0.113963,0.113648,-5.63876,19,0.0104267,10,-0.000640833,-2.24882,-0.211797,-0.278568,61.2123,0.113648,
2,0,0,1,0,36635.6,0.106471,0.106164,-5.99032,19,0.009696,10,-0.000635958,-2.22255,-0.405303,-0.14557,34.0166,0.106164,
2,0,0,1,0,36635.7,0.0989825,0.0986736,-6.1189,19,0.0089355,10,-0.000603774,-2.21333,-8.91913,-0.00661499,1.578,0.0986736,
2,0,0,1,0,36635.8,0.0914889,0.0911844,-6.03403,19,0.00817286,10,-0.000550209,-2.21939,0.660751,0.0892923,-20.9956,0.09118443,
2,0,0,1,0,36636,0.0839993,0.0836455,-5.82209,19,0.00743067,10,-0.000486991,-2.23492,0.477195,0.123639,-28.077,0.0836455,
2,0,0,1,0,36636.1,0.076507,0.0761824,-5.62455,19,0.00671417,10,-0.000428492,-2.24991,0.551395,0.107001,-23.4976,0.07618241,
2,0,0,1,0,36636.2,0.0690187,0.0687248,-5.47145,19,0.00601975,10,-0.000376024,-2.2619,0.681494,0.0865745,-18.5099,0.0687248,
2,0,0,1,0,36636.3,0.0615251,0.0612388,-5.34873,19,0.00534157,10,-0.000327549,-2.27175,0.664931,0.088731,-18.5217,0.0612388,
2,0,0,1,0,36636.5,0.0540355,0.0536944,-5.22599,19,0.00467992,10,-0.000280606,-2.28183,0.802636,0.0735078,-14.9656,0.0536944,
2,0,0,1,0,36636.6,0.0465432,0.0462181,-5.07367,19,0.0040346,10,-0.000234495,-2.29468,0.675785,0.0873059,-17.307,0.0462181,
2,0,0,1,0,36636.7,0.0390549,0.0387351,-4.91589,19,0.00340846,10,-0.000190418,-2.3084,0.468623,0.125901,-24.19,0.0387351,
2,0,0,1,0,36636.8,0.0315613,0.0312773,-4.75119,19,0.00280231,10,-0.000148605,-2.3232,0.410496,0.143728,-26.6054,0.03127734,
2,0,0,1,0,36637,0.0240717,0.0237435,-4.55628,19,0.00221987,10,-0.000108182,-2.34139,0.418821,0.140872,-25.0281,0.0237435,
2,0,0,1,0,36637.1,0.0165781,0.0162847,-4.36764,19,0.00166078,10,-7.11256e-05,-2.35975,0.512283,0.115171,-19.6437,0.0162847,
2,0,0,1,0,36637.2,0.00909108,0.00876401,-4.2115,19,0.00112325,10,-3.69096e-05,-2.37556,0.560183,0.105323,-17.3429,0.00876401,
2,0,0,1,0,36637.3,0.00159616,0.00123494,-4.133,19,0.000601596,10,-5.10399e-06,-2.38373, , , ,0.00123494,
2,0,0,1,0,36637.4,0.000199195,-0.000203165,-4.10423,19,0.000505205,10,8.33835e-07,-2.38677, , , ,-0.000203165,