File: Figure_codes/Fig_3-5/rawdata_trumpetplot_data/after 10th/20221101_1-115_003_TrumpetPlot_ParaChange_from10_every3_08_CV_C01_28.csv
mode,ox/red,error,control changes,counter inc.,time/s,control/V,Ewe/V,<I>/mA,cycle number,(Q-Qo)/C,I Range,P/W,log(|I|),Tafel slope mV/dec,alpha_eff,dI/d(E-IR),E-IR/V,
2,0,0,0,0,56338.7,2.44065e-05,-0.000325324,-3.97092,29,0.0000000E+000,10,1.29183e-06,-2.40111, , , ,-0.000325324,
2,1,0,1,0,56338.8,0.00729419,0.00691797,0.309773,29,-0.000115035,10,2.143e-06,-3.50896,0.0107898,5.46814,292.332,0.00691797,
2,1,0,1,0,56338.9,0.0147816,0.0144169,1.75811,29,-8.00151e-06,10,2.53465e-05,-2.75495,0.0308352,1.9134,128.318,0.0144169,
2,1,0,1,0,56338.9,0.0222707,0.0218988,2.4858,29,0.000194712,10,5.4436e-05,-2.60453,0.074824,0.788517,76.0712,0.0218988,
2,1,0,1,0,56339,0.0297581,0.0294032,2.95184,29,0.000451465,10,8.67934e-05,-2.52991,0.131393,0.449035,51.6962,0.0294032,
2,1,0,1,0,56339.1,0.0372544,0.0368752,3.32747,29,0.000747098,10,0.000122701,-2.47789,0.166748,0.353827,45.8727,0.0368752,
2,1,0,1,0,56339.2,0.0447507,0.0444344,3.65461,29,0.00107534,10,0.00016239,-2.43716,0.190117,0.310335,44.238,0.0444344,
2,1,0,1,0,56339.3,0.0522381,0.0518884,3.95652,29,0.00143291,10,0.000205297,-2.40269,0.227242,0.259635,40.1419,0.0518884,
2,1,0,1,0,56339.4,0.0597273,0.059358,4.24952,29,0.00181835,10,0.000252243,-2.37166,0.265548,0.222182,36.8371,0.059358,
2,1,0,1,0,56339.5,0.0672147,0.0668457,4.51896,29,0.00222971,10,0.000302073,-2.34496,0.278363,0.211953,37.3368,0.06684567,
2,1,0,1,0,56339.6,0.0747038,0.0743265,4.75778,29,0.00266518,10,0.000353629,-2.3226,0.368048,0.160305,29.7977,0.07432653,
2,1,0,1,0,56339.7,0.0822055,0.0818619,4.97458,29,0.00312336,10,0.000407229,-2.30324,0.475634,0.124045,24.0872,0.0818619,
2,1,0,1,0,56339.8,0.0896946,0.0893353,5.16895,29,0.0035994,10,0.00046177,-2.2866,0.473206,0.124681,25.1676,0.0893353,
2,1,0,1,0,56339.9,0.097182,0.0968663,5.37323,29,0.00409384,10,0.000520485,-2.26976,0.395163,0.149305,31.3255,0.0968663,
2,1,0,1,0,56340,0.104671,0.104335,5.64777,29,0.00460999,10,0.00058926,-2.24812,0.306183,0.192695,42.5076,0.104335,
2,1,0,1,0,56340.1,0.112159,0.111787,6.0311,29,0.0051567,10,0.000674201,-2.2196,0.257294,0.229309,53.8985,0.111787,
2,1,0,1,0,56340.2,0.119655,0.119256,6.43433,29,0.00574148,10,0.000767334,-2.1915,0.272996,0.216121,54.2893,0.119256,
2,1,0,1,0,56340.3,0.127149,0.126781,6.79593,29,0.00636369,10,0.000861594,-2.16775,0.401686,0.146881,38.9535,0.126781,
2,1,0,1,0,56340.4,0.134639,0.134288,7.05734,29,0.00701415,10,0.000947713,-2.15136,0.636623,0.0926765,25.5098,0.134288,
2,1,0,1,0,56340.4,0.142126,0.141801,7.19763,29,0.00768346,10,0.00102063,-2.14281,1.4047,0.0420019,11.7937,0.1418009,
2,1,0,1,0,56340.5,0.149615,0.149268,7.13087,29,0.00835799,10,0.00106441,-2.14686,-0.477923,-0.123451,-34.2944,0.149268,
2,1,0,1,0,56340.6,0.157102,0.156738,6.64764,29,0.00900712,10,0.00104194,-2.17733,-0.157684,-0.374166,-96.6986,0.156738,
2,1,0,1,0,56340.7,0.164606,0.164282,5.79821,29,0.00959293,10,0.000952543,-2.23671,-0.112584,-0.524055,-118.522,0.164282,
2,1,0,1,0,56340.8,0.172095,0.171745,4.97139,29,0.0100968,10,0.000853811,-2.30352,-0.117708,-0.501242,-97.5087,0.171745,
2,1,0,1,0,56340.9,0.179582,0.179259,4.37309,29,0.0105337,10,0.000783915,-2.35921,-0.149938,-0.393495,-67.2868,0.179259,
2,1,0,1,0,56341,0.18707,0.186707,3.96656,29,0.0109238,10,0.000740584,-2.40159,-0.214336,-0.275269,-42.6462,0.186707,
2,1,0,1,0,56341.1,0.194559,0.194218,3.69499,29,0.0112825,10,0.000717634,-2.43239,-0.293822,-0.200802,-28.9655,0.194218,
2,1,0,1,0,56341.2,0.202062,0.201695,3.5057,29,0.0116205,10,0.000707083,-2.45522,-0.356756,-0.165379,-22.6153,0.201695,
2,1,0,1,0,56341.3,0.20955,0.209188,3.37258,29,0.011943,10,0.000705502,-2.47204,-0.541903,-0.108875,-14.3383,0.209188,
2,1,0,1,0,56341.4,0.217039,0.216692,3.26752,29,0.012255,10,0.000708045,-2.48578,-0.65981,-0.0894196,-11.4376,0.216692,
2,1,0,1,0,56341.5,0.224526,0.224169,3.20575,29,0.0125592,10,0.00071863,-2.49407,-0.781343,-0.075511,-9.44852,0.224169,
2,1,0,1,0,56341.6,0.232016,0.231689,3.1529,29,0.0128574,10,0.00073049,-2.50129,-1.43593,-0.0410883,-5.05127,0.231689,
2,1,0,1,0,56341.7,0.23951,0.23914,3.10218,29,0.0131514,10,0.000741856,-2.50833,-1.94524,-0.0303305,-3.67279,0.23914,
2,1,0,1,0,56341.8,0.247006,0.246672,3.06649,29,0.0134415,10,0.000756419,-2.51336,-1.09476,-0.0538929,-6.45101,0.246672,
2,1,0,1,0,56341.9,0.254494,0.254149,3.04188,29,0.0137283,10,0.000773089,-2.51686,-1.56493,-0.0377013,-4.46645,0.254149,
2,1,0,1,0,56341.9,0.261983,0.261626,3.007,29,0.0140123,10,0.000786708,-2.52187,-2.01445,-0.0292884,-3.44101,0.261626,
2,1,0,1,0,56342,0.26947,0.269133,2.98417,29,0.0142938,10,0.000803138,-2.52518,-1.74433,-0.0338239,-3.9371,0.269133,
2,1,0,1,0,56342.1,0.276959,0.276648,2.96298,29,0.0145731,10,0.000819704,-2.52827,-2.32586,-0.025367,-2.93264,0.276648,
2,1,0,1,0,56342.2,0.284461,0.284126,2.9362,29,0.0148506,10,0.000834253,-2.53221,-4.93507,-0.0119553,-1.36901,0.284126,
2,1,0,1,0,56342.3,0.29195,0.291638,2.90716,29,0.0151251,10,0.000847836,-2.53653,-1.54388,-0.0382153,-4.33853,0.291638,
2,1,0,1,0,56342.4,0.299438,0.299058,2.8865,29,0.0153974,10,0.000863231,-2.53963,-0.0376413,-1.56743,-165.11,0.299058,
2,1,0,1,0,56342.5,0.29424,0.293897,0.0139503,29,0.0154897,10,4.09993e-06,-4.85542,0.0211361,2.79143,213.766,0.293897,
2,0,0,1,0,56342.6,0.286753,0.286395,-0.874274,29,0.0154406,10,-0.000250388,-3.05835,-0.0290702,-2.02957,67.4925,0.286395,
2,0,0,1,0,56342.7,0.279264,0.278901,-1.2438,29,0.0153387,10,-0.000346897,-2.90525,-0.0763197,-0.773064,37.2969,0.278901,
2,0,0,1,0,56342.8,0.271776,0.271419,-1.45736,29,0.0152104,10,-0.000395556,-2.83643,-0.126841,-0.465151,26.5451,0.271419,
2,0,0,1,0,56342.9,0.26428,0.263924,-1.62526,29,0.0150642,10,-0.000428945,-2.78908,-0.203426,-0.290031,18.3611,0.263924,
2,0,0,1,0,56343,0.256786,0.25644,-1.76023,29,0.0149046,10,-0.000451394,-2.75443,-0.246319,-0.239527,16.3884,0.25644,
2,0,0,1,0,56343.1,0.249296,0.248942,-1.86312,29,0.014734,10,-0.000463807,-2.72976,-0.293344,-0.201129,14.6523,0.248942,
2,0,0,1,0,56343.1,0.241809,0.24147,-1.96044,29,0.0145538,10,-0.000473387,-2.70765,-0.442226,-0.133416,10.2231,0.24147,
2,0,0,1,0,56343.2,0.23432,0.23397,-2.04834,29,0.0143651,10,-0.000479249,-2.6886,-0.403324,-0.146284,11.7173,0.23397,
2,0,0,1,0,56343.3,0.226833,0.226468,-2.12494,29,0.0141684,10,-0.000481232,-2.67265,-0.393578,-0.149907,12.4545,0.226468,
2,0,0,1,0,56343.4,0.219329,0.219003,-2.2109,29,0.0139639,10,-0.000484193,-2.65543,-0.542739,-0.108708,9.3788,0.219003,
2,0,0,1,0,56343.5,0.21184,0.211482,-2.29015,29,0.0137526,10,-0.000484326,-2.64014,-0.537198,-0.109829,9.79146,0.211482,
2,0,0,1,0,56343.6,0.204353,0.203968,-2.36379,29,0.0135341,10,-0.000482138,-2.62639,-0.563208,-0.104757,9.66582,0.203968,
2,0,0,1,0,56343.7,0.196863,0.19649,-2.4341,29,0.0133087,10,-0.000478276,-2.61366,-0.607209,-0.0971659,9.23493,0.19649,
2,0,0,1,0,56343.8,0.189376,0.189032,-2.52005,29,0.013076,10,-0.000476372,-2.59859,-0.640971,-0.0920478,9.03216,0.189032,
2,0,0,1,0,56343.9,0.18188,0.181479,-2.60623,29,0.0128353,10,-0.000472977,-2.58399,-0.422218,-0.139738,14.2044,0.181479,
2,0,0,1,0,56344,0.174385,0.17402,-2.69776,29,0.0125859,10,-0.000469465,-2.569,-0.444969,-0.132593,13.9777,0.17402,
2,0,0,1,0,56344.1,0.166896,0.166485,-2.82847,29,0.0123267,10,-0.000470897,-2.54845,-0.40366,-0.146163,16.0799,0.166485,
2,0,0,1,0,56344.2,0.159409,0.159037,-2.97455,29,0.0120549,10,-0.000473062,-2.52658,-0.273891,-0.215414,24.9917,0.159037,
2,0,0,1,0,56344.3,0.151919,0.151551,-3.18123,29,0.0117663,10,-0.00048212,-2.4974,-0.226129,-0.260913,32.4854,0.151551,
2,0,0,1,0,56344.4,0.144425,0.144075,-3.51838,29,0.0114525,10,-0.000506913,-2.45366,-0.146866,-0.401728,55.2599,0.144075,
2,0,0,1,0,56344.5,0.136929,0.136579,-4.03731,29,0.0110993,10,-0.00055141,-2.39391,-0.109997,-0.53638,84.5287,0.136579,
2,0,0,1,0,56344.6,0.129441,0.129095,-4.73728,29,0.0106886,10,-0.00061156,-2.32447,-0.110287,-0.534966,98.9985,0.1290952,
2,0,0,1,0,56344.6,0.121952,0.1216,-5.49843,29,0.0102084,10,-0.000668609,-2.25976,-0.13076,-0.45121,96.6118,0.1216,
2,0,0,1,0,56344.7,0.114465,0.114052,-6.17676,29,0.00966054,10,-0.00070447,-2.20924,-0.171353,-0.344318,82.861,0.114052,
2,0,0,1,0,56344.8,0.106976,0.106578,-6.71378,29,0.0090551,10,-0.000715543,-2.17303,-0.24598,-0.239857,62.8352,0.106578,
2,0,0,1,0,56344.9,0.0994721,0.0991356,-7.0808,29,0.00840493,10,-0.00070196,-2.14992,-0.49602,-0.118947,32.8482,0.0991356,
2,0,0,1,0,56345,0.0919847,0.0916285,-7.22051,29,0.00773263,10,-0.000661605,-2.14143,-2.90976,-0.0202766,5.71127,0.0916285,
2,0,0,1,0,56345.1,0.0844973,0.0841098,-7.15721,29,0.00705728,10,-0.000601991,-2.14526,1.08562,0.0543468,-15.1778,0.0841098,
2,0,0,1,0,56345.2,0.0770082,0.0766242,-6.99955,29,0.00639359,10,-0.000536335,-2.15493,0.671538,0.087858,-23.9783,0.0766242,
2,0,0,1,0,56345.3,0.0695208,0.0691655,-6.84126,29,0.00574521,10,-0.000473179,-2.16486,0.863976,0.0682889,-18.2394,0.0691655,
2,0,0,1,0,56345.4,0.0620245,0.061641,-6.71303,29,0.00510912,10,-0.000413798,-2.17308,1.04505,0.0564564,-14.8017,0.061641,
2,0,0,1,0,56345.5,0.0545282,0.0541877,-6.59469,29,0.00448424,10,-0.000357351,-2.18081,0.950216,0.0620911,-15.9892,0.0541877,
2,0,0,1,0,56345.6,0.0470408,0.0466803,-6.47045,29,0.00387168,10,-0.000302042,-2.18907,0.782889,0.0753619,-19.015,0.0466803,
2,0,0,1,0,56345.7,0.0395516,0.0391537,-6.32088,29,0.00327247,10,-0.000247486,-2.19922,0.751642,0.0784948,-19.336,0.0391537,
2,0,0,1,0,56345.8,0.0320643,0.0316879,-6.13929,29,0.00268836,10,-0.000194541,-2.21188,0.514216,0.114738,-27.4766,0.0316879,
2,0,0,1,0,56345.9,0.0245751,0.0242278,-5.93955,29,0.00212194,10,-0.000143902,-2.22625,0.442408,0.133361,-30.9087,0.0242278,
2,0,0,1,0,56346,0.0170735,0.0167176,-5.72524,29,0.00157408,10,-9.57123e-05,-2.24221,0.52979,0.111365,-24.9078,0.0167176,
2,0,0,1,0,56346,0.00958429,0.00922992,-5.5274,29,0.00104666,10,-5.10175e-05,-2.25748,0.554814,0.106342,-22.9509,0.00922992,
2,0,0,1,0,56346.1,0.0020969,0.0017177,-5.40707,29,0.000535924,10,-9.28774e-06,-2.26704,0.921604,0.0640188,-13.4478,0.0017177,
2,0,0,1,0,56346.2,0.000199195,-0.000187895,-5.35582,29,0.000408224,10,1.00633e-06,-2.27117, , , ,-0.000187895,