File: Figure_codes/Fig_3-5/rawdata_trumpetplot_data/after 10th/20221101_1-115_003_TrumpetPlot_ParaChange_from10_every3_12_CV_C01_23.csv
mode,ox/red,error,control changes,counter inc.,time/s,control/V,Ewe/V,<I>/mA,cycle number,(Q-Qo)/C,I Range,P/W,log(|I|),Tafel slope mV/dec,alpha_eff,dI/d(E-IR),E-IR/V,
2,1,0,1,0,46509.5,2.44065e-05,-0.000153538,15.2989,24,0.0000000E+000,10,-2.34896e-06,-1.81534, , , ,-0.000153538,
2,1,0,1,0,46509.5,0.0104008,0.0100455,18.4871,24,0.000293998,10,0.000185711,-1.73313,0.192599,0.306336,219.771,0.0100455,
2,1,0,1,0,46509.6,0.0212099,0.020887,20.5339,24,0.000646043,10,0.000428893,-1.68753,0.282823,0.208611,166.633,0.020887,
2,1,0,1,0,46509.6,0.0320052,0.0316491,22.1416,24,0.00103063,10,0.000700763,-1.65479,0.364353,0.161931,139.763,0.0316491,
2,1,0,1,0,46509.6,0.0428033,0.0424737,23.5539,24,0.00144234,10,0.00100042,-1.62794,0.438518,0.134544,123.634,0.0424737,
2,1,0,1,0,46509.6,0.0535986,0.0532687,24.8588,24,0.00187831,10,0.0013242,-1.60452,0.480435,0.122805,119.156,0.0532687,
2,1,0,1,0,46509.6,0.0644077,0.064088,26.1394,24,0.00233755,10,0.00167522,-1.5827,0.503938,0.117078,119.444,0.064088,
2,1,0,1,0,46509.6,0.075203,0.074866,27.4458,24,0.00281998,10,0.00205476,-1.56152,0.512964,0.115018,123.232,0.074866,
2,1,0,1,0,46509.7,0.0860011,0.0856779,28.7897,24,0.00332619,10,0.00246664,-1.54076,0.531291,0.11105,124.769,0.0856779,
2,1,0,1,0,46509.7,0.0968075,0.0964134,30.1779,24,0.00385696,10,0.00290956,-1.52031,0.541486,0.10896,128.256,0.0964134,
2,1,0,1,0,46509.7,0.107606,0.10723,31.5994,24,0.0044129,10,0.00338839,-1.50032,0.534923,0.110296,135.939,0.10723,
2,1,0,1,0,46509.7,0.118401,0.11804,33.0366,24,0.00499468,10,0.00389965,-1.48101,0.568491,0.103783,133.784,0.11804,
2,1,0,1,0,46509.7,0.129207,0.128839,34.59,24,0.00560292,10,0.00445652,-1.46105,0.510612,0.115548,155.951,0.128839,
2,1,0,1,0,46509.8,0.140005,0.13963,36.3007,24,0.00624109,10,0.00506868,-1.44008,0.510753,0.115516,163.691,0.1396303,
2,1,0,1,0,46509.8,0.150803,0.150444,38.0606,24,0.00691069,10,0.005726,-1.41952,0.540982,0.109061,162.006,0.150444,
2,1,0,1,0,46509.8,0.161604,0.161251,39.7521,24,0.00761149,10,0.00641007,-1.40064,0.627618,0.0940063,145.755,0.161251,
2,1,0,1,0,46509.8,0.172405,0.172065,41.2136,24,0.00834081,10,0.00709142,-1.38496,0.802169,0.0735505,118.162,0.172065,
2,1,0,1,0,46509.8,0.183203,0.182821,42.2154,24,0.0090927,10,0.00771785,-1.37453,1.56608,0.0376737,61.9571,0.182821,
2,1,0,1,0,46509.8,0.194001,0.193668,42.4638,24,0.00985613,10,0.00822386,-1.37198,-5.24093,-0.0112575,-18.6165,0.193668,
2,1,0,1,0,46509.9,0.204808,0.204475,41.8261,24,0.010616,10,0.00855241,-1.37855,-0.964673,-0.0611606,-99.6041,0.204475,
2,1,0,1,0,46509.9,0.215603,0.215264,40.3086,24,0.0113563,10,0.00867699,-1.3946,-0.532628,-0.110772,-173.936,0.2152638,
2,1,0,1,0,46509.9,0.226401,0.226106,38.0986,24,0.0120625,10,0.00861433,-1.41909,-0.386293,-0.152734,-226.801,0.226106,
2,1,0,1,0,46509.9,0.237207,0.236907,35.5144,24,0.012725,10,0.0084136,-1.4496,-0.334903,-0.17617,-244.03,0.236907,
2,1,0,1,0,46509.9,0.248005,0.247707,32.9115,24,0.0133403,10,0.0081524,-1.48265,-0.328947,-0.17936,-230.446,0.247707,
2,1,0,1,0,46510,0.258801,0.258495,30.533,24,0.0139106,10,0.00789264,-1.51523,-0.340416,-0.173318,-206.723,0.258495,
2,1,0,1,0,46510,0.26961,0.269312,28.4868,24,0.0144411,10,0.00767184,-1.54536,-0.374745,-0.157441,-175.173,0.269312,
2,1,0,1,0,46510,0.280405,0.280093,26.7591,24,0.0149377,10,0.00749504,-1.57253,-0.425526,-0.138652,-144.937,0.280093,
2,1,0,1,0,46510,0.291203,0.290876,25.329,24,0.015406,10,0.00736759,-1.59638,-0.479731,-0.122986,-121.697,0.290876,
2,1,0,0,0,46510,0.300012,0.299766,24.3357,24,0.0157708,10,0.007295,-1.61376,0.00262537,22.4731,19097.5,0.299766,
2,1,0,1,0,46510,0.290842,0.290537,12.992,24,0.0160419,10,0.00377466,-1.88632,0.0346337,1.70354,868.493,0.290537,
2,1,0,1,0,46510.1,0.280047,0.27977,5.64804,24,0.016204,10,0.00158015,-2.2481,0.0228015,2.58755,550.006,0.27977,
2,1,0,1,0,46510.1,0.269244,0.268963,0.684374,24,0.016258,10,0.000184071,-3.16471,0.0229201,2.57416,386.034,0.268963,
2,0,0,1,0,46510.1,0.258443,0.258183,-2.87165,24,0.0162364,10,-0.000741409,-2.54187,-0.020627,-2.86033,283.717,0.258183,
2,0,0,1,0,46510.1,0.247645,0.247354,-5.54913,24,0.0161593,10,-0.0013726,-2.25578,-0.0571391,-1.03257,218.806,0.247354,
2,0,0,1,0,46510.1,0.236849,0.236555,-7.6446,24,0.0160395,10,-0.00180837,-2.11664,-0.100724,-0.585757,173.163,0.236555,
2,0,0,1,0,46510.1,0.22604,0.225727,-9.33225,24,0.0158861,10,-0.00210654,-2.03001,-0.150885,-0.391027,141.771,0.225727,
2,0,0,1,0,46510.2,0.215245,0.214943,-10.726,24,0.0157049,10,-0.00230548,-1.96956,-0.202041,-0.29202,122.032,0.2149425,
2,0,0,1,0,46510.2,0.204447,0.204159,-11.9408,24,0.0155005,10,-0.00243781,-1.92297,-0.263214,-0.224152,104.279,0.204159,
2,0,0,1,0,46510.2,0.19364,0.193301,-13.0105,24,0.0152758,10,-0.00251493,-1.88571,-0.318355,-0.185328,93.9895,0.193301,
2,0,0,1,0,46510.2,0.182842,0.182552,-13.9876,24,0.0150326,10,-0.00255347,-1.85426,-0.362494,-0.162762,88.8233,0.182552,
2,0,0,1,0,46510.2,0.172047,0.171764,-14.9504,24,0.0147721,10,-0.00256794,-1.82535,-0.383173,-0.153978,89.8355,0.171764,
2,0,0,1,0,46510.3,0.161241,0.160937,-15.9694,24,0.0144939,10,-0.00257008,-1.79671,-0.374874,-0.157386,98.0879,0.160937,
2,0,0,1,0,46510.3,0.150443,0.150161,-17.1233,24,0.0141965,10,-0.00257126,-1.76641,-0.325907,-0.181033,121.079,0.150161,
2,0,0,1,0,46510.3,0.139645,0.139334,-18.6187,24,0.0138753,10,-0.00259422,-1.73005,-0.264595,-0.222982,162.454,0.139334,
2,0,0,1,0,46510.3,0.128849,0.128558,-20.6787,24,0.0135224,10,-0.00265841,-1.68448,-0.211963,-0.278351,225.317,0.128558,
2,0,0,1,0,46510.3,0.118043,0.11776,-23.4289,24,0.013126,10,-0.002759,-1.63025,-0.195502,-0.301787,276.1,0.11776,
2,0,0,1,0,46510.3,0.107245,0.106936,-26.5278,24,0.0126761,10,-0.00283677,-1.5763,-0.208144,-0.283458,293.415,0.106936,
2,0,0,1,0,46510.4,0.0964468,0.096195,-29.5905,24,0.0121701,10,-0.00284646,-1.52885,-0.24561,-0.240218,277.543,0.09619499,
2,0,0,1,0,46510.4,0.0856404,0.0853735,-32.4944,24,0.0116104,10,-0.00277417,-1.48819,-0.302477,-0.195056,246.882,0.0853735,
2,0,0,1,0,46510.4,0.0748451,0.0745691,-34.902,24,0.0110028,10,-0.00260261,-1.45715,-0.402033,-0.146754,199.552,0.0745691,
2,0,0,1,0,46510.4,0.0640471,0.0637975,-36.7984,24,0.0103565,10,-0.00234765,-1.43417,-0.561954,-0.104991,150.555,0.0637975,
2,0,0,1,0,46510.4,0.0532407,0.0529707,-38.1887,24,0.00968085,10,-0.00202288,-1.41806,-0.855649,-0.0689535,102.588,0.0529707,
2,0,0,1,0,46510.4,0.0424426,0.0421599,-39.0596,24,0.00898504,10,-0.00164675,-1.40827,-1.38818,-0.0425017,64.723,0.0421599,
2,0,0,1,0,46510.5,0.0316473,0.0313087,-39.584,24,0.00827673,10,-0.00123932,-1.40248,-2.6561,-0.022213,34.2914,0.0313087,
2,0,0,1,0,46510.5,0.0208437,0.0205827,-39.8169,24,0.00756178,10,-0.00081954,-1.39993,-9.97849,-0.00591272,9.18189,0.0205827,
2,0,0,1,0,46510.5,0.0100429,0.00973051,-39.8,24,0.00684488,10,-0.000387275,-1.40012,7.59171,0.00777164,-12.0652,0.00973051,
2,0,0,1,0,46510.5,-0.000755207,-0.00112911,-39.5914,24,0.00613004,10,4.47031e-05,-1.4024,2.97729,0.0198167,-30.5887,-0.00112911,
2,0,0,1,0,46510.5,-0.0115505,-0.0118891,-39.0885,24,0.00542158,10,0.000464726,-1.40795,1.5577,0.0378764,-57.758,-0.0118891,
2,0,0,1,0,46510.6,-0.0223597,-0.0227042,-38.3728,24,0.00472417,10,0.000871221,-1.41598,1.18148,0.0499375,-74.7619,-0.0227042,
2,0,0,1,0,46510.6,-0.033155,-0.0335161,-37.5429,24,0.00404088,10,0.00125829,-1.42547,1.13907,0.0517965,-75.8975,-0.0335161,
2,0,0,1,0,46510.6,-0.043953,-0.0443343,-36.7243,24,0.00337264,10,0.00162815,-1.43505,1.15772,0.050962,-73.0663,-0.04433433,
2,0,0,1,0,46510.6,-0.0547594,-0.0551197,-36.0315,24,0.00271827,10,0.00198605,-1.44332,1.41748,0.0416232,-58.5305,-0.0551197,
2,0,0,1,0,46510.6,-0.0655575,-0.0659444,-35.4949,24,0.002075,10,0.00234069,-1.44983,2.13869,0.0275869,-38.2259,-0.0659444,
2,0,0,1,0,46510.6,-0.0763528,-0.0766958,-35.1609,24,0.00143947,10,0.0026967,-1.45394,3.86598,0.0152613,-20.9539,-0.0766958,
2,0,0,1,0,46510.7,-0.0871592,-0.0875332,-35.0394,24,0.000808064,10,0.00306711,-1.45544,20.1176,0.00293275,-4.0108,-0.0875332,
2,0,0,1,0,46510.7,-0.0979573,-0.0983027,-35.0829,24,0.00017732,10,0.00344874,-1.4549,-36.8056,-0.00160302,2.19203,-0.0983027,
2,0,0,1,1,46510.7,-0.0955546,-0.0959952,-27.167,24,-0.000174994,10,0.0026079,-1.56596,-0.0438214,-1.34637,1452.95,-0.09599524,
2,0,0,1,1,46510.7,-0.0847538,-0.0851886,-15.8272,24,-0.000553035,10,0.0013483,-1.8006,-0.0425733,-1.38585,853.576,-0.0851886,
2,0,0,1,1,46510.7,-0.0739557,-0.0743693,-7.87142,24,-0.000762271,10,0.000585392,-2.10395,-0.0271441,-2.17359,646.146,-0.0743693,
2,0,0,1,1,46510.7,-0.0631604,-0.0636486,-1.6741,24,-0.000845409,10,0.000106554,-2.77622,-0.0122358,-4.82192,514.332,-0.0636486,
2,1,0,1,1,46510.8,-0.0523512,-0.0527656,3.35818,24,-0.000828152,10,-0.000177197,-2.4739,0.0152431,3.8706,423.169,-0.0527656,
2,1,0,1,1,46510.8,-0.0415559,-0.0419813,7.51479,24,-0.000728879,10,-0.000315481,-2.12408,0.0477557,1.23546,352.756,-0.0419813,
2,1,0,1,1,46510.8,-0.0307579,-0.0312033,10.9865,24,-0.000561116,10,-0.000342816,-1.95914,0.08573,0.688207,291.897,-0.0312033,
2,1,0,1,1,46510.8,-0.0199515,-0.0203384,13.8949,24,-0.000336197,10,-0.0002826,-1.85714,0.130284,0.452855,243.8,-0.0203384,
2,1,0,1,1,46510.8,-0.0091534,-0.00950421,16.2961,24,-6.37392e-05,10,-0.000154882,-1.78792,0.183769,0.321055,203.192,-0.00950421,
2,1,0,0,1,46510.9,-7.54729e-05,-0.000535284,17.9188,24,0.000195413,10,-9.59162e-06,-1.74669, , , ,-0.000535284,