File: Figure_codes/Fig_3-5/rawdata_trumpetplot_data/after 10th/20221101_1-115_003_TrumpetPlot_ParaChange_from10_every3_06_CV_C01_26.csv
mode,ox/red,error,control changes,counter inc.,time/s,control/V,Ewe/V,<I>/mA,cycle number,(Q-Qo)/C,I Range,P/W,log(|I|),Tafel slope mV/dec,alpha_eff,dI/d(E-IR),E-IR/V,
2,0,0,0,0,52373.4,2.44065e-05,-0.000439847,-1.39435,27,0.0000000E+000,10,6.13303e-07,-2.85563, , , ,-0.000439847,
2,1,0,1,0,52373.6,0.00729063,0.00695291,1.00882,27,5.01395e-05,10,7.01424e-06,-2.99619,0.0201866,2.92273,107.968,0.00695291,
2,1,0,1,0,52373.8,0.014778,0.0144324,1.44845,27,0.000290082,10,2.09046e-05,-2.8391,0.0866863,0.680615,38.3971,0.01443241,
2,1,0,1,0,52374,0.0222743,0.021945,1.66949,27,0.000586724,10,3.66369e-05,-2.77742,0.155209,0.380133,24.7384,0.021945,
2,1,0,1,0,52374.2,0.0297626,0.0294446,1.84254,27,0.000918327,10,5.42529e-05,-2.73458,0.200678,0.294004,21.0858,0.0294446,
2,1,0,1,0,52374.3,0.0372544,0.0368682,2.00268,27,0.00128142,10,7.38351e-05,-2.69839,0.220031,0.268144,21.004,0.0368682,
2,1,0,1,0,52374.5,0.0447472,0.0444336,2.17166,27,0.00167516,10,9.64947e-05,-2.66321,0.222318,0.265385,22.4453,0.0444336,
2,1,0,1,0,52374.7,0.0522345,0.0518633,2.3274,27,0.00209896,10,0.000120707,-2.63313,0.244561,0.241249,21.9184,0.0518633,
2,1,0,1,0,52374.9,0.0597309,0.0594062,2.47774,27,0.00255243,10,0.000147193,-2.60594,0.286977,0.205591,19.8852,0.0594062,
2,1,0,1,0,52375.1,0.0672182,0.0669092,2.61928,27,0.0030322,10,0.000175254,-2.58182,0.329652,0.178977,18.2472,0.0669092,
2,1,0,1,0,52375.3,0.0747074,0.0744063,2.73578,27,0.00353634,10,0.000203559,-2.56292,0.462713,0.127509,13.609,0.0744063,
2,1,0,1,0,52375.5,0.0822019,0.0818822,2.83515,27,0.00406172,10,0.000232148,-2.54742,0.510239,0.115632,12.8098,0.0818822,
2,1,0,1,0,52375.6,0.0896911,0.0893287,2.93434,27,0.00460466,10,0.000262121,-2.53249,0.497928,0.118491,13.5601,0.0893287,
2,1,0,1,0,52375.8,0.097182,0.0968497,3.05783,27,0.00516795,10,0.00029615,-2.51459,0.326407,0.180756,21.6157,0.09684971,
2,1,0,1,0,52376,0.104675,0.104374,3.26388,27,0.00576139,10,0.000340663,-2.48627,0.232322,0.253958,32.3305,0.104374,
2,1,0,1,0,52376.2,0.112162,0.111819,3.52568,27,0.00639899,10,0.000394239,-2.45276,0.223568,0.263902,36.2627,0.111819,
2,1,0,1,0,52376.4,0.119655,0.119318,3.76961,27,0.00708615,10,0.000449782,-2.4237,0.3297,0.178951,26.3405,0.119318,
2,1,0,1,0,52376.6,0.127146,0.126799,3.93321,27,0.00781205,10,0.000498725,-2.40525,0.580882,0.10157,15.5728,0.1267986,
2,1,0,1,0,52376.8,0.134635,0.134274,4.02104,27,0.00856049,10,0.000539922,-2.39566,1.35484,0.0435476,6.83155,0.134274,
2,1,0,1,0,52377,0.142129,0.141805,4.01068,27,0.00931882,10,0.000568736,-2.39678,-0.701765,-0.0840738,-13.1391,0.141805,
2,1,0,1,0,52377.1,0.149619,0.149281,3.72574,27,0.0100514,10,0.000556182,-2.42879,-0.139824,-0.42196,-61.0515,0.149281,
2,1,0,1,0,52377.3,0.157106,0.156792,3.14159,27,0.0106986,10,0.000492575,-2.50285,-0.0867453,-0.680152,-83.2726,0.1567916,
2,1,0,1,0,52377.5,0.164602,0.164264,2.58858,27,0.0112351,10,0.000425209,-2.58694,-0.101486,-0.581361,-58.8747,0.164264,
2,1,0,1,0,52377.7,0.172091,0.171767,2.24013,27,0.0116871,10,0.00038478,-2.64973,-0.145833,-0.404572,-35.4363,0.171767,
2,1,0,1,0,52377.9,0.179582,0.179258,2.03311,27,0.0120882,10,0.000364451,-2.69184,-0.22202,-0.265742,-21.1455,0.179258,
2,1,0,1,0,52378.1,0.187074,0.186786,1.9144,27,0.0124598,10,0.000357582,-2.71797,-0.41032,-0.14379,-10.7531,0.186786,
2,1,0,1,0,52378.3,0.194563,0.194263,1.84015,27,0.0128136,10,0.000357474,-2.73515,-0.635192,-0.0928853,-6.6769,0.194263,
2,1,0,1,0,52378.5,0.202059,0.201748,1.79292,27,0.0131568,10,0.000361717,-2.74644,-0.626577,-0.0941625,-6.58913,0.201748,
2,1,0,1,0,52378.6,0.209546,0.209234,1.76262,27,0.0134922,10,0.000368799,-2.75384,-0.636969,-0.0926262,-6.36385,0.209234,
2,1,0,1,0,52378.8,0.217035,0.216728,1.73284,27,0.0138219,10,0.000375556,-2.76124,-1.37857,-0.0427979,-2.89687,0.216728,
2,1,0,1,0,52379,0.22453,0.22422,1.71455,27,0.0141477,10,0.000384435,-2.76585,-1.63964,-0.0359836,-2.40883,0.22422,
2,1,0,1,0,52379.2,0.232019,0.231686,1.70167,27,0.0144697,10,0.000394252,-2.76913,-1.77802,-0.033183,-2.19478,0.231686,
2,1,0,1,0,52379.4,0.23951,0.239219,1.68263,27,0.0147891,10,0.000402516,-2.77401,-2.51915,-0.0234206,-1.54086,0.239219,
2,1,0,1,0,52379.6,0.247003,0.246691,1.67382,27,0.0151062,10,0.000412916,-2.77629,-1.74171,-0.0338748,-2.2095,0.246691,
2,1,0,1,0,52379.8,0.25449,0.254168,1.66071,27,0.0154208,10,0.000422099,-2.77971,-3.13093,-0.0188443,-1.21989,0.254168,
2,1,0,1,0,52380,0.261983,0.261664,1.64536,27,0.0157336,10,0.000430531,-2.78374,-2.71373,-0.0217413,-1.40201,0.261664,
2,1,0,1,0,52380.1,0.269474,0.269171,1.63826,27,0.0160443,10,0.000440971,-2.78562,-10.1352,-0.00582131,-0.372231,0.269171,
2,1,0,1,0,52380.3,0.276963,0.276607,1.6304,27,0.0163528,10,0.000450981,-2.78771,-2.063,-0.0285991,-1.81625,0.276607,
2,1,0,1,0,52380.5,0.284458,0.284182,1.61435,27,0.0166594,10,0.000458769,-2.792,-2.65469,-0.0222248,-1.40079,0.284182,
2,1,0,1,0,52380.7,0.291947,0.291634,1.60087,27,0.0169632,10,0.000466869,-2.79564,-1.54007,-0.0383101,-2.39128,0.291634,
2,1,0,1,0,52380.9,0.299434,0.299104,1.5868,27,0.0172644,10,0.000474619,-2.79948,-0.019176,-3.07677,-167.835,0.299104,
2,0,0,1,0,52381.1,0.294196,0.293894,-0.248617,27,0.017322,10,-7.30671e-05,-3.60447,-0.00418559,-14.096,80.8641,0.293894,
2,0,0,1,0,52381.2,0.286701,0.286377,-0.550131,27,0.0172388,10,-0.000157545,-3.25953,-0.0530726,-1.11168,23.5385,0.286377,
2,0,0,1,0,52381.4,0.279212,0.278911,-0.685725,27,0.0171188,10,-0.000191256,-3.16385,-0.110008,-0.536327,14.4048,0.278911,
2,0,0,1,0,52381.6,0.271725,0.271441,-0.783943,27,0.0169775,10,-0.000212794,-3.10572,-0.140852,-0.41888,12.7539,0.271441,
2,0,0,1,0,52381.8,0.264228,0.263896,-0.861578,27,0.0168201,10,-0.000227367,-3.06471,-0.212121,-0.278143,9.29279,0.263896,
2,0,0,1,0,52382,0.256741,0.256419,-0.92007,27,0.0166501,10,-0.000235923,-3.03618,-0.268075,-0.220088,7.94364,0.256419,
2,0,0,1,0,52382.2,0.249248,0.248905,-0.982177,27,0.0164688,10,-0.000244469,-3.00781,-0.301897,-0.195431,7.45332,0.248905,
2,0,0,1,0,52382.4,0.241756,0.241432,-1.02798,27,0.0162773,10,-0.000248188,-2.98801,-0.393119,-0.150082,6.04043,0.241432,
2,0,0,1,0,52382.6,0.234268,0.233939,-1.07625,27,0.0160767,10,-0.000251777,-2.96809,-0.450493,-0.130968,5.5283,0.233939,
2,0,0,1,0,52382.7,0.226772,0.226435,-1.12998,27,0.0158671,10,-0.000255867,-2.94693,-0.383733,-0.153753,6.72997,0.226435,
2,0,0,1,0,52382.9,0.219284,0.219003,-1.16884,27,0.0156493,10,-0.00025598,-2.93224,-0.412154,-0.14315,6.52063,0.2190033,
2,0,0,1,0,52383.1,0.211796,0.21145,-1.21515,27,0.0154232,10,-0.000256942,-2.91537,-0.4828,-0.122204,5.76458,0.21145,
2,0,0,1,0,52383.3,0.204301,0.203968,-1.25757,27,0.0151886,10,-0.000256505,-2.90047,-0.730795,-0.080734,3.96062,0.203968,
2,0,0,1,0,52383.5,0.196812,0.196457,-1.30076,27,0.0149461,10,-0.000255543,-2.8858,-0.513775,-0.114836,5.84428,0.196457,
2,0,0,1,0,52383.7,0.189321,0.188984,-1.35404,27,0.0146945,10,-0.000255892,-2.86837,-0.47695,-0.123703,6.50649,0.188984,
2,0,0,1,0,52383.9,0.181828,0.181485,-1.40448,27,0.0144336,10,-0.000254893,-2.85248,-0.406306,-0.145211,7.95658,0.181485,
2,0,0,1,0,52384,0.174341,0.174025,-1.46283,27,0.014162,10,-0.000254569,-2.83481,-0.338801,-0.174143,9.97219,0.1740247,
2,0,0,1,0,52384.2,0.166848,0.1665,-1.54519,27,0.0138774,10,-0.000257274,-2.81102,-0.327006,-0.180425,10.832,0.1665,
2,0,0,1,0,52384.4,0.159357,0.158979,-1.6444,27,0.0135761,10,-0.000261426,-2.78399,-0.239628,-0.246215,15.8311,0.158979,
2,0,0,1,0,52384.6,0.151868,0.151549,-1.79771,27,0.0132512,10,-0.00027244,-2.74528,-0.153818,-0.38357,27.0186,0.151549,
2,0,0,1,0,52384.8,0.144373,0.144076,-2.05272,27,0.0128889,10,-0.000295747,-2.68767,-0.109223,-0.540181,43.3699,0.144076,
2,0,0,1,0,52385,0.136884,0.136571,-2.45007,27,0.0124659,10,-0.000334608,-2.61082,-0.0935793,-0.630481,60.4261,0.1365708,
2,0,0,1,0,52385.2,0.129393,0.129064,-2.94142,27,0.0119578,10,-0.000379632,-2.53144,-0.100756,-0.585573,67.1927,0.1290639,
2,0,0,1,0,52385.4,0.1219,0.12156,-3.41193,27,0.011359,10,-0.000414756,-2.467,-0.14245,-0.414181,54.8968,0.12156,
2,0,0,1,0,52385.5,0.114413,0.114072,-3.76328,27,0.010682,10,-0.000429284,-2.42443,-0.222161,-0.265573,39.0619,0.114072,
2,0,0,1,0,52385.7,0.10692,0.106602,-3.98527,27,0.00994985,10,-0.000424838,-2.39954,-0.576277,-0.102381,15.9057,0.106602,
2,0,0,1,0,52385.9,0.0994284,0.0991172,-4.03075,27,0.00919288,10,-0.000399516,-2.39461,2.12953,0.0277056,-4.35386,0.0991172,
2,0,0,1,0,52386.1,0.0919401,0.0916082,-3.94451,27,0.00844167,10,-0.000361349,-2.40401,0.612403,0.0963418,-14.8418,0.0916082,
2,0,0,1,0,52386.3,0.0844447,0.0840984,-3.82185,27,0.00771076,10,-0.000321411,-2.41773,0.610481,0.0966451,-14.4036,0.0840984,
2,0,0,1,0,52386.5,0.0769565,0.0766453,-3.71977,27,0.00700202,10,-0.000285103,-2.42948,0.645651,0.0913806,-13.269,0.0766453,
2,0,0,1,0,52386.7,0.0694682,0.0691639,-3.63533,27,0.00631026,10,-0.000251433,-2.43946,0.797764,0.0739567,-10.5089,0.0691639,
2,0,0,1,0,52386.9,0.0619728,0.0615866,-3.55604,27,0.00563289,10,-0.000219004,-2.44903,0.656453,0.089877,-12.4611,0.0615866,
2,0,0,1,0,52387,0.0544836,0.0541567,-3.45852,27,0.00497291,10,-0.000187302,-2.46111,0.68817,0.0857346,-11.5864,0.0541567,
2,0,0,1,0,52387.2,0.0469927,0.0466643,-3.36399,27,0.00433042,10,-0.000156978,-2.47315,0.597844,0.098688,-12.9434,0.0466643,
2,0,0,1,0,52387.4,0.0394999,0.039143,-3.25804,27,0.00370741,10,-0.00012753,-2.48704,0.485807,0.121447,-15.4066,0.039143,
2,0,0,1,0,52387.6,0.0320125,0.0316814,-3.12937,27,0.0031064,10,-9.91428e-05,-2.50454,0.419489,0.140647,-17.2143,0.0316814,
2,0,0,1,0,52387.8,0.0245198,0.024162,-3.00888,27,0.00252812,10,-7.27007e-05,-2.5216,0.437843,0.134751,-15.8184,0.02416203,
2,0,0,1,0,52388,0.0170289,0.0167072,-2.89941,27,0.00197183,10,-4.8441e-05,-2.53769,0.531437,0.11102,-12.573,0.01670721,
2,0,0,1,0,52388.2,0.0095397,0.00918953,-2.81462,27,0.00143403,10,-2.58651e-05,-2.55058,0.766603,0.0769629,-8.45848,0.00918953,
2,0,0,1,0,52388.4,0.00204518,0.00164612,-2.79368,27,0.000908782,10,-4.59874e-06,-2.55382,7.93163,0.00743857,-0.802897,0.00164612,
2,0,0,1,0,52388.4,0.000177222,-0.00026119,-2.7641,27,0.000778435,10,7.21957e-07,-2.55845, , , ,-0.00026119,