File: Figure_codes/Fig_3-5/rawdata_trumpetplot_data/after 10th/20221101_1-115_003_TrumpetPlot_ParaChange_from10_every3_14_CV_C01_24.csv
mode,ox/red,error,control changes,counter inc.,time/s,control/V,Ewe/V,<I>/mA,cycle number,(Q-Qo)/C,I Range,P/W,log(|I|),Tafel slope mV/dec,alpha_eff,dI/d(E-IR),E-IR/V,
2,1,0,1,0,48482.2,2.44065e-05,-0.000306236,32.1233,25,0.0000000E+000,10,-9.8373e-06,-1.49318, , , ,-0.000306236,
2,1,0,1,0,48482.2,0.0133084,0.0129499,35.7904,25,0.000448915,10,0.000463482,-1.44623,0.379126,0.155621,216.538,0.0129499,
2,1,0,1,0,48482.3,0.0273414,0.0269674,38.4964,25,0.000969804,10,0.00103815,-1.41458,0.502294,0.117461,175.967,0.0269674,
2,1,0,1,0,48482.3,0.0413245,0.0409966,40.7432,25,0.00152503,10,0.00167033,-1.38994,0.621274,0.0949662,150.804,0.0409966,
2,1,0,1,0,48482.3,0.0553076,0.0549356,42.7261,25,0.00210974,10,0.00234718,-1.36931,0.718051,0.0821669,136.96,0.0549356,
2,1,0,1,0,48482.3,0.0693407,0.0690009,44.5699,25,0.00272116,10,0.00307536,-1.35096,0.810293,0.0728132,126.504,0.06900087,
2,1,0,1,0,48482.3,0.0833238,0.0829643,46.2619,25,0.00335722,10,0.00383809,-1.33478,0.873417,0.0675508,121.966,0.0829643,
2,1,0,1,0,48482.3,0.0973069,0.0969171,47.9808,25,0.00401708,10,0.00465016,-1.31893,0.87404,0.0675026,126.454,0.0969171,
2,1,0,1,0,48482.3,0.11134,0.11094,49.7543,25,0.00470148,10,0.00551974,-1.30317,0.917478,0.0643067,124.806,0.11094,
2,1,0,1,0,48482.4,0.125323,0.124927,51.5729,25,0.00541036,10,0.00644283,-1.28758,0.851568,0.069284,139.391,0.124927,
2,1,0,1,0,48482.4,0.139306,0.138927,53.4988,25,0.0061461,10,0.00743244,-1.27166,0.854271,0.0690648,144.354,0.138927,
2,1,0,1,0,48482.4,0.153339,0.152939,55.6254,25,0.00691016,10,0.00850732,-1.25473,0.833086,0.070821,153.792,0.152939,
2,1,0,1,0,48482.4,0.167322,0.166949,57.8553,25,0.00770461,10,0.00965885,-1.23766,0.829801,0.0711014,160.488,0.166949,
2,1,0,1,0,48482.4,0.181305,0.180909,60.04,25,0.00853031,10,0.0108618,-1.22156,0.913291,0.0646016,151.319,0.180909,
2,1,0,1,0,48482.4,0.195338,0.194941,62.0014,25,0.00938543,10,0.0120866,-1.2076,1.19323,0.0494454,119.493,0.1949411,
2,1,0,1,0,48482.4,0.209322,0.208946,63.4218,25,0.0102642,10,0.0132517,-1.19776,1.9852,0.02972,73.3787,0.2089459,
2,1,0,1,0,48482.5,0.223305,0.222933,64.0071,25,0.0111572,10,0.0142693,-1.19377,11.0577,0.00533565,13.3031,0.222933,
2,1,0,1,0,48482.5,0.237338,0.23697,63.7248,25,0.0120527,10,0.0151009,-1.19569,-2.58037,-0.0228649,-56.742,0.23697,
2,1,0,1,0,48482.5,0.251321,0.250994,62.4978,25,0.0129371,10,0.0156866,-1.20414,-1.20226,-0.0490741,-119.385,0.250994,
2,1,0,1,0,48482.5,0.265304,0.264958,60.3839,25,0.0137979,10,0.0159992,-1.21908,-0.792657,-0.0744332,-175.07,0.264958,
2,1,0,1,0,48482.5,0.279337,0.279008,57.5641,25,0.0146242,10,0.0160609,-1.23985,-0.596017,-0.0989904,-222.127,0.279008,
2,1,0,1,0,48482.5,0.29332,0.292975,54.3143,25,0.0154073,10,0.0159127,-1.26509,-0.526691,-0.11202,-238.051,0.292975,
2,1,0,1,0,48482.5,0.298714,0.298546,50.0326,25,0.0158314,10,0.014937,-1.30075,0.0601778,0.980429,1737.91,0.298546,
2,1,0,1,0,48482.6,0.28473,0.284491,32.2024,25,0.0163931,10,0.00916131,-1.49211,0.0742178,0.794957,1003.92,0.284491,
2,1,0,1,0,48482.6,0.270747,0.270488,20.2997,25,0.0167554,10,0.00549083,-1.69251,0.0630571,0.93566,736.194,0.270488,
2,1,0,1,0,48482.6,0.256714,0.25648,11.2106,25,0.0169722,10,0.00287529,-1.95037,0.0438147,1.34658,572.647,0.25648,
2,1,0,1,0,48482.6,0.242731,0.242447,4.09107,25,0.0170769,10,0.000991868,-2.38816,0.0150509,3.92002,455.133,0.242447,
2,0,0,1,0,48482.6,0.228748,0.228464,-1.61177,25,0.0170923,10,-0.000368231,-2.7927,-0.0337999,-1.74557,370.536,0.228464,
2,0,0,1,0,48482.6,0.214715,0.214442,-6.31032,25,0.017035,10,-0.0013532,-2.19995,-0.0442863,-1.33224,304.434,0.214442,
2,0,0,1,0,48482.6,0.200732,0.200473,-10.2077,25,0.0169183,10,-0.00204638,-1.99107,-0.0892592,-0.660996,257.031,0.200473,
2,0,0,1,0,48482.6,0.186735,0.186432,-13.539,25,0.0167513,10,-0.00252411,-1.86841,-0.137408,-0.429377,224.582,0.186432,
2,0,0,1,0,48482.7,0.172716,0.172407,-16.4892,25,0.0165402,10,-0.00284286,-1.7828,-0.188592,-0.312844,200.336,0.172407,
2,0,0,1,0,48482.7,0.158733,0.158451,-19.2238,25,0.0162899,10,-0.00304604,-1.71616,-0.226645,-0.260319,194.922,0.158451,
2,0,0,1,0,48482.7,0.144719,0.14444,-22.0396,25,0.0160012,10,-0.0031834,-1.6568,-0.239938,-0.245897,211.588,0.14444,
2,0,0,1,0,48482.7,0.130717,0.130407,-25.2132,25,0.0156707,10,-0.00328798,-1.59837,-0.232853,-0.253379,250.072,0.130407,
2,0,0,1,0,48482.7,0.116733,0.116443,-29.101,25,0.015291,10,-0.00338862,-1.53609,-0.220696,-0.267336,304.024,0.116443,
2,0,0,1,0,48482.7,0.102703,0.102395,-33.6826,25,0.0148519,10,-0.00344894,-1.47259,-0.231692,-0.254648,333.813,0.1023952,
2,0,0,1,0,48482.7,0.0887172,0.0884508,-38.3197,25,0.0143474,10,-0.00338941,-1.41658,-0.268362,-0.219852,328.018,0.0884508,
2,0,0,1,0,48482.8,0.0747342,0.0744503,-42.7268,25,0.0137791,10,-0.00318102,-1.3693,-0.330716,-0.178401,296.557,0.0744503,
2,0,0,1,0,48482.8,0.0607011,0.0604625,-46.5823,25,0.0131528,10,-0.00281648,-1.33178,-0.422538,-0.139632,253.079,0.0604625,
2,0,0,1,0,48482.8,0.046718,0.0464948,-49.7576,25,0.0124774,10,-0.00231347,-1.30314,-0.562418,-0.104904,203.194,0.0464948,
2,0,0,1,0,48482.8,0.0327349,0.0325049,-52.2599,25,0.0117622,10,-0.0016987,-1.28183,-0.757585,-0.0778791,158.586,0.03250486,
2,0,0,1,0,48482.8,0.0187018,0.0184767,-54.2993,25,0.0110159,10,-0.00100327,-1.26521,-0.986774,-0.0597908,126.42,0.0184767,
2,0,0,1,0,48482.8,0.00471873,0.00441681,-55.7665,25,0.0102446,10,-0.00024631,-1.25363,-1.46168,-0.0403645,87.7459,0.00441681,
2,0,0,1,0,48482.8,-0.00926438,-0.00963888,-56.7468,25,0.00945613,10,0.000546975,-1.24606,-2.56356,-0.0230148,50.9055,-0.00963888,
2,0,0,1,0,48482.9,-0.0232974,-0.0236564,-57.2715,25,0.00865756,10,0.00135484,-1.24206,-6.66473,-0.00885258,19.7522,-0.0236564,
2,0,0,1,0,48482.9,-0.0372805,-0.0375986,-57.2961,25,0.00785519,10,0.00215425,-1.24188,10.8794,0.00542312,-12.1117,-0.0375986,
2,0,0,1,0,48482.9,-0.0512637,-0.0516617,-56.9612,25,0.0070552,10,0.00294272,-1.24442,4.07031,0.0144952,-32.2008,-0.0516617,
2,0,0,1,0,48482.9,-0.0652967,-0.0656559,-56.4558,25,0.00626128,10,0.00370666,-1.24829,3.15478,0.0187018,-41.1825,-0.0656559,
2,0,0,1,0,48482.9,-0.0792798,-0.0796862,-55.8336,25,0.00547533,10,0.00444917,-1.2531,2.94199,0.0200545,-43.7006,-0.0796862,
2,0,0,1,0,48482.9,-0.0932629,-0.093638,-55.2559,25,0.00469792,10,0.00517405,-1.25762,3.51935,0.0167644,-36.1646,-0.093638,
2,0,0,1,0,48482.9,-0.107296,-0.107643,-54.8353,25,0.00392751,10,0.00590263,-1.26094,5.12852,0.0115043,-24.6262,-0.107643,
2,0,0,1,0,48483,-0.121279,-0.121671,-54.5428,25,0.00316208,10,0.00663627,-1.26326,8.13024,0.00725686,-15.4537,-0.121671,
2,0,0,1,0,48483,-0.135262,-0.135626,-54.4319,25,0.0023996,10,0.00738237,-1.26415,157.744,0.000374024,-0.794865,-0.135626,
2,0,0,1,0,48483,-0.149295,-0.149645,-54.5222,25,0.00163711,10,0.00815901,-1.26343,-10.1375,-0.00581996,12.387,-0.149645,
2,0,0,1,0,48483,-0.163278,-0.163615,-54.7248,25,0.000872418,10,0.00895381,-1.26182,-6.9923,-0.00843786,18.0269,-0.163615,
2,0,0,1,0,48483,-0.177261,-0.177635,-55.0283,25,0.000104276,10,0.00977494,-1.25941,-5.50031,-0.0107267,23.0326,-0.177635,
2,0,0,1,0,48483,-0.191295,-0.191626,-55.384,25,-0.000668519,10,0.010613,-1.25662,-4.95073,-0.0119174,25.7504,-0.191626,
2,0,0,0,1,48483,-0.199984,-0.200551,-55.2612,25,-0.00118448,10,0.0110827,-1.25758,-0.0440045,-1.34077,2586.36,-0.200551,
2,0,0,1,1,48483.1,-0.186686,-0.18714,-37.3858,25,-0.0017711,10,0.00699639,-1.42729,-0.0887034,-0.665138,982.393,-0.18714,
2,0,0,1,1,48483.1,-0.172667,-0.173054,-26.0438,25,-0.00220974,10,0.00450698,-1.5843,-0.0852041,-0.692455,703.901,-0.173054,
2,0,0,1,1,48483.1,-0.158684,-0.15915,-17.2851,25,-0.00251011,10,0.00275092,-1.76233,-0.0689698,-0.855447,571.032,-0.15915,
2,0,0,1,1,48483.1,-0.14467,-0.145104,-9.92315,25,-0.00269865,10,0.00143989,-2.00335,-0.0449669,-1.31208,489.277,-0.145104,
2,0,0,1,1,48483.1,-0.130668,-0.131082,-3.52852,25,-0.00279122,10,0.000462526,-2.45241,-0.0104119,-5.66661,431.075,-0.131082,
2,1,0,1,1,48483.1,-0.116685,-0.117181,2.15986,25,-0.00279961,10,-0.000253095,-2.66557,0.0227176,2.5971,387.783,-0.117181,
2,1,0,1,1,48483.1,-0.102654,-0.103146,7.3819,25,-0.00273198,10,-0.00076141,-2.13183,0.0445565,1.32416,357.105,-0.103146,
2,1,0,1,1,48483.1,-0.0886685,-0.0891514,12.1681,25,-0.00259427,10,-0.0010848,-1.91478,0.0831531,0.709535,329.868,-0.0891514,
2,1,0,1,1,48483.2,-0.0746854,-0.0751508,16.6,25,-0.0023921,10,-0.0012475,-1.77989,0.124274,0.474757,304.326,-0.07515081,
2,1,0,1,1,48483.2,-0.0606523,-0.0610304,20.7456,25,-0.00213013,10,-0.00126611,-1.68307,0.167964,0.351265,282.119,-0.06103044,
2,1,0,1,1,48483.2,-0.0466692,-0.0470787,24.4997,25,-0.00181282,10,-0.00115342,-1.61084,0.217264,0.271559,258.401,-0.0470787,
2,1,0,1,1,48483.2,-0.0326861,-0.0330686,27.9612,25,-0.00144498,10,-0.000924637,-1.55344,0.271748,0.217113,236.112,-0.0330686,
2,1,0,1,1,48483.2,-0.018653,-0.0190245,31.1609,25,-0.00103063,10,-0.000592822,-1.50639,0.330325,0.178612,216.529,-0.01902454,
2,1,0,1,1,48483.2,-0.00466992,-0.00508867,34.0171,25,-0.00057374,10,-0.000173102,-1.4683, , , ,-0.00508867,
2,1,0,0,1,48483.2,-0.000175352,-0.000573459,34.869,25,-0.000418709,10,-1.99959e-05,-1.45756, , , ,-0.000573459,