File: Figure_codes/Fig_3-5/rawdata_trumpetplot_data/after 10th/20221101_1-115_003_TrumpetPlot_ParaChange_from10_every3_02_CV_C01_27.csv
mode,ox/red,error,control changes,counter inc.,time/s,control/V,Ewe/V,<I>/mA,cycle number,(Q-Qo)/C,I Range,P/W,log(|I|),Tafel slope mV/dec,alpha_eff,dI/d(E-IR),E-IR/V,
2,0,0,1,0,53533.6,2.44065e-05,-0.000382585,-0.398329,28,0.0000000E+000,10,1.52395e-07,-3.39976, , , ,-0.000382585,
2,0,0,1,0,53540.8,0.00729061,0.0069575,-0.0965538,28,-0.000984534,10,-6.71773e-07,-4.01523,-0.0299812,-1.9679,7.53069,0.0069575,
2,0,0,1,0,53548.3,0.0147815,0.0144111,-0.0593525,28,-0.00148114,10,-8.55334e-07,-4.22656,-0.0376096,-1.56875,3.62048,0.0144111,
2,0,0,1,0,53555.8,0.0222725,0.0219315,-0.0383454,28,-0.00177286,10,-8.4097e-07,-4.41629,-0.037904,-1.55656,2.33717,0.0219315,
2,0,0,1,0,53563.3,0.0297635,0.0294424,-0.0224657,28,-0.00193045,10,-6.61446e-07,-4.64848,-0.0273692,-2.15571,1.90839,0.0294424,
2,0,0,1,0,53570.8,0.0372544,0.0368853,-0.0106527,28,-0.00198215,10,-3.9293e-07,-4.97254,-0.0134492,-4.38688,1.67161,0.0368853,
2,0,0,1,0,53578.3,0.0447454,0.0444048,0.00098313,28,-0.00194236,10,4.36557e-08,-6.00739,0.0115731,5.09802,1.49843,0.04440476,
2,1,0,1,0,53585.8,0.0522363,0.0518519,0.0106779,28,-0.00182179,10,5.53672e-07,-4.97151,0.0182081,3.24031,1.3539,0.0518519,
2,1,0,1,0,53593.3,0.0597273,0.0593788,0.0206546,28,-0.00162757,10,1.22645e-06,-4.68498,0.0424638,1.38942,1.0905,0.0593788,
2,1,0,1,0,53600.7,0.0672183,0.0668642,0.0288122,28,-0.00137062,10,1.92651e-06,-4.54042,0.0665785,0.886171,0.963041,0.06686423,
2,1,0,1,0,53608.2,0.0747092,0.0743443,0.0356134,28,-0.00105613,10,2.64765e-06,-4.44839,0.0841617,0.701031,0.98036,0.07434427,
2,1,0,1,0,53615.7,0.0822001,0.0818455,0.0420707,28,-0.000687783,10,3.4433e-06,-4.37602,0.0895313,0.658987,1.0944,0.0818455,
2,1,0,1,0,53623.2,0.0896911,0.0893543,0.0511401,28,-0.000260493,10,4.56959e-06,-4.29124,0.0897523,0.657365,1.32813,0.0893543,
2,1,0,1,0,53630.7,0.0971821,0.0968366,0.060504,28,0.000235802,10,5.859e-06,-4.21822,0.0956767,0.61666,1.44818,0.0968366,
2,1,0,1,0,53638.2,0.104673,0.104379,0.0719025,28,0.000806526,10,7.50513e-06,-4.14326,0.125755,0.469166,1.29523,0.104379,
2,1,0,1,0,53645.7,0.112164,0.111817,0.079584,28,0.00144954,10,8.89883e-06,-4.09917,0.200404,0.294406,0.911571,0.111817,
2,1,0,1,0,53653.2,0.119655,0.119317,0.0877988,28,0.00215494,10,1.04759e-05,-4.05651,0.217048,0.271829,0.929251,0.119317,
2,1,0,1,0,53660.7,0.127146,0.126813,0.0931232,28,0.00291499,10,1.18093e-05,-4.03094,0.834942,0.0706636,0.257162,0.126813,
2,1,0,1,0,53668.2,0.134637,0.134278,0.0917119,28,0.00369538,10,1.23149e-05,-4.03757,-0.212014,-0.278283,-0.992744,0.134278,
2,1,0,1,0,53675.7,0.142128,0.141844,0.0771547,28,0.00441058,10,1.0944e-05,-4.11264,-0.0725901,-0.812783,-2.43593,0.141844,
2,1,0,1,0,53683.1,0.149619,0.14925,0.0606066,28,0.00499416,10,9.04555e-06,-4.21748,-0.0894754,-0.659399,-1.55809,0.14925,
2,1,0,1,0,53690.6,0.15711,0.156807,0.0526534,28,0.00548433,10,8.25642e-06,-4.27857,-0.229569,-0.257004,-0.53012,0.156807,
2,1,0,1,0,53698.1,0.164601,0.164267,0.0505716,28,0.00594069,10,8.30723e-06,-4.29609,-0.351885,-0.167668,-0.331608,0.164267,
2,1,0,1,0,53705.6,0.172091,0.171763,0.0494513,28,0.00638273,10,8.49389e-06,-4.30582,1.08364,0.0544461,0.105439,0.171763,
2,1,0,1,0,53713.1,0.179582,0.179251,0.050197,28,0.00682469,10,8.99787e-06,-4.29932,-3.70787,-0.0159121,-0.0310167,0.1792513,
2,1,0,1,0,53720.6,0.187073,0.186748,0.0507149,28,0.00726839,10,9.47092e-06,-4.29486,0.89954,0.0655891,0.12875,0.186748,
2,1,0,1,0,53728.1,0.194564,0.194218,0.0511399,28,0.00771797,10,9.93228e-06,-4.29124,611.553,9.64757e-05,0.000193145,0.194218,
2,1,0,1,0,53735.6,0.202055,0.201718,0.0519166,28,0.00817061,10,1.04725e-05,-4.28469,0.530521,0.111211,0.225317,0.201718,
2,1,0,1,0,53743.1,0.209546,0.20921,0.0531836,28,0.00863034,10,1.11265e-05,-4.27422,3.65123,0.0161589,0.0333459,0.20921,
2,1,0,1,0,53750.6,0.217037,0.216748,0.0530308,28,0.00909399,10,1.14943e-05,-4.27547,1.9782,0.0298251,0.0624777,0.216748,
2,1,0,1,0,53758.1,0.224528,0.224211,0.0547907,28,0.00956508,10,1.22847e-05,-4.26129,-12.7351,-0.00463286,-0.00988751,0.224211,
2,1,0,1,0,53765.5,0.232019,0.231638,0.0551671,28,0.0100412,10,1.27788e-05,-4.25832,2.52636,0.0233537,0.0506698,0.231638,
2,1,0,1,0,53773,0.23951,0.239208,0.0566751,28,0.010526,10,1.35571e-05,-4.24661,1.34115,0.043992,0.0969806,0.239208,
2,1,0,1,0,53780.5,0.247001,0.246624,0.0576325,28,0.0110161,10,1.42136e-05,-4.23933,1.15183,0.0512226,0.115142,0.2466242,
2,1,0,1,0,53788,0.254492,0.254178,0.0584295,28,0.0115137,10,1.48515e-05,-4.23337,0.68323,0.0863545,0.196921,0.2541776,
2,1,0,1,0,53795.5,0.261983,0.261649,0.0592267,28,0.0120168,10,1.54966e-05,-4.22748,6.84424,0.00862039,0.0199443,0.261649,
2,1,0,1,0,53803,0.269474,0.269114,0.0602294,28,0.0125269,10,1.62086e-05,-4.22019,2.05356,0.0287305,0.0674083,0.269114,
2,1,0,1,0,53810.5,0.276965,0.276624,0.0607807,28,0.0130407,10,1.68134e-05,-4.21623,1.09675,0.0537952,0.127715,0.276624,
2,1,0,1,0,53818,0.284456,0.284135,0.0621885,28,0.0135625,10,1.76699e-05,-4.20629,1.17952,0.0500202,0.121195,0.2841351,
2,1,0,1,0,53825.5,0.291947,0.291611,0.0628817,28,0.0140904,10,1.8337e-05,-4.20148,1.23603,0.0477335,0.117539,0.2916109,
2,1,0,1,0,53833,0.299438,0.299131,0.0640509,28,0.0146268,10,1.91596e-05,-4.19348,-0.00419369,-14.0688,-22.5573,0.299131,
2,1,0,1,0,53839.8,0.293745,0.293422,0.00735188,28,0.0147184,10,2.1572e-06,-5.1336,0.0123341,4.78348,1.44779,0.2934221,
2,1,0,1,0,53847.3,0.286254,0.285915,-0.000514906,28,0.0146845,10,-1.4722e-07,-6.28827,-0.00791075,-7.4582,0.779345,0.285915,
2,0,0,1,0,53854.8,0.278763,0.278438,-0.00676003,28,0.0145975,10,-1.88225e-06,-5.17005,-0.0188703,-3.12661,0.774636,0.278438,
2,1,0,1,0,53862.3,0.271272,0.270934,-0.0107558,28,0.0144711,10,-2.91412e-06,-4.96836,-0.0512619,-1.15095,0.493669,0.270934,
2,0,0,1,0,53869.8,0.263781,0.263405,-0.0149112,28,0.0143145,10,-3.92768e-06,-4.82649,-0.0757179,-0.779208,0.449484,0.2634052,
2,0,0,1,0,53877.3,0.25629,0.255946,-0.0181535,28,0.0141302,10,-4.64633e-06,-4.74104,-0.140748,-0.419189,0.29442,0.255946,
2,0,0,1,0,53884.8,0.248799,0.24847,-0.0212842,28,0.0139213,10,-5.2885e-06,-4.67194,-0.190475,-0.309752,0.258137,0.24847,
2,0,0,1,0,53892.2,0.241308,0.240986,-0.0240802,28,0.0136873,10,-5.80299e-06,-4.61834,-0.192143,-0.307063,0.292829,0.2409862,
2,0,0,1,0,53899.7,0.233817,0.23352,-0.0274815,28,0.0134328,10,-6.41748e-06,-4.56096,-0.171721,-0.343581,0.363747,0.23352,
2,0,0,1,0,53907.2,0.226326,0.226007,-0.0295974,28,0.0131559,10,-6.68922e-06,-4.52875,-0.233731,-0.252427,0.293557,0.226007,
2,0,0,1,0,53914.7,0.218835,0.218469,-0.0324714,28,0.0128584,10,-7.094e-06,-4.4885,-0.168781,-0.349565,0.442108,0.218469,
2,0,0,1,0,53922.2,0.211344,0.211019,-0.0355006,28,0.0125386,10,-7.4913e-06,-4.44976,-0.489563,-0.120516,0.166791,0.2110191,
2,0,0,1,0,53929.7,0.203853,0.203515,-0.0386037,28,0.0121952,10,-7.85642e-06,-4.41337,-0.237391,-0.248535,0.375083,0.203515,
2,0,0,1,0,53937.2,0.196362,0.196027,-0.041366,28,0.0118295,10,-8.10885e-06,-4.38336,-0.466695,-0.126421,0.203001,0.196027,
2,0,0,1,0,53944.7,0.188871,0.188509,-0.0442446,28,0.0114427,10,-8.34049e-06,-4.35414,-0.202299,-0.291647,0.499749,0.188509,
2,0,0,1,0,53952.2,0.18138,0.181062,-0.0476405,28,0.0110305,10,-8.62591e-06,-4.32202,-0.231162,-0.255232,0.47631,0.181062,
2,0,0,1,0,53959.7,0.173889,0.173522,-0.0512661,28,0.010591,10,-8.8958e-06,-4.29017,-0.212919,-0.277101,0.555773,0.173522,
2,0,0,1,0,53967.2,0.166398,0.166012,-0.0556803,28,0.0101183,10,-9.2436e-06,-4.2543,-0.27416,-0.215203,0.471949,0.166012,
2,0,0,1,0,53974.6,0.158907,0.158534,-0.0618946,28,0.00960609,10,-9.8124e-06,-4.20835,-0.158284,-0.372748,0.897948,0.158534,
2,0,0,1,0,53982.1,0.151417,0.151058,-0.0700034,28,0.00903818,10,-1.05746e-05,-4.15488,-0.120562,-0.489376,1.34599,0.151058,
2,0,0,1,0,53989.6,0.143926,0.143631,-0.0823865,28,0.00839131,10,-1.18333e-05,-4.08414,-0.0853848,-0.69099,2.23352,0.143631,
2,0,0,1,0,53997.1,0.136435,0.136111,-0.102294,28,0.00762193,10,-1.39233e-05,-3.99015,-0.0825301,-0.714891,2.84671,0.136111,
2,0,0,1,0,54004.6,0.128944,0.128582,-0.12303,28,0.00669371,10,-1.58194e-05,-3.90999,-0.128007,-0.460913,2.20279,0.1285819,
2,0,0,1,0,54012.1,0.121453,0.121088,-0.134752,28,0.00563993,10,-1.63168e-05,-3.87047,-0.386162,-0.152786,0.800367,0.121088,
2,0,0,1,0,54019.6,0.113962,0.113598,-0.136262,28,0.00453699,10,-1.54792e-05,-3.86563,-4.03121,-0.0146358,0.0781953,0.113598,
2,0,0,1,0,54027.1,0.106471,0.106121,-0.137215,28,0.0034259,10,-1.45615e-05,-3.8626,11.1698,0.0052821,-0.0284359,0.106121,
2,0,0,1,0,54034.6,0.0989798,0.0986318,-0.136393,28,0.00231827,10,-1.34526e-05,-3.86521,1.0382,0.0568292,-0.301703,0.0986318,
2,0,0,1,0,54042.1,0.0914889,0.0911337,-0.133041,28,0.00122785,10,-1.21245e-05,-3.87602,0.461932,0.127725,-0.662961,0.0911337,
2,0,0,1,0,54049.6,0.083998,0.0836579,-0.128629,28,0.000167431,10,-1.07608e-05,-3.89066,0.366632,0.160924,-0.806282,0.0836579,
2,0,0,1,0,54057,0.076507,0.0761703,-0.124809,28,-0.000862591,10,-9.50671e-06,-3.90376,0.486416,0.121295,-0.590365,0.0761703,
2,0,0,1,0,54064.5,0.069016,0.0686996,-0.121615,28,-0.00186498,10,-8.35489e-06,-3.91501,0.629173,0.093774,-0.446443,0.0686996,
2,0,0,1,0,54072,0.0615251,0.0611825,-0.118517,28,-0.00284285,10,-7.25115e-06,-3.92622,0.713645,0.0826742,-0.382599,0.0611825,
2,0,0,1,0,54079.5,0.0540342,0.0536866,-0.115454,28,-0.00379739,10,-6.19835e-06,-3.93759,0.687566,0.0858099,-0.386325,0.0536866,
2,0,0,1,0,54087,0.0465432,0.046183,-0.112073,28,-0.00472818,10,-5.17588e-06,-3.9505,0.760823,0.0775476,-0.339495,0.046183,
2,0,0,1,0,54094.5,0.0390522,0.0386933,-0.109361,28,-0.00563535,10,-4.23154e-06,-3.96114,0.578896,0.101918,-0.434252,0.0386933,
2,0,0,1,0,54102,0.0315613,0.031226,-0.107341,28,-0.00652426,10,-3.35183e-06,-3.96923,0.879469,0.0670859,-0.280871,0.031226,
2,0,0,1,0,54109.5,0.0240703,0.023695,-0.104897,28,-0.00739621,10,-2.48553e-06,-3.97924,4.79053,0.012316,-0.0509331,0.023695,
2,0,0,1,0,54117,0.0165794,0.0161959,-0.105231,28,-0.00825796,10,-1.7043e-06,-3.97786,-2.34621,-0.025147,0.102595,0.0161959,
2,0,0,1,0,54124.5,0.00908843,0.00874321,-0.113636,28,-0.00912218,10,-9.93546e-07,-3.94448,-0.960105,-0.0614516,0.254436,0.00874321,
2,0,0,1,0,54132,0.00159744,0.00118467,-0.10903,28,-0.010006,10,-1.29164e-07,-3.96245, , , ,0.00118467,
2,0,0,1,0,54133.4,0.000199235,-0.000203113,-0.109751,28,-0.0101728,10,2.22917e-08,-3.95959, , , ,-0.000203113,