File: Figure_codes/Fig_3-5/rawdata_trumpetplot_data/after 10th/20221101_1-115_003_TrumpetPlot_ParaChange_from10_every3_12_CV_C01_13.csv
mode,ox/red,error,control changes,counter inc.,time/s,control/V,Ewe/V,<I>/mA,cycle number,(Q-Qo)/C,I Range,P/W,log(|I|),Tafel slope mV/dec,alpha_eff,dI/d(E-IR),E-IR/V,
2,1,0,1,0,26808.2,2.44065e-05,-0.000287149,17.5072,14,0.0000000E+000,10,-5.02718e-06,-1.75678, , , ,-0.0002871489,
2,1,0,1,0,26808.2,0.0104008,0.0100221,21.0128,14,0.000334981,10,0.000210593,-1.67752,0.200466,0.294314,240.005,0.0100221,
2,1,0,1,0,26808.3,0.0212099,0.0208499,23.1793,14,0.000733896,10,0.000483286,-1.6349,0.307811,0.191676,172.963,0.0208499,
2,1,0,1,0,26808.3,0.0320052,0.0316905,24.8601,14,0.00116695,10,0.000787828,-1.6045,0.399763,0.147587,143.038,0.0316905,
2,1,0,1,0,26808.3,0.0428033,0.0424822,26.3263,14,0.00162798,10,0.0011184,-1.57961,0.463736,0.127227,130.697,0.0424822,
2,1,0,1,0,26808.3,0.0535986,0.0532666,27.7129,14,0.00211455,10,0.00147617,-1.55732,0.493137,0.119642,129.437,0.0532666,
2,1,0,1,0,26808.3,0.0644077,0.0640424,29.1302,14,0.0026264,10,0.00186557,-1.53566,0.502849,0.117332,133.43,0.0640424,
2,1,0,1,0,26808.3,0.075203,0.0748713,30.6233,14,0.00316426,10,0.00229281,-1.51395,0.494577,0.119294,142.556,0.0748713,
2,1,0,1,0,26808.4,0.0860011,0.085663,32.1659,14,0.00372933,10,0.00275543,-1.4926,0.505494,0.116718,146.531,0.085663,
2,1,0,1,0,26808.4,0.0968075,0.0964792,33.8045,14,0.00432308,10,0.00326143,-1.47103,0.520494,0.113354,149.439,0.0964792,
2,1,0,1,0,26808.4,0.107606,0.107164,35.3874,14,0.00494604,10,0.00379225,-1.45115,0.527952,0.111753,154.495,0.107164,
2,1,0,1,0,26808.4,0.118401,0.118037,37.1413,14,0.00559892,10,0.00438406,-1.43014,0.522087,0.113008,163.796,0.118037,
2,1,0,1,0,26808.4,0.129207,0.128862,38.9584,14,0.00628375,10,0.00502025,-1.4094,0.504475,0.116953,177.897,0.128862,
2,1,0,1,0,26808.4,0.140005,0.139645,40.9746,14,0.00700323,10,0.0057219,-1.38749,0.483846,0.12194,195.075,0.139645,
2,1,0,1,0,26808.5,0.150803,0.150473,43.0896,14,0.00776019,10,0.00648382,-1.36563,0.511703,0.115301,193.896,0.150473,
2,1,0,1,0,26808.5,0.161604,0.161224,45.0959,14,0.00855451,10,0.00727055,-1.34586,0.605256,0.0974794,171.467,0.161224,
2,1,0,1,0,26808.5,0.172405,0.172068,46.7871,14,0.00938242,10,0.00805057,-1.32987,0.824371,0.0715697,130.508,0.172068,
2,1,0,1,0,26808.5,0.183203,0.182895,47.8401,14,0.0102355,10,0.0087497,-1.32021,2.2009,0.0268072,49.9246,0.1828949,
2,1,0,1,0,26808.5,0.194001,0.19366,47.7336,14,0.0110976,10,0.00924409,-1.32118,-1.4644,-0.0402896,-74.8176,0.19366,
2,1,0,1,0,26808.6,0.204808,0.204481,46.1839,14,0.0119449,10,0.0094437,-1.33551,-0.504598,-0.116925,-210.07,0.204481,
2,1,0,1,0,26808.6,0.215603,0.215295,43.2909,14,0.0127515,10,0.0093203,-1.3636,-0.316983,-0.18613,-313.687,0.215295,
2,1,0,1,0,26808.6,0.226401,0.22608,39.5615,14,0.0134975,10,0.00894407,-1.40273,-0.254643,-0.231697,-357.483,0.22608,
2,1,0,1,0,26808.6,0.237207,0.236922,35.7316,14,0.0141745,10,0.00846559,-1.44695,-0.243083,-0.242715,-338.706,0.236922,
2,1,0,1,0,26808.6,0.248005,0.247691,32.3474,14,0.0147861,10,0.00801216,-1.49016,-0.261551,-0.225577,-285.199,0.247691,
2,1,0,1,0,26808.6,0.258801,0.258508,29.5701,14,0.0153422,10,0.00764413,-1.52915,-0.297202,-0.198518,-229.538,0.258508,
2,1,0,1,0,26808.7,0.26961,0.269264,27.3905,14,0.0158539,10,0.00737528,-1.5624,-0.35201,-0.167609,-179.453,0.269264,
2,1,0,1,0,26808.7,0.280405,0.280074,25.6882,14,0.0163309,10,0.0071946,-1.59027,-0.42446,-0.139,-139.519,0.280074,
2,1,0,1,0,26808.7,0.291203,0.290925,24.3639,14,0.0167807,10,0.00708808,-1.61325,-0.499484,-0.118122,-112.39,0.290925,
2,1,0,0,0,26808.7,0.300012,0.299746,23.4637,14,0.0171319,10,0.00703316,-1.6296,0.00149203,39.5435,31385.2,0.299746,
2,1,0,1,0,26808.7,0.290843,0.29064,10.0134,14,0.0173706,10,0.0029103,-1.99942,0.0230211,2.56287,996.6,0.29064,
2,1,0,1,0,26808.7,0.280047,0.279738,1.98608,14,0.0174714,10,0.000555582,-2.702,0.00947776,6.2251,569.261,0.279738,
2,0,0,1,0,26808.8,0.269244,0.26896,-2.96207,14,0.0174591,10,-0.000796677,-2.52841,-0.014724,-4.00707,369.165,0.26896,
2,0,0,1,0,26808.8,0.258443,0.258167,-6.2595,14,0.0173741,10,-0.001616,-2.20346,-0.0544825,-1.08292,256.735,0.258167,
2,0,0,1,0,26808.8,0.247645,0.247315,-8.60462,14,0.0172389,10,-0.00212805,-2.06527,-0.104278,-0.565798,188.283,0.247315,
2,0,0,1,0,26808.8,0.236849,0.236536,-10.3736,14,0.0170671,10,-0.00245372,-1.98407,-0.163191,-0.361538,145.812,0.236536,
2,0,0,1,0,26808.8,0.22604,0.225741,-11.7872,14,0.0168671,10,-0.00266085,-1.92859,-0.232422,-0.253849,116.426,0.225741,
2,0,0,1,0,26808.9,0.215245,0.214966,-12.9345,14,0.0166441,10,-0.00278047,-1.88825,-0.293344,-0.201129,101.457,0.214966,
2,0,0,1,0,26808.9,0.204447,0.204092,-13.9516,14,0.0164018,10,-0.00284742,-1.85538,-0.361172,-0.163357,88.8521,0.2040924,
2,0,0,1,0,26808.9,0.19364,0.193309,-14.8774,14,0.0161422,10,-0.00287594,-1.82747,-0.418502,-0.140979,81.7665,0.193309,
2,0,0,1,0,26808.9,0.182842,0.182562,-15.766,14,0.0158664,10,-0.00287828,-1.80228,-0.435471,-0.135485,83.3497,0.182562,
2,0,0,1,0,26808.9,0.172047,0.171727,-16.6919,14,0.0155743,10,-0.00286645,-1.77749,-0.422466,-0.139656,91.0358,0.171727,
2,0,0,1,0,26808.9,0.161241,0.160935,-17.766,14,0.0152645,10,-0.00285916,-1.75041,-0.37703,-0.156486,108.556,0.160935,
2,0,0,1,0,26809,0.150443,0.150103,-19.104,14,0.0149332,10,-0.00286756,-1.71888,-0.301092,-0.195953,146.377,0.150103,
2,0,0,1,0,26809,0.139645,0.139338,-20.9654,14,0.0145733,10,-0.00292128,-1.6785,-0.235892,-0.250115,205.332,0.139338,
2,0,0,1,0,26809,0.128849,0.128579,-23.5879,14,0.0141733,10,-0.0030329,-1.62731,-0.190889,-0.309081,285.389,0.128579,
2,0,0,1,0,26809,0.118043,0.117744,-27.0464,14,0.013718,10,-0.00318454,-1.56789,-0.182266,-0.323703,341.795,0.117744,
2,0,0,1,0,26809,0.107245,0.106975,-30.8647,14,0.0131965,10,-0.00330175,-1.51054,-0.200999,-0.293534,353.027,0.106975,
2,0,0,1,0,26809.1,0.0964468,0.0961982,-34.5573,14,0.0126071,10,-0.00332435,-1.46146,-0.239082,-0.246777,332.104,0.0961982,
2,0,0,1,0,26809.1,0.0856404,0.0853608,-37.8927,14,0.0119539,10,-0.00323455,-1.42144,-0.31243,-0.188842,278.651,0.0853608,
2,0,0,1,0,26809.1,0.0748451,0.0745744,-40.5932,14,0.0112463,10,-0.00302721,-1.39155,-0.425283,-0.138731,219.355,0.0745744,
2,0,0,1,0,26809.1,0.0640471,0.063719,-42.6274,14,0.0104961,10,-0.00271617,-1.37031,-0.652648,-0.090401,150.053,0.063719,
2,0,0,1,0,26809.1,0.0532407,0.0529113,-43.8515,14,0.00971671,10,-0.00232024,-1.35802,-1.27807,-0.0461634,78.8452,0.0529113,
2,0,0,1,0,26809.1,0.0424426,0.042179,-44.4044,14,0.00892171,10,-0.00187293,-1.35257,-3.49819,-0.0168659,29.1901,0.042179,
2,0,0,1,0,26809.2,0.0316473,0.0312971,-44.5134,14,0.00812098,10,-0.00139314,-1.35151,34.8687,0.00169206,-2.9374,0.0312971,
2,0,0,1,0,26809.2,0.0208437,0.0205148,-44.3259,14,0.00732112,10,-0.00090934,-1.35334,3.75051,0.0157312,-27.2031,0.0205148,
2,0,0,1,0,26809.2,0.0100429,0.00971779,-43.9198,14,0.00652652,10,-0.000426804,-1.35734,2.15277,0.0274065,-46.9654,0.00971779,
2,0,0,1,0,26809.2,-0.000755207,-0.00113866,-43.3304,14,0.00574087,10,4.93384e-05,-1.36321,1.48198,0.0398115,-67.2618,-0.00113866,
2,0,0,1,0,26809.2,-0.0115505,-0.0119304,-42.3997,14,0.00496887,10,0.000505846,-1.37264,0.975784,0.0604642,-100.007,-0.0119304,
2,0,0,1,0,26809.3,-0.0223597,-0.022702,-41.2112,14,0.00421607,10,0.000935578,-1.38498,0.783043,0.0753471,-121.128,-0.022702,
2,0,0,1,0,26809.3,-0.033155,-0.0335553,-39.8921,14,0.00348627,10,0.00133859,-1.39911,0.766544,0.0769689,-119.837,-0.0335553,
2,0,0,1,0,26809.3,-0.043953,-0.0443269,-38.6654,14,0.00277975,10,0.00171392,-1.41268,0.841754,0.0700917,-105.8,-0.0443269,
2,0,0,1,0,26809.3,-0.0547594,-0.0551526,-37.6759,14,0.00209338,10,0.00207792,-1.42394,1.11202,0.0530568,-78.0454,-0.05515261,
2,0,0,1,0,26809.3,-0.0655575,-0.0659422,-37.0057,14,0.0014219,10,0.00244024,-1.43173,1.88711,0.0312647,-45.1775,-0.0659422,
2,0,0,1,0,26809.3,-0.0763528,-0.0766937,-36.6407,14,0.0007596,10,0.00281011,-1.43604,4.44038,0.0132872,-19.0154,-0.0766937,
2,0,0,1,0,26809.4,-0.0871592,-0.0875236,-36.5666,14,0.000101185,10,0.00320044,-1.43692,-15.995,-0.00368866,5.26801,-0.0875236,
2,0,0,1,0,26809.4,-0.0979573,-0.0983281,-36.733,14,-0.000558304,10,0.00361189,-1.43494,-6.01783,-0.00980421,14.0359,-0.0983281,
2,0,0,1,1,26809.4,-0.0955546,-0.0960165,-27.5839,14,-0.000924164,10,0.0026485,-1.55935,-0.0373127,-1.58123,1725.63,-0.0960165,
2,0,0,1,1,26809.4,-0.0847538,-0.0851876,-14.1437,14,-0.00128886,10,0.00120487,-1.84944,-0.03224,-1.83002,998.572,-0.0851876,
2,0,0,1,1,26809.4,-0.0739557,-0.0743438,-4.94903,14,-0.00145564,10,0.00036793,-2.30548,-0.0131149,-4.4987,738.673,-0.0743438,
2,1,0,1,1,26809.4,-0.0631604,-0.0635998,2.01283,14,-0.0014786,10,-0.000128016,-2.69619,0.0130388,4.52497,569.502,-0.06359981,
2,1,0,1,1,26809.5,-0.0523512,-0.0528377,7.50818,14,-0.00139042,10,-0.000396715,-2.12447,0.036289,1.62584,455.821,-0.0528377,
2,1,0,1,1,26809.5,-0.0415559,-0.0420142,11.9408,14,-0.00121368,10,-0.000501684,-1.92297,0.0742082,0.795061,364.727,-0.0420142,
2,1,0,1,1,26809.5,-0.0307579,-0.0311757,15.4967,14,-0.000965418,10,-0.000483122,-1.80976,0.120266,0.49058,294.267,-0.0311757,
2,1,0,1,1,26809.5,-0.0199515,-0.0203691,18.3228,14,-0.000659909,10,-0.000373221,-1.73701,0.17921,0.329223,234.276,-0.0203691,
2,1,0,1,1,26809.5,-0.0091534,-0.00953072,20.5816,14,-0.000308896,10,-0.000196158,-1.68652,0.254644,0.231696,185.455,-0.00953072,
2,1,0,0,1,26809.6,-7.54729e-05,-0.000497109,22.0409,14,1.38309e-05,10,-1.09567e-05,-1.65677, , , ,-0.000497109,