File: Figure_codes/Fig_3-5/rawdata_trumpetplot_data/after 10th/20221101_1-115_003_TrumpetPlot_ParaChange_from10_every3_10_CV_C01_20.csv
mode,ox/red,error,control changes,counter inc.,time/s,control/V,Ewe/V,<I>/mA,cycle number,(Q-Qo)/C,I Range,P/W,log(|I|),Tafel slope mV/dec,alpha_eff,dI/d(E-IR),E-IR/V,
2,1,0,0,0,40593.1,-2.44065e-05,-0.00042076,5.14405,21,0.0000000E+000,10,-2.16441e-06,-2.28869, , , ,-0.00042076,
2,1,0,1,0,40593.2,0.00977853,0.00943958,7.49692,21,0.000319609,10,7.07678e-05,-2.12512,0.117837,0.50069,145.793,0.00943958,
2,1,0,1,0,40593.2,0.0197755,0.0194786,8.5934,21,0.000724383,10,0.000167388,-2.06584,0.22822,0.258522,86.7385,0.0194786,
2,1,0,1,0,40593.3,0.0297726,0.0294344,9.34658,21,0.00117403,10,0.000275111,-2.02935,0.33229,0.177556,64.7063,0.0294344,
2,1,0,1,0,40593.3,0.0397514,0.0393866,9.95887,21,0.00165614,10,0.000392246,-2.00179,0.361666,0.163134,63.504,0.0393866,
2,1,0,1,0,40593.4,0.0497394,0.0494318,10.5868,21,0.00216862,10,0.000523323,-1.97524,0.386791,0.152537,62.9119,0.0494318,
2,1,0,1,0,40593.4,0.0597364,0.0593919,11.2012,21,0.00271285,10,0.000665264,-1.95073,0.395079,0.149337,65.2537,0.0593919,
2,1,0,1,0,40593.5,0.0697152,0.0693482,11.844,21,0.00328767,10,0.00082136,-1.9265,0.411682,0.143315,66.2561,0.0693482,
2,1,0,1,0,40593.5,0.0796941,0.0793208,12.4859,21,0.00389508,10,0.000990394,-1.90358,0.45302,0.130237,63.4937,0.0793208,
2,1,0,1,0,40593.6,0.0896911,0.0893703,13.1129,21,0.00453532,10,0.00117191,-1.8823,0.489964,0.120417,61.6221,0.0893703,
2,1,0,1,0,40593.6,0.099679,0.0993558,13.7017,21,0.00520462,10,0.00136134,-1.86323,0.571029,0.103322,55.2377,0.0993558,
2,1,0,1,0,40593.7,0.109658,0.109276,14.3058,21,0.00590292,10,0.00156328,-1.84449,0.495508,0.11907,66.4913,0.109276,
2,1,0,1,0,40593.7,0.119655,0.119305,15.0704,21,0.00663663,10,0.00179798,-1.82187,0.417454,0.141333,83.1619,0.119305,
2,1,0,1,0,40593.8,0.129652,0.129283,15.9959,21,0.00741296,10,0.00206799,-1.79599,0.382588,0.154213,96.2243,0.129283,
2,1,0,1,0,40593.8,0.139631,0.139339,16.9121,21,0.00823468,10,0.00235651,-1.7718,0.444133,0.132843,87.7163,0.139339,
2,1,0,1,0,40593.9,0.149619,0.149269,17.6861,21,0.00909885,10,0.00263998,-1.75237,0.623501,0.0946269,65.2329,0.149269,
2,1,0,1,0,40593.9,0.159616,0.159275,18.0732,21,0.00999508,10,0.00287861,-1.74296,5.58706,0.0105601,7.44769,0.159275,
2,1,0,1,0,40594,0.169595,0.169253,17.7005,21,0.0108917,10,0.00299585,-1.75202,-0.437025,-0.135004,-93.0524,0.169253,
2,1,0,1,0,40594,0.179573,0.179234,16.2008,21,0.0117414,10,0.00290374,-1.79046,-0.191552,-0.30801,-194.649,0.179234,
2,1,0,1,0,40594.1,0.18957,0.189203,14.1233,21,0.0124997,10,0.00267218,-1.85006,-0.157204,-0.37531,-206.786,0.189203,
2,1,0,1,0,40594.1,0.199558,0.199244,12.2688,21,0.0131559,10,0.00244448,-1.9112,-0.179772,-0.328193,-157.209,0.199244,
2,1,0,1,0,40594.2,0.209537,0.209203,10.9241,21,0.0137321,10,0.00228536,-1.96161,-0.214738,-0.274754,-117.155,0.209203,
2,1,0,1,0,40594.2,0.219534,0.219176,9.96818,21,0.0142528,10,0.00218479,-2.00138,-0.298613,-0.19758,-76.9412,0.219176,
2,1,0,1,0,40594.3,0.229531,0.229189,9.30064,21,0.0147337,10,0.00213161,-2.03149,-0.376498,-0.156707,-56.8888,0.229189,
2,1,0,1,0,40594.3,0.23951,0.23919,8.81728,21,0.0151852,10,0.00210901,-2.05467,-0.525655,-0.112241,-38.6729,0.23919,
2,1,0,1,0,40594.4,0.249498,0.24922,8.45953,21,0.0156158,10,0.00210828,-2.07265,-0.617434,-0.0955568,-31.5264,0.2492197,
2,1,0,1,0,40594.4,0.259495,0.259154,8.17771,21,0.0160312,10,0.00211928,-2.08737,-0.722862,-0.08162,-26.0468,0.259154,
2,1,0,1,0,40594.5,0.269474,0.269184,7.94714,21,0.0164332,10,0.00213924,-2.09979,-0.894888,-0.06593,-20.4478,0.269184,
2,1,0,1,0,40594.5,0.279453,0.279136,7.75629,21,0.016825,10,0.00216506,-2.11035,-1.06188,-0.0555618,-16.8392,0.279136,
2,1,0,1,0,40594.6,0.28945,0.289142,7.59396,21,0.0172088,10,0.00219574,-2.11953,-1.21316,-0.0486334,-14.4111,0.289142,
2,1,0,1,0,40594.6,0.299438,0.299151,7.44712,21,0.0175841,10,0.00222781,-2.12801,-0.0724053,-0.814858,-229.318,0.299151,
2,1,0,1,0,40594.7,0.291747,0.291436,1.17124,21,0.0177525,10,0.000341341,-2.93135,0.00604539,9.7595,404.699,0.2914356,
2,0,0,1,0,40594.7,0.28175,0.281424,-1.39632,21,0.0177373,10,-0.000392959,-2.85501,-0.0181211,-3.25587,171.032,0.281424,
2,0,0,1,0,40594.8,0.27178,0.271468,-2.63517,21,0.0176339,10,-0.000715363,-2.57919,-0.0635229,-0.928799,94.6451,0.271468,
2,0,0,1,0,40594.8,0.261783,0.261419,-3.37117,21,0.0174823,10,-0.000881288,-2.47222,-0.13118,-0.449762,59.1737,0.261419,
2,0,0,1,0,40594.9,0.251786,0.251449,-3.90363,21,0.0172997,10,-0.000981565,-2.40853,-0.195005,-0.302556,45.955,0.251449,
2,0,0,1,0,40594.9,0.241807,0.241493,-4.29353,21,0.0170946,10,-0.00103686,-2.36719,-0.26778,-0.22033,37.0815,0.241493,
2,0,0,1,0,40595,0.231824,0.231506,-4.64633,21,0.0168712,10,-0.00107565,-2.33289,-0.328388,-0.179666,32.515,0.231506,
2,0,0,1,0,40595,0.221822,0.221511,-4.92935,21,0.0166316,10,-0.0010919,-2.30721,-0.397876,-0.148287,28.5516,0.221511,
2,0,0,1,0,40595.1,0.211843,0.211544,-5.20803,21,0.0163785,10,-0.00110173,-2.28333,-0.509327,-0.115839,23.5175,0.2115439,
2,0,0,1,0,40595.1,0.201865,0.201544,-5.46016,21,0.0161122,10,-0.00110046,-2.26279,-0.544895,-0.108278,23.1046,0.2015439,
2,0,0,1,0,40595.2,0.191868,0.191543,-5.72414,21,0.0158324,10,-0.00109642,-2.24229,-0.492525,-0.119791,26.7613,0.191543,
2,0,0,1,0,40595.2,0.18188,0.181586,-6.0032,21,0.0155401,10,-0.00109009,-2.22162,-0.43691,-0.135039,31.6311,0.181586,
2,0,0,1,0,40595.3,0.171901,0.171566,-6.31818,21,0.015233,10,-0.00108399,-2.19941,-0.42059,-0.140279,34.5534,0.171566,
2,0,0,1,0,40595.3,0.161904,0.161545,-6.69964,21,0.0149081,10,-0.00108229,-2.17395,-0.34916,-0.168977,44.2338,0.161545,
2,0,0,1,0,40595.4,0.151907,0.151624,-7.2491,21,0.01456,10,-0.00109913,-2.13972,-0.259375,-0.22747,64.4144,0.151624,
2,0,0,1,0,40595.4,0.141928,0.141625,-8.11634,21,0.0141783,10,-0.00114948,-2.09064,-0.167721,-0.351775,111.633,0.141625,
2,0,0,1,0,40595.5,0.13194,0.131633,-9.491,21,0.0137411,10,-0.00124933,-2.02269,-0.133507,-0.441924,163.729,0.131633,
2,0,0,1,0,40595.5,0.121943,0.121582,-11.288,21,0.0132223,10,-0.00137242,-1.94738,-0.143182,-0.412063,181.424,0.121582,
2,0,0,1,0,40595.6,0.111964,0.111634,-13.1215,21,0.0126127,10,-0.0014648,-1.88202,-0.172194,-0.342637,175.312,0.111634,
2,0,0,1,0,40595.6,0.101985,0.101672,-14.7005,21,0.0119169,10,-0.00149463,-1.83267,-0.24326,-0.242539,139.09,0.101672,
2,0,0,1,0,40595.7,0.0919883,0.0916903,-15.9018,21,0.0111499,10,-0.00145804,-1.79855,-0.363222,-0.162435,100.74,0.0916903,
2,0,0,1,0,40595.7,0.0820004,0.0816682,-16.6034,21,0.0103361,10,-0.00135597,-1.7798,-0.938284,-0.0628808,40.734,0.0816682,
2,0,0,1,0,40595.8,0.0720215,0.0716538,-16.7714,21,0.00950139,10,-0.00120173,-1.77543,5.42899,0.0108676,-7.10811,0.0716538,
2,0,0,1,0,40595.8,0.0620245,0.0617093,-16.5769,21,0.00866679,10,-0.00102295,-1.7805,1.42742,0.0413332,-26.7555,0.0617093,
2,0,0,1,0,40595.9,0.0520275,0.0517076,-16.3062,21,0.00784455,10,-0.000843155,-1.78765,1.31248,0.044953,-28.5853,0.0517076,
2,0,0,1,0,40595.9,0.0420486,0.041732,-16.0008,21,0.00703842,10,-0.000667746,-1.79586,1.17032,0.0504134,-31.5006,0.041732,
2,0,0,1,0,40596,0.0320607,0.0317041,-15.675,21,0.00624794,10,-0.00049696,-1.80479,0.985833,0.0598478,-36.5805,0.0317041,
2,0,0,1,0,40596,0.0220637,0.0217813,-15.2504,21,0.00547454,10,-0.000332172,-1.81672,0.737933,0.0799531,-47.5952,0.0217813,
2,0,0,1,0,40596.1,0.0120848,0.0117617,-14.7237,21,0.00472628,10,-0.000173176,-1.83198,0.55004,0.107265,-61.607,0.01176172,
2,0,0,1,0,40596.1,0.00210598,0.00170054,-14.1334,21,0.00400729,10,-2.40343e-05,-1.84975,0.57346,0.102884,-56.6366,0.00170054,
2,0,0,1,0,40596.2,-0.00789103,-0.00822574,-13.4947,21,0.00331716,10,0.000111004,-1.86984,0.561015,0.105167,-55.4091,-0.00822574,
2,0,0,1,0,40596.2,-0.017879,-0.0182253,-13.0261,21,0.00265609,10,0.000237404,-1.88519,0.796979,0.0740296,-37.6315,-0.0182253,
2,0,0,1,0,40596.3,-0.0278578,-0.028257,-12.7222,21,0.0020145,10,0.000359492,-1.89544,1.28334,0.0459738,-22.8346,-0.028257,
2,0,0,1,0,40596.3,-0.0378549,-0.0382189,-12.5955,21,0.00138225,10,0.000481386,-1.89978,4.69778,0.0125591,-6.17401,-0.0382189,
2,0,0,1,0,40596.4,-0.0478519,-0.0482527,-12.6107,21,0.000752688,10,0.0006085,-1.89926,-2.67395,-0.0220647,10.8581,-0.0482527,
2,0,0,1,0,40596.4,-0.0578126,-0.0581894,-12.7386,21,0.000121792,10,0.000741252,-1.89488,-1.49408,-0.0394891,19.6427,-0.0581894,
2,0,0,1,0,40596.5,-0.0678187,-0.0681903,-12.984,21,-0.00052075,10,0.000885381,-1.88659,-1.02663,-0.0574699,29.0914,-0.0681903,
2,0,0,1,0,40596.5,-0.0778157,-0.0782077,-13.294,21,-0.0011773,10,0.00103969,-1.87634,-0.831628,-0.0709451,36.8402,-0.0782077,
2,0,0,1,0,40596.6,-0.0877945,-0.0881469,-13.723,21,-0.00185111,10,0.00120964,-1.86255,-0.666243,-0.0885563,47.4243,-0.0881469,
2,0,0,1,0,40596.6,-0.0977734,-0.0981288,-14.2296,21,-0.00254836,10,0.00139633,-1.84681,-0.567132,-0.104032,57.8102,-0.0981288,
2,0,0,1,1,40596.7,-0.0936874,-0.0940608,-7.4328,21,-0.00303326,10,0.000699135,-2.12885,-0.022742,-2.59431,753.573,-0.0940608,
2,0,0,1,1,40596.7,-0.0837086,-0.0840744,-1.75303,21,-0.00324918,10,0.000147385,-2.75621,-0.00849547,-6.94488,439.603,-0.0840744,
2,1,0,1,1,40596.8,-0.0737025,-0.0741221,1.88721,21,-0.0032394,10,-0.000139884,-2.72418,0.0138376,4.26375,297.586,-0.0741221,
2,1,0,1,1,40596.8,-0.0637236,-0.0640969,4.39206,21,-0.00307905,10,-0.000281518,-2.35733,0.0477809,1.2348,210.691,-0.0640969,
2,1,0,1,1,40596.9,-0.0537448,-0.0541143,6.19403,21,-0.00281221,10,-0.000335185,-2.20803,0.095055,0.620693,149.486,-0.0541143,
2,1,0,1,1,40596.9,-0.0437477,-0.0440917,7.46356,21,-0.00246859,10,-0.000329081,-2.12705,0.159261,0.370461,107.895,-0.0440917,
2,1,0,1,1,40597,-0.0337507,-0.0341099,8.37387,21,-0.00207105,10,-0.000285632,-2.07707,0.258331,0.228389,74.5319,-0.03410989,
2,1,0,1,1,40597,-0.0237809,-0.0241862,8.974,21,-0.00163807,10,-0.000217047,-2.04701,0.406721,0.145063,50.7929,-0.0241862,
2,1,0,1,1,40597.1,-0.0137839,-0.014174,9.36417,21,-0.00117861,10,-0.000132728,-2.02853,0.785021,0.0751572,27.475,-0.014174,
2,1,0,1,1,40597.1,-0.0037869,-0.00416188,9.60921,21,-0.00070358,10,-3.99924e-05,-2.01731,1.20218,0.0490776,18.4091,-0.00416188,
2,1,0,1,1,40597.1,-2.55332e-05,-0.000325324,9.64779,21,-0.000523263,10,-3.13865e-06,-2.01557, , , ,-0.000325324,