File: Figure_codes/Fig_3-5/rawdata_trumpetplot_data/after 10th/20221101_1-115_003_TrumpetPlot_ParaChange_from10_every3_11_CV_C01_32.csv
mode,ox/red,error,control changes,counter inc.,time/s,control/V,Ewe/V,<I>/mA,cycle number,(Q-Qo)/C,I Range,P/W,log(|I|),Tafel slope mV/dec,alpha_eff,dI/d(E-IR),E-IR/V,
2,1,0,1,0,64238.7,2.44065e-05,-0.000344411,9.19558,33,0.0000000E+000,10,-3.16706e-06,-2.03642, , , ,-0.000344411,
2,1,0,1,0,64238.7,0.0101427,0.0098058,12.1837,33,0.000275773,10,0.000119471,-1.91422,0.141667,0.416469,197.087,0.0098058,
2,1,0,1,0,64238.7,0.0205441,0.0201798,13.9071,33,0.000616233,10,0.000280642,-1.85676,0.225506,0.261633,141.78,0.0201798,
2,1,0,1,0,64238.8,0.0309482,0.0305442,15.2189,33,0.000995582,10,0.000464849,-1.81762,0.305195,0.193319,114.724,0.0305442,
2,1,0,1,0,64238.8,0.0413439,0.0409701,16.3213,33,0.0014059,10,0.000668686,-1.78724,0.385771,0.15294,97.2806,0.0409701,
2,1,0,1,0,64238.8,0.0517425,0.0513939,17.2919,33,0.00184309,10,0.000888696,-1.76216,0.437332,0.134909,91.0651,0.0513939,
2,1,0,1,0,64238.8,0.0621438,0.0617413,18.2384,33,0.00230515,10,0.00112606,-1.73901,0.466083,0.126587,90.0839,0.0617413,
2,1,0,1,0,64238.9,0.0725479,0.0722128,19.179,33,0.00279159,10,0.00138497,-1.71717,0.483857,0.121937,91.2163,0.0722128,
2,1,0,1,0,64238.9,0.0829437,0.0825857,20.121,33,0.00330255,10,0.00166171,-1.69635,0.513128,0.114981,90.2936,0.0825857,
2,1,0,1,0,64238.9,0.0933422,0.0930148,21.0954,33,0.00383847,10,0.00196218,-1.67581,0.522627,0.112891,92.9613,0.0930148,
2,1,0,1,0,64239,0.103749,0.103389,22.0481,33,0.00439938,10,0.00227953,-1.65663,0.560593,0.105246,90.5074,0.103389,
2,1,0,1,0,64239,0.114148,0.113748,23.0436,33,0.00498518,10,0.00262116,-1.63745,0.527909,0.111762,100.468,0.113748,
2,1,0,1,0,64239,0.124543,0.124196,24.1133,33,0.00559815,10,0.00299478,-1.61774,0.50772,0.116206,109.416,0.124196,
2,1,0,1,0,64239,0.134942,0.134566,25.3187,33,0.00624076,10,0.00340703,-1.59656,0.488432,0.120795,119.392,0.134566,
2,1,0,1,0,64239.1,0.145349,0.145039,26.5666,33,0.00691529,10,0.00385321,-1.57566,0.519242,0.113627,117.682,0.145039,
2,1,0,1,0,64239.1,0.155747,0.155364,27.6868,33,0.00762088,10,0.00430152,-1.55773,0.635486,0.0928423,100.276,0.155364,
2,1,0,1,0,64239.1,0.166143,0.165766,28.6036,33,0.0083536,10,0.00474151,-1.54358,0.922495,0.063957,71.3722,0.165766,
2,1,0,1,0,64239.1,0.176542,0.176193,29.0805,33,0.00910494,10,0.00512379,-1.5364,4.60654,0.0128079,14.5182,0.176193,
2,1,0,1,0,64239.2,0.186949,0.186613,28.8743,33,0.00985984,10,0.00538831,-1.53949,-1.18564,-0.0497623,-55.9927,0.186613,
2,1,0,1,0,64239.2,0.197347,0.197007,27.9255,33,0.0105997,10,0.00550152,-1.554,-0.517892,-0.113923,-124.049,0.197007,
2,1,0,1,0,64239.2,0.207743,0.207473,26.3969,33,0.0113067,10,0.00547665,-1.57845,-0.365482,-0.161431,-166.134,0.207473,
2,1,0,1,0,64239.2,0.218141,0.217801,24.5391,33,0.011969,10,0.00534466,-1.61014,-0.312808,-0.188614,-180.608,0.217801,
2,1,0,1,0,64239.3,0.228548,0.228227,22.6758,33,0.0125823,10,0.00517523,-1.64444,-0.301884,-0.195439,-172.984,0.228227,
2,1,0,1,0,64239.3,0.238947,0.238604,21.0064,33,0.0131494,10,0.00501221,-1.67765,-0.329484,-0.179068,-146.837,0.238604,
2,1,0,1,0,64239.3,0.249343,0.249018,19.5936,33,0.0136765,10,0.00487915,-1.70789,-0.364818,-0.161725,-123.748,0.249018,
2,1,0,1,0,64239.3,0.259741,0.259433,18.4329,33,0.0141702,10,0.0047821,-1.73441,-0.415285,-0.142071,-102.249,0.259433,
2,1,0,1,0,64239.4,0.270148,0.269823,17.4731,33,0.0146366,10,0.00471464,-1.75763,-0.485155,-0.121611,-82.9914,0.269823,
2,1,0,1,0,64239.4,0.280547,0.280208,16.6785,33,0.0150802,10,0.00467345,-1.77784,-0.538038,-0.109658,-71.3972,0.280208,
2,1,0,1,0,64239.4,0.290942,0.290573,16.0157,33,0.0155049,10,0.00465373,-1.79545,-0.617537,-0.0955408,-59.7235,0.290573,
2,1,0,0,0,64239.4,0.300012,0.299632,15.505,33,0.0158626,10,0.0046458,-1.80953,0.00151841,38.8564,21272.6,0.299632,
2,1,0,1,0,64239.5,0.290704,0.290377,7.00794,33,0.0161065,10,0.00203494,-2.15441,0.0269873,2.18622,598.123,0.290377,
2,1,0,1,0,64239.5,0.280305,0.280021,2.21392,33,0.0162207,10,0.000619945,-2.65484,0.0130154,4.53309,365.969,0.280021,
2,0,0,1,0,64239.5,0.269909,0.269634,-0.890088,33,0.0162349,10,-0.000239998,-3.05057,-0.00435002,-13.5632,248.809,0.269634,
2,0,0,1,0,64239.5,0.2595,0.259184,-3.07224,33,0.0161817,10,-0.000796275,-2.51254,-0.0386983,-1.52462,178.825,0.259184,
2,0,0,1,0,64239.6,0.249104,0.248756,-4.68815,33,0.0160798,10,-0.0011662,-2.329,-0.0806849,-0.73124,132.734,0.248756,
2,0,0,1,0,64239.6,0.238705,0.23838,-5.92803,33,0.0159411,10,-0.00141312,-2.22709,-0.127944,-0.46114,106.522,0.2383796,
2,0,0,1,0,64239.6,0.22831,0.228023,-6.93493,33,0.0157732,10,-0.00158132,-2.15896,-0.179763,-0.32821,88.743,0.228023,
2,0,0,1,0,64239.6,0.2179,0.21759,-7.79527,33,0.0155814,10,-0.00169618,-2.10817,-0.240031,-0.245802,74.513,0.21759,
2,0,0,1,0,64239.7,0.207504,0.207172,-8.5048,33,0.0153694,10,-0.00176196,-2.07034,-0.299219,-0.19718,65.4666,0.207172,
2,0,0,1,0,64239.7,0.197106,0.196732,-9.15808,33,0.0151395,10,-0.00180169,-2.0382,-0.342921,-0.172051,61.5176,0.196732,
2,0,0,1,0,64239.7,0.18671,0.186367,-9.76337,33,0.0148934,10,-0.00181957,-2.0104,-0.3901,-0.151243,57.5887,0.186367,
2,0,0,1,0,64239.8,0.1763,0.175973,-10.3517,33,0.0146318,10,-0.00182162,-1.98499,-0.41969,-0.14058,56.7936,0.175973,
2,0,0,1,0,64239.8,0.165905,0.165574,-10.9597,33,0.0143547,10,-0.00181464,-1.9602,-0.418726,-0.140904,60.3211,0.165574,
2,0,0,1,0,64239.8,0.155506,0.15516,-11.6602,33,0.0140609,10,-0.00180919,-1.9333,-0.357923,-0.16484,74.9859,0.15516,
2,0,0,1,0,64239.8,0.145105,0.144785,-12.5313,33,0.013747,10,-0.00181434,-1.902,-0.298188,-0.197862,96.871,0.144785,
2,0,0,1,0,64239.9,0.134701,0.134394,-13.7662,33,0.013406,10,-0.00185009,-1.86119,-0.217273,-0.271547,146.153,0.134394,
2,0,0,1,0,64239.9,0.124305,0.124034,-15.5608,33,0.0130257,10,-0.00193007,-1.80797,-0.181518,-0.325036,197.573,0.124034,
2,0,0,1,0,64239.9,0.113906,0.113603,-17.7628,33,0.0125929,10,-0.0020179,-1.75049,-0.183731,-0.321122,222.512,0.113603,
2,0,0,1,0,64239.9,0.103505,0.103263,-20.0171,33,0.0121011,10,-0.00206702,-1.6986,-0.217167,-0.27168,212.254,0.1032626,
2,0,0,1,0,64240,0.0931008,0.0927911,-22.1659,33,0.0115519,10,-0.0020568,-1.65431,-0.262711,-0.224581,194.176,0.0927911,
2,0,0,1,0,64240,0.0827051,0.0823747,-23.9769,33,0.0109509,10,-0.00197509,-1.62021,-0.362202,-0.162893,152.248,0.0823747,
2,0,0,1,0,64240,0.0723065,0.072022,-25.3404,33,0.0103087,10,-0.00182506,-1.59619,-0.528066,-0.111729,110.384,0.072022,
2,0,0,1,0,64240,0.0618997,0.0615568,-26.2799,33,0.00963661,10,-0.00161771,-1.58038,-0.883287,-0.0667959,68.452,0.06155682,
2,0,0,1,0,64240.1,0.0515011,0.0511617,-26.8162,33,0.00894577,10,-0.00137196,-1.5716,-1.66224,-0.0354943,37.1072,0.0511617,
2,0,0,1,0,64240.1,0.0411053,0.0408047,-27.0501,33,0.00824511,10,-0.00110377,-1.56783,-5.65428,-0.0104346,11.0118,0.0408047,
2,0,0,1,0,64240.1,0.0307068,0.0303575,-27.0925,33,0.00754081,10,-0.000822461,-1.56715,26.5163,0.00222504,-2.35324,0.0303575,
2,0,0,1,0,64240.1,0.0202999,0.01992,-27.0294,33,0.006837,10,-0.000538425,-1.56816,4.30731,0.0136976,-14.4373,0.01992,
2,0,0,1,0,64240.2,0.00990136,0.00953327,-26.8006,33,0.00613717,10,-0.000255498,-1.57185,2.11771,0.0278602,-29.1155,0.00953327,
2,0,0,1,0,64240.2,-0.000494411,-0.000892641,-26.4242,33,0.00544512,10,2.35874e-05,-1.578,1.42934,0.0412777,-42.535,-0.000892641,
2,0,0,1,0,64240.2,-0.010893,-0.0112836,-25.8866,33,0.00476494,10,0.000292093,-1.58692,1.07714,0.0547748,-55.3206,-0.0112836,
2,0,0,1,0,64240.2,-0.0212998,-0.0217084,-25.2789,33,0.00409978,10,0.000548766,-1.59724,1.00349,0.0587948,-57.9941,-0.0217084,
2,0,0,1,0,64240.3,-0.0316984,-0.0320835,-24.6907,33,0.00345045,10,0.000792164,-1.60747,1.05792,0.0557696,-53.7265,-0.0320835,
2,0,0,1,0,64240.3,-0.0420942,-0.0424871,-24.1899,33,0.00281533,10,0.00102776,-1.61637,1.37134,0.0430237,-40.6547,-0.0424871,
2,0,0,1,0,64240.3,-0.0524927,-0.0528727,-23.8544,33,0.0021909,10,0.00126125,-1.62243,2.17963,0.0270689,-25.2125,-0.0528727,
2,0,0,1,0,64240.4,-0.0628996,-0.0632785,-23.6783,33,0.00157335,10,0.00149833,-1.62565,4.2569,0.0138598,-12.8012,-0.0632785,
2,0,0,1,0,64240.4,-0.0732982,-0.0736779,-23.6165,33,0.000958975,10,0.00174002,-1.62678,-25.1625,-0.00234475,2.16181,-0.07367792,
2,0,0,1,0,64240.4,-0.0836939,-0.0840752,-23.6949,33,0.000344137,10,0.00199216,-1.62534,-3.7535,-0.0157186,14.5437,-0.0840752,
2,0,0,1,0,64240.4,-0.0940925,-0.094463,-23.8981,33,-0.000274355,10,0.00225749,-1.62164,-2.21589,-0.0266259,24.8281,-0.094463,
2,0,0,1,1,64240.4,-0.0978574,-0.0982932,-20.3215,33,-0.000752055,10,0.00199746,-1.69205,-0.0343809,-1.71607,1349.99,-0.0982932,
2,0,0,1,1,64240.5,-0.0874588,-0.0878386,-10.9113,33,-0.0011444,10,0.00095843,-1.96212,-0.0362872,-1.62592,691.001,-0.08783859,
2,0,0,1,1,64240.5,-0.0770519,-0.077454,-4.83416,33,-0.00134429,10,0.000374425,-2.31568,-0.0216625,-2.72361,502.047,-0.077454,
2,0,0,1,1,64240.5,-0.0666562,-0.0670758,-0.236671,33,-0.00140721,10,1.58749e-05,-3.62586,-0.032892,-1.79375,392.051,-0.0670758,
2,1,0,1,1,64240.6,-0.0562576,-0.0566966,3.40928,33,-0.00136377,10,-0.000193294,-2.46734,0.0241209,2.44601,313.121,-0.0566966,
2,1,0,1,1,64240.6,-0.0458563,-0.0463003,6.38043,33,-0.00123497,10,-0.000295416,-2.19515,0.0567357,1.03991,256.075,-0.0463003,
2,1,0,1,1,64240.6,-0.0354522,-0.0358935,8.80042,33,-0.00103645,10,-0.000315878,-2.0555,0.0956931,0.616554,210.604,-0.0358935,
2,1,0,1,1,64240.6,-0.0250564,-0.0254421,10.761,33,-0.000780991,10,-0.000273782,-1.96815,0.146865,0.40173,168.428,-0.0254421,
2,1,0,1,1,64240.7,-0.0146579,-0.0150268,12.353,33,-0.000479501,10,-0.000185626,-1.90823,0.204168,0.288978,139.149,-0.0150268,
2,1,0,1,1,64240.7,-0.00425653,-0.00466769,13.6444,33,-0.000140783,10,-6.36879e-05,-1.86505,0.284448,0.20742,110.315,-0.00466769,
2,1,0,0,1,64240.7,-7.54729e-05,-0.000535284,14.0828,33,4.81611e-06,10,-7.53832e-06,-1.85131, , , ,-0.000535284,