File: Figure_codes/Fig_3-5/rawdata_trumpetplot_data/after 10th/20221101_1-115_003_TrumpetPlot_ParaChange_from10_every3_06_CV_C01_30.csv
mode,ox/red,error,control changes,counter inc.,time/s,control/V,Ewe/V,<I>/mA,cycle number,(Q-Qo)/C,I Range,P/W,log(|I|),Tafel slope mV/dec,alpha_eff,dI/d(E-IR),E-IR/V,
2,0,0,0,0,60253.9,2.44065e-05,-0.000439847,-1.4128,31,0.0000000E+000,10,6.21416e-07,-2.84992, , , ,-0.000439847,
2,1,0,1,0,60254.1,0.00729063,0.00696279,0.925657,31,3.5245e-05,10,6.44516e-06,-3.03355,0.018034,3.27159,110.501,0.00696279,
2,1,0,1,0,60254.3,0.014778,0.0144339,1.40109,31,0.000263582,10,2.02232e-05,-2.85353,0.0784768,0.751815,41.0645,0.0144339,
2,1,0,1,0,60254.5,0.0222743,0.0219279,1.64142,31,0.000553221,10,3.59929e-05,-2.78478,0.142914,0.412836,26.3405,0.0219279,
2,1,0,1,0,60254.7,0.0297626,0.0294235,1.81554,31,0.000879609,10,5.34195e-05,-2.74099,0.189232,0.311787,22.0861,0.0294235,
2,1,0,1,0,60254.9,0.0372544,0.0368539,1.9779,31,0.0012378,10,7.28935e-05,-2.7038,0.222707,0.264922,20.4432,0.0368539,
2,1,0,1,0,60255,0.0447472,0.0444063,2.1398,31,0.00162615,10,9.50207e-05,-2.66963,0.233704,0.252456,21.0329,0.0444063,
2,1,0,1,0,60255.2,0.0522345,0.051907,2.28978,31,0.00204371,10,0.000118856,-2.64021,0.262718,0.224575,20.0966,0.051907,
2,1,0,1,0,60255.4,0.0597308,0.0593834,2.43857,31,0.00248997,10,0.000144811,-2.61286,0.291614,0.202322,19.2281,0.0593834,
2,1,0,1,0,60255.6,0.0672182,0.0668847,2.57375,31,0.00296165,10,0.000172144,-2.58943,0.337399,0.174867,17.5299,0.0668847,
2,1,0,1,0,60255.8,0.0747074,0.0743811,2.68221,31,0.00345682,10,0.000199506,-2.57151,0.459976,0.128268,13.4615,0.0743811,
2,1,0,1,0,60256,0.0822019,0.0818631,2.78438,31,0.00397244,10,0.000227938,-2.55527,0.558999,0.105546,11.4701,0.0818631,
2,1,0,1,0,60256.2,0.0896911,0.0893474,2.87546,31,0.00450478,10,0.000256915,-2.54129,0.473625,0.124571,13.9823,0.0893474,
2,1,0,1,0,60256.4,0.097182,0.0968403,2.99829,31,0.00505721,10,0.000290355,-2.52313,0.306992,0.192187,22.5324,0.0968403,
2,1,0,1,0,60256.5,0.104675,0.104309,3.20232,31,0.00563899,10,0.000334032,-2.49454,0.224949,0.262282,32.7215,0.104309,
2,1,0,1,0,60256.7,0.112162,0.111817,3.45123,31,0.00626361,10,0.000385907,-2.46203,0.238377,0.247507,33.2877,0.111817,
2,1,0,1,0,60256.9,0.119655,0.11933,3.68178,31,0.006935,10,0.000439347,-2.43394,0.333898,0.176701,25.3625,0.11933,
2,1,0,1,0,60257.1,0.127146,0.126797,3.83086,31,0.00764261,10,0.000485743,-2.4167,0.564856,0.104451,15.6052,0.126797,
2,1,0,1,0,60257.3,0.134635,0.134348,3.9106,31,0.00837121,10,0.000525382,-2.40776,1.53669,0.0383943,5.86685,0.134348,
2,1,0,1,0,60257.5,0.142129,0.141806,3.89414,31,0.0091083,10,0.000552214,-2.40959,-0.623849,-0.0945742,-14.3455,0.141806,
2,1,0,1,0,60257.7,0.149619,0.149277,3.61789,31,0.00981918,10,0.00054007,-2.44154,-0.140353,-0.420369,-59.1389,0.149277,
2,1,0,1,0,60257.9,0.157106,0.156719,3.07708,31,0.0104504,10,0.000482237,-2.51186,-0.0946695,-0.623221,-74.9565,0.156719,
2,1,0,1,0,60258,0.164602,0.164269,2.58272,31,0.0109809,10,0.000424259,-2.58792,-0.104187,-0.566292,-57.076,0.164269,
2,1,0,1,0,60258.2,0.172091,0.171748,2.24282,31,0.0114326,10,0.000385199,-2.64921,-0.146752,-0.402038,-35.2632,0.171748,
2,1,0,1,0,60258.4,0.179582,0.179239,2.03673,31,0.0118344,10,0.000365061,-2.69107,-0.219362,-0.268962,-21.4392,0.179239,
2,1,0,1,0,60258.6,0.187074,0.186738,1.91511,31,0.0122059,10,0.000357625,-2.71781,-0.359297,-0.16421,-12.2414,0.186738,
2,1,0,1,0,60258.8,0.194563,0.194218,1.83515,31,0.0125586,10,0.00035642,-2.73633,-0.566315,-0.104182,-7.46575,0.194218,
2,1,0,1,0,60259,0.202059,0.201716,1.78264,31,0.0128997,10,0.000359586,-2.74894,-0.739577,-0.0797754,-5.54861,0.201716,
2,1,0,1,0,60259.2,0.209546,0.209193,1.75088,31,0.0132325,10,0.000366272,-2.75674,-0.778927,-0.0757452,-5.16055,0.209193,
2,1,0,1,0,60259.4,0.217035,0.216673,1.71505,31,0.0135593,10,0.000371605,-2.76572,-0.920065,-0.0641259,-4.31349,0.216673,
2,1,0,1,0,60259.5,0.22453,0.224196,1.69819,31,0.0138822,10,0.000380729,-2.77001,-1.49509,-0.0394626,-2.61621,0.224196,
2,1,0,1,0,60259.7,0.232019,0.231655,1.6857,31,0.0142012,10,0.0003905,-2.77322,-3.46083,-0.0170479,-1.11937,0.231655,
2,1,0,1,0,60259.9,0.23951,0.239183,1.66805,31,0.0145178,10,0.000398969,-2.77779,-3.06037,-0.0192787,-1.25861,0.239183,
2,1,0,1,0,60260.1,0.247003,0.246643,1.6622,31,0.0148321,10,0.000409971,-2.77932,-2.44923,-0.0240892,-1.55606,0.246643,
2,1,0,1,0,60260.3,0.25449,0.254168,1.64697,31,0.0151441,10,0.000418607,-2.78331,-2.1071,-0.0280005,-1.80316,0.254168,
2,1,0,1,0,60260.5,0.261983,0.261641,1.6357,31,0.0154544,10,0.000427967,-2.7863,-2.15294,-0.0274044,-1.75471,0.261641,
2,1,0,1,0,60260.7,0.269474,0.269111,1.62548,31,0.0157627,10,0.000437435,-2.78902,-3.17783,-0.0185661,-1.17855,0.269111,
2,1,0,1,0,60260.9,0.276963,0.276583,1.61496,31,0.016069,10,0.000446672,-2.79184,-1.63564,-0.0360715,-2.27708,0.2765834,
2,1,0,1,0,60261,0.284458,0.284108,1.60376,31,0.0163733,10,0.000455642,-2.79486,-8.11909,-0.00726682,-0.45499,0.284108,
2,1,0,1,0,60261.2,0.291947,0.29163,1.59342,31,0.016675,10,0.00046469,-2.79767,-1.56663,-0.0376604,-2.34004,0.29163,
2,1,0,1,0,60261.4,0.299434,0.299154,1.57711,31,0.0169744,10,0.000471799,-2.80214,-0.021197,-2.78341,-152.865,0.299154,
2,0,0,1,0,60261.6,0.294196,0.293842,-0.202161,31,0.0170399,10,-5.94036e-05,-3.6943,-0.00310089,-19.0268,87.3248,0.293842,
2,0,0,1,0,60261.8,0.286701,0.286321,-0.528472,31,0.0169623,10,-0.000151313,-3.27698,-0.0482383,-1.2231,25.1748,0.286321,
2,0,0,1,0,60261.9,0.279212,0.278853,-0.674879,31,0.0168448,10,-0.000188192,-3.17077,-0.106888,-0.551981,14.6051,0.278853,
2,0,0,1,0,60262.1,0.271725,0.271392,-0.777067,31,0.0167052,10,-0.00021089,-3.10954,-0.143602,-0.410857,12.4047,0.271392,
2,0,0,1,0,60262.3,0.264228,0.263914,-0.853289,31,0.0165493,10,-0.000225195,-3.0689,-0.216532,-0.272477,9.07491,0.263914,
2,0,0,1,0,60262.5,0.256741,0.256337,-0.91872,31,0.0163806,10,-0.000235502,-3.03682,-0.281332,-0.209716,7.49,0.256337,
2,0,0,1,0,60262.7,0.249248,0.248877,-0.974275,31,0.0162007,10,-0.000242475,-3.01132,-0.349532,-0.168797,6.39418,0.248877,
2,0,0,1,0,60262.9,0.241756,0.241409,-1.02013,31,0.0160106,10,-0.00024627,-2.99134,-0.366648,-0.160917,6.45176,0.241409,
2,0,0,1,0,60263.1,0.234268,0.233943,-1.07043,31,0.0158117,10,-0.000250419,-2.97044,-0.367712,-0.160452,6.71042,0.233943,
2,0,0,1,0,60263.3,0.226772,0.226405,-1.11623,31,0.0156038,10,-0.000252721,-2.95225,-0.378895,-0.155716,6.77084,0.226405,
2,0,0,1,0,60263.4,0.219284,0.218941,-1.1605,31,0.0153878,10,-0.000254081,-2.93535,-0.458002,-0.12882,5.83416,0.218941,
2,0,0,1,0,60263.6,0.211796,0.211461,-1.207,31,0.0151638,10,-0.000255234,-2.91829,-0.529278,-0.111473,5.21549,0.211461,
2,0,0,1,0,60263.8,0.204301,0.203929,-1.24552,31,0.0149312,10,-0.000253998,-2.90465,-0.860435,-0.06857,3.34238,0.203929,
2,0,0,1,0,60264,0.196812,0.196436,-1.28738,31,0.014691,10,-0.000252888,-2.89029,-0.483726,-0.12197,6.13731,0.196436,
2,0,0,1,0,60264.2,0.189321,0.18893,-1.33943,31,0.0144419,10,-0.00025306,-2.87308,-0.527081,-0.111937,5.84255,0.18893,
2,0,0,1,0,60264.4,0.181828,0.181488,-1.3884,31,0.0141839,10,-0.000251978,-2.85749,-0.41371,-0.142612,7.73799,0.181488,
2,0,0,1,0,60264.6,0.174341,0.173996,-1.44529,31,0.0139159,10,-0.000251475,-2.84004,-0.368435,-0.160137,9.04519,0.1739959,
2,0,0,1,0,60264.8,0.166848,0.166467,-1.52399,31,0.0136356,10,-0.000253695,-2.81702,-0.328027,-0.179863,10.6379,0.166467,
2,0,0,1,0,60264.9,0.159357,0.159044,-1.60956,31,0.0133401,10,-0.000255991,-2.79329,-0.271176,-0.217571,13.6997,0.159044,
2,0,0,1,0,60265.1,0.151868,0.151494,-1.74463,31,0.0130237,10,-0.000264301,-2.7583,-0.179221,-0.329202,22.4312,0.151494,
2,0,0,1,0,60265.3,0.144373,0.144022,-1.96205,31,0.0126749,10,-0.000282579,-2.70729,-0.119713,-0.492844,37.8825,0.144022,
2,0,0,1,0,60265.5,0.136884,0.136523,-2.3084,31,0.0122739,10,-0.000315148,-2.63669,-0.097518,-0.605017,54.631,0.136523,
2,0,0,1,0,60265.7,0.129393,0.129044,-2.76739,31,0.0117962,10,-0.000357115,-2.55793,-0.102785,-0.574012,61.8791,0.129044,
2,0,0,1,0,60265.9,0.1219,0.121522,-3.21372,31,0.0112321,10,-0.000390537,-2.49299,-0.136773,-0.431372,54.0507,0.1215218,
2,0,0,1,0,60266.1,0.114413,0.114079,-3.58923,31,0.0105905,10,-0.000409456,-2.445,-0.196384,-0.300432,42.0507,0.114079,
2,0,0,1,0,60266.3,0.10692,0.106551,-3.84094,31,0.00988932,10,-0.000409256,-2.41556,-0.393632,-0.149886,22.4416,0.106551,
2,0,0,1,0,60266.4,0.0994284,0.0990548,-3.93353,31,0.00915516,10,-0.000389635,-2.40522,-4.41545,-0.0133622,2.05114,0.0990548,
2,0,0,1,0,60266.6,0.0919401,0.0915523,-3.89153,31,0.00841801,10,-0.000356279,-2.40988,0.866123,0.0681196,-10.3329,0.0915523,
2,0,0,1,0,60266.8,0.0844447,0.0841315,-3.78678,31,0.00769566,10,-0.000318587,-2.42173,0.63322,0.0931745,-13.7542,0.0841315,
2,0,0,1,0,60267,0.0769565,0.0766409,-3.68767,31,0.00699378,10,-0.000282626,-2.43325,0.672548,0.0877261,-12.6298,0.0766409,
2,0,0,1,0,60267.2,0.0694682,0.0691193,-3.61087,31,0.00630771,10,-0.000249581,-2.44239,0.820098,0.0719427,-10.1361,0.0691193,
2,0,0,1,0,60267.4,0.0619728,0.0616023,-3.53294,31,0.00563489,10,-0.000217637,-2.45186,0.667345,0.08841,-12.1992,0.0616023,
2,0,0,1,0,60267.6,0.0544836,0.054132,-3.45001,31,0.00497822,10,-0.000186756,-2.46218,0.751704,0.0784883,-10.5633,0.054132,
2,0,0,1,0,60267.8,0.0469927,0.046669,-3.35485,31,0.00433789,10,-0.000156568,-2.47433,0.630513,0.0935746,-12.2379,0.046669,
2,0,0,1,0,60267.9,0.0394999,0.0391092,-3.25161,31,0.00371621,10,-0.000127168,-2.4879,0.531528,0.111001,-14.0814,0.0391092,
2,0,0,1,0,60268.1,0.0320125,0.0316899,-3.1368,31,0.00311522,10,-9.94048e-05,-2.50351,0.431558,0.136714,-16.7234,0.0316899,
2,0,0,1,0,60268.3,0.0245198,0.0242007,-3.01488,31,0.00253625,10,-7.29622e-05,-2.52073,0.445149,0.13254,-15.5935,0.0242007,
2,0,0,1,0,60268.5,0.0170289,0.0166552,-2.90322,31,0.00197911,10,-4.83538e-05,-2.53712,0.512771,0.115061,-13.0697,0.0166552,
2,0,0,1,0,60268.7,0.0095397,0.00918749,-2.81729,31,0.00144087,10,-2.58839e-05,-2.55017,0.653153,0.090331,-9.92608,0.00918749,
2,0,0,1,0,60268.9,0.00204518,0.00161579,-2.78444,31,0.000915992,10,-4.49907e-06,-2.55526,1.54919,0.0380845,-4.1042,0.00161579,
2,0,0,1,0,60268.9,0.000177222,-0.000200492,-2.75329,31,0.000785965,10,5.52014e-07,-2.56015, , , ,-0.000200492,