File: Figure_codes/Fig_3-5/rawdata_trumpetplot_data/after 10th/20221101_1-115_003_TrumpetPlot_ParaChange_from10_every3_14_CV_C01_21.csv
mode,ox/red,error,control changes,counter inc.,time/s,control/V,Ewe/V,<I>/mA,cycle number,(Q-Qo)/C,I Range,P/W,log(|I|),Tafel slope mV/dec,alpha_eff,dI/d(E-IR),E-IR/V,
2,1,0,1,0,42571.8,2.44065e-05,-0.000248974,33.6434,22,0.0000000E+000,10,-8.37633e-06,-1.4731, , , ,-0.000248974,
2,1,0,1,0,42571.9,0.0133084,0.0129223,37.4357,22,0.000469997,10,0.000483756,-1.42671,0.388317,0.151938,221.122,0.0129223,
2,1,0,1,0,42571.9,0.0273414,0.0270003,40.1466,22,0.00101411,10,0.00108397,-1.39635,0.526576,0.112045,175.115,0.0270003,
2,1,0,1,0,42571.9,0.0413245,0.0409711,42.3871,22,0.00159248,10,0.00173665,-1.37277,0.655159,0.0900545,148.754,0.0409711,
2,1,0,1,0,42571.9,0.0553076,0.0549484,44.3472,22,0.00219995,10,0.00243681,-1.35313,0.749257,0.0787447,136.225,0.0549484,
2,1,0,1,0,42571.9,0.0693407,0.0689606,46.1598,22,0.00283385,10,0.00318321,-1.33574,0.84341,0.0699541,125.921,0.0689606,
2,1,0,1,0,42571.9,0.0833238,0.0829272,47.856,22,0.00349225,10,0.00396856,-1.32006,0.902488,0.0653749,122.122,0.0829272,
2,1,0,1,0,42571.9,0.0973069,0.0969235,49.6117,22,0.00417459,10,0.00480853,-1.30442,0.879862,0.0670559,129.858,0.0969235,
2,1,0,1,0,42572,0.11134,0.110928,51.4058,22,0.00488198,10,0.00570236,-1.28899,0.891561,0.066176,132.827,0.110928,
2,1,0,1,0,42572,0.125323,0.124918,53.3502,22,0.00561506,10,0.00666441,-1.27286,0.85363,0.0691166,143.886,0.124918,
2,1,0,1,0,42572,0.139306,0.138969,55.4171,22,0.00637644,10,0.00770124,-1.25636,0.816452,0.0722639,156.41,0.138969,
2,1,0,1,0,42572,0.153339,0.152945,57.713,22,0.00716836,10,0.00882691,-1.23873,0.788368,0.0748381,168.61,0.152945,
2,1,0,1,0,42572,0.167322,0.16694,60.1156,22,0.00799343,10,0.0100357,-1.22101,0.811185,0.0727331,170.601,0.16694,
2,1,0,1,0,42572,0.181305,0.180961,62.4222,22,0.00885175,10,0.011296,-1.20466,0.924382,0.0638264,155.366,0.1809607,
2,1,0,1,0,42572,0.195338,0.19494,64.4083,22,0.0097403,10,0.0125558,-1.19106,1.26124,0.0467793,117.37,0.19494,
2,1,0,1,0,42572.1,0.209322,0.208956,65.6752,22,0.0106519,10,0.0137233,-1.1826,2.58105,0.022859,58.4481,0.208956,
2,1,0,1,0,42572.1,0.223305,0.222956,65.9954,22,0.0115749,10,0.0147141,-1.18049,-12.0221,-0.00490763,-12.6112,0.222956,
2,1,0,1,0,42572.1,0.237338,0.23701,65.2992,22,0.0124952,10,0.0154765,-1.18509,-1.65976,-0.0355474,-90.3517,0.23701,
2,1,0,1,0,42572.1,0.251321,0.250951,63.5169,22,0.0133979,10,0.0159396,-1.19711,-0.90294,-0.0653421,-161.559,0.250951,
2,1,0,1,0,42572.1,0.265304,0.265014,60.7985,22,0.0142688,10,0.0161124,-1.21611,-0.641085,-0.0920315,-217.976,0.265014,
2,1,0,1,0,42572.1,0.279337,0.279064,57.4412,22,0.0150969,10,0.0160298,-1.24078,-0.515636,-0.114422,-256.209,0.279064,
2,1,0,1,0,42572.1,0.29332,0.293042,53.7886,22,0.0158751,10,0.0157623,-1.26931,-0.477965,-0.12344,-260.071,0.293042,
2,1,0,1,0,42572.1,0.298714,0.298569,49.1761,22,0.0162943,10,0.0146825,-1.30825,0.054335,1.08586,1874.25,0.298569,
2,1,0,1,0,42572.2,0.28473,0.2845,30.2737,22,0.0168346,10,0.00861288,-1.51893,0.0668183,0.882992,1048.7,0.2845,
2,1,0,1,0,42572.2,0.270747,0.270497,18.0656,22,0.0171673,10,0.00488669,-1.74315,0.0551088,1.07061,747.665,0.2704972,
2,1,0,1,0,42572.2,0.256714,0.256464,8.97678,22,0.0173527,10,0.00230222,-2.04688,0.034648,1.70284,566.372,0.256464,
2,1,0,1,0,42572.2,0.242731,0.242405,1.984,22,0.0174268,10,0.000480931,-2.70246,0.0249903,2.36091,444.441,0.242405,
2,0,0,1,0,42572.2,0.228748,0.228471,-3.55107,22,0.0174139,10,-0.000811317,-2.44964,-0.0151201,-3.9021,355.458,0.228471,
2,0,0,1,0,42572.2,0.214715,0.214415,-8.05668,22,0.0173309,10,-0.00172748,-2.09384,-0.0612196,-0.963743,289.757,0.214415,
2,0,0,1,0,42572.2,0.200732,0.200455,-11.7669,22,0.017191,10,-0.00235874,-1.92934,-0.108675,-0.542904,245.175,0.200455,
2,0,0,1,0,42572.3,0.186735,0.186475,-14.9535,22,0.0170031,10,-0.00278844,-1.82526,-0.158967,-0.371146,214.878,0.186475,
2,0,0,1,0,42572.3,0.172716,0.172428,-17.7956,22,0.0167732,10,-0.00306845,-1.74969,-0.210008,-0.280941,194.282,0.172428,
2,0,0,1,0,42572.3,0.158733,0.158414,-20.4653,22,0.0165051,10,-0.003242,-1.68898,-0.241667,-0.244137,194.903,0.158414,
2,0,0,1,0,42572.3,0.144719,0.14444,-23.3186,22,0.0161988,10,-0.00336814,-1.6323,-0.245102,-0.240716,219.458,0.14444,
2,0,0,1,0,42572.3,0.130717,0.130429,-26.6833,22,0.0158491,10,-0.00348028,-1.57376,-0.230484,-0.255984,267.359,0.130429,
2,0,0,1,0,42572.3,0.116733,0.116428,-30.8769,22,0.0154469,10,-0.00359492,-1.51037,-0.216143,-0.272967,329.368,0.116428,
2,0,0,1,0,42572.3,0.102703,0.10242,-35.8062,22,0.0149804,10,-0.00366725,-1.44604,-0.229657,-0.256905,357.952,0.10242,
2,0,0,1,0,42572.4,0.0887173,0.0884169,-40.7377,22,0.014444,10,-0.0036019,-1.39,-0.272705,-0.216351,342.782,0.0884169,
2,0,0,1,0,42572.4,0.0747342,0.074463,-45.2997,22,0.0138408,10,-0.00337316,-1.3439,-0.346201,-0.170421,299.965,0.074463,
2,0,0,1,0,42572.4,0.0607011,0.0604593,-49.2102,22,0.0131786,10,-0.00297521,-1.30795,-0.445541,-0.132423,253.349,0.0604593,
2,0,0,1,0,42572.4,0.046718,0.0464662,-52.2976,22,0.0124668,10,-0.00243007,-1.28152,-0.616846,-0.0956478,194.703,0.0464662,
2,0,0,1,0,42572.4,0.0327349,0.0325303,-54.6741,22,0.0117172,10,-0.00177857,-1.26222,-0.832318,-0.0708864,150.991,0.0325303,
2,0,0,1,0,42572.4,0.0187018,0.018376,-56.5728,22,0.0109379,10,-0.00103958,-1.24739,-1.16049,-0.0508407,111.964,0.018376,
2,0,0,1,0,42572.4,0.00471873,0.00441151,-57.7936,22,0.0101366,10,-0.000254957,-1.23812,-1.8497,-0.0318971,71.8802,0.00441151,
2,0,0,1,0,42572.5,-0.00926438,-0.0095901,-58.5707,22,0.00932117,10,0.000561698,-1.23232,-3.93357,-0.0149991,34.238,-0.0095901,
2,0,0,1,0,42572.5,-0.0232974,-0.0237052,-58.8616,22,0.00849883,10,0.00139532,-1.23017,-35.0664,-0.00168252,3.85787,-0.0237052,
2,0,0,1,0,42572.5,-0.0372805,-0.0376368,-58.6444,22,0.00767588,10,0.00220719,-1.23177,4.94771,0.0119247,-27.2709,-0.0376368,
2,0,0,1,0,42572.5,-0.0512637,-0.0516236,-58.1244,22,0.00685826,10,0.00300059,-1.23564,2.9382,0.0200803,-45.5261,-0.0516236,
2,0,0,1,0,42572.5,-0.0652967,-0.0656358,-57.48,22,0.0060492,10,0.00377274,-1.24048,2.67563,0.0220509,-49.43,-0.0656358,
2,0,0,1,0,42572.5,-0.0792798,-0.079648,-56.7394,22,0.0052498,10,0.00451918,-1.24612,2.69191,0.0219175,-48.5583,-0.07964801,
2,0,0,1,0,42572.5,-0.0932629,-0.0936358,-56.1247,22,0.00445986,10,0.00525529,-1.25085,3.36248,0.0175466,-38.4562,-0.0936358,
2,0,0,1,0,42572.6,-0.107296,-0.107627,-55.7297,22,0.00367726,10,0.00599802,-1.25391,5.73814,0.0102821,-22.3614,-0.107627,
2,0,0,1,0,42572.6,-0.121279,-0.12166,-55.4716,22,0.00289921,10,0.00674869,-1.25593,13.2138,0.00446504,-9.67287,-0.12166,
2,0,0,1,0,42572.6,-0.135262,-0.135642,-55.4322,22,0.0021231,10,0.00751892,-1.25624,-27.6904,-0.0021307,4.61267,-0.135642,
2,0,0,1,0,42572.6,-0.149295,-0.14968,-55.6398,22,0.00134583,10,0.00832819,-1.25461,-6.84079,-0.00862474,18.726,-0.14968,
2,0,0,1,0,42572.6,-0.163278,-0.163638,-55.9246,22,0.000565067,10,0.00915136,-1.2524,-5.09639,-0.0115768,25.2737,-0.163638,
2,0,0,1,0,42572.6,-0.177261,-0.177604,-56.3026,22,-0.000220577,10,0.00999957,-1.24947,-4.54366,-0.0129851,28.5419,-0.177604,
2,0,0,1,0,42572.6,-0.191295,-0.191648,-56.7673,22,-0.00101204,10,0.0108794,-1.2459,-4.21853,-0.0139859,30.9634,-0.1916482,
2,0,0,0,1,42572.6,-0.199984,-0.200532,-56.6553,22,-0.00154093,10,0.0113612,-1.24676,-0.0409455,-1.44094,2832.04,-0.200532,
2,0,0,1,1,42572.7,-0.186686,-0.187116,-37.521,22,-0.00213551,10,0.00702078,-1.42573,-0.0837651,-0.704351,1044.96,-0.187116,
2,0,0,1,1,42572.7,-0.172667,-0.173142,-25.6274,22,-0.0025717,10,0.00443718,-1.5913,-0.079904,-0.738386,737.542,-0.173142,
2,0,0,1,1,42572.7,-0.158684,-0.159162,-16.4774,22,-0.00286324,10,0.00262257,-1.78311,-0.0631791,-0.933854,592.769,-0.159162,
2,0,0,1,1,42572.7,-0.14467,-0.145114,-8.82095,22,-0.00303841,10,0.00128005,-2.05448,-0.0378853,-1.55733,507.703,-0.145114,
2,0,0,1,1,42572.7,-0.130668,-0.131055,-2.21395,22,-0.00311393,10,0.000290151,-2.65483,-0.0233318,-2.52874,446.197,-0.131055,
2,1,0,1,1,42572.7,-0.116685,-0.117162,3.6628,22,-0.00310246,10,-0.000429142,-2.43619,0.0127751,4.61835,401.011,-0.117162,
2,1,0,1,1,42572.7,-0.102654,-0.103168,9.05621,22,-0.00301263,10,-0.00093431,-2.04305,0.0538914,1.09479,368.575,-0.103168,
2,1,0,1,1,42572.8,-0.0886685,-0.0891546,13.9693,22,-0.00285052,10,-0.00124543,-1.85482,0.0934663,0.631243,338.241,-0.0891546,
2,1,0,1,1,42572.8,-0.0746854,-0.0751328,18.5107,22,-0.00262225,10,-0.00139076,-1.73258,0.135992,0.43385,310.498,-0.0751328,
2,1,0,1,1,42572.8,-0.0606523,-0.0610813,22.7358,22,-0.00233299,10,-0.00138873,-1.64329,0.180612,0.326667,287.635,-0.0610813,
2,1,0,1,1,42572.8,-0.0466692,-0.0471052,26.5494,22,-0.00198742,10,-0.00125062,-1.57594,0.232285,0.253998,261.994,-0.0471052,
2,1,0,1,1,42572.8,-0.0326861,-0.0330675,30.0351,22,-0.00159062,10,-0.000993186,-1.52237,0.288527,0.204487,239.027,-0.03306751,
2,1,0,1,1,42572.8,-0.018653,-0.0190882,33.2641,22,-0.001147,10,-0.000634952,-1.47802,0.352522,0.167365,216.514,-0.0190882,
2,1,0,1,1,42572.8,-0.00466992,-0.0050961,36.1044,22,-0.000660871,10,-0.000183991,-1.44244, , , ,-0.0050961,
2,1,0,0,1,42572.8,-0.000175352,-0.000516197,36.9488,22,-0.000496483,10,-1.90729e-05,-1.4324, , , ,-0.000516197,