File: Figure_codes/Fig_3-5/rawdata_trumpetplot_data/after 10th/20221101_1-115_003_TrumpetPlot_ParaChange_from10_every3_02_CV_C01_26.csv
mode,ox/red,error,control changes,counter inc.,time/s,control/V,Ewe/V,<I>/mA,cycle number,(Q-Qo)/C,I Range,P/W,log(|I|),Tafel slope mV/dec,alpha_eff,dI/d(E-IR),E-IR/V,
2,0,0,1,0,51563.4,2.44065e-05,-0.000516197,-0.400873,27,0.0000000E+000,10,2.06929e-07,-3.39699, , , ,-0.000516197,
2,0,0,1,0,51570.7,0.00729061,0.00694904,-0.0968583,27,-0.000979988,10,-6.73072e-07,-4.01386,-0.029987,-1.96752,7.52308,0.00694904,
2,0,0,1,0,51578.2,0.0147815,0.0144196,-0.0595742,27,-0.00147565,10,-8.59034e-07,-4.22494,-0.0390409,-1.51124,3.51024,0.0144196,
2,0,0,1,0,51585.7,0.0222725,0.0219464,-0.0385677,27,-0.00176611,10,-8.46421e-07,-4.41378,-0.039537,-1.49227,2.25735,0.0219464,
2,0,0,1,0,51593.2,0.0297635,0.0294191,-0.0229239,27,-0.0019247,10,-6.744e-07,-4.63971,-0.0296614,-1.98912,1.78345,0.0294191,
2,0,0,1,0,51600.7,0.0372544,0.0369236,-0.0107901,27,-0.00197573,10,-3.98409e-07,-4.96697,-0.0141309,-4.17525,1.62446,0.0369236,
2,0,0,1,0,51608.1,0.0447454,0.0444027,0.00121444,27,-0.00193561,10,5.39244e-08,-5.91562,0.0146358,4.03121,1.49552,0.0444027,
2,0,0,1,0,51615.6,0.0522363,0.0518817,0.0108378,27,-0.00181208,10,5.62283e-07,-4.96506,0.0189839,3.10789,1.33797,0.0518817,
2,1,0,1,0,51623.1,0.0597273,0.0594053,0.020355,27,-0.00161736,10,1.2092e-06,-4.69133,0.0383302,1.53925,1.20876,0.0594053,
2,1,0,1,0,51630.6,0.0672183,0.0669395,0.0286892,27,-0.00135672,10,1.92044e-06,-4.54228,0.0618536,0.953866,1.04275,0.06693951,
2,1,0,1,0,51638.1,0.0747092,0.0743453,0.0352493,27,-0.00103992,10,2.62062e-06,-4.45285,0.0775135,0.761158,1.06296,0.0743453,
2,1,0,1,0,51645.6,0.0822001,0.0818561,0.0428904,27,-0.000666136,10,3.51084e-06,-4.36764,0.0972715,0.606549,1.0173,0.0818561,
2,1,0,1,0,51653.1,0.0896911,0.0893861,0.0514158,27,-0.000235079,10,4.59586e-06,-4.2889,0.103709,0.568899,1.14557,0.0893861,
2,1,0,1,0,51660.6,0.0971821,0.0968282,0.0608582,27,0.00026425,10,5.89279e-06,-4.21568,0.0901885,0.654186,1.54563,0.0968282,
2,1,0,1,0,51668.1,0.104673,0.104322,0.071588,27,0.000838464,10,7.46821e-06,-4.14516,0.120777,0.488503,1.35829,0.104322,
2,1,0,1,0,51675.6,0.112164,0.111843,0.0807364,27,0.00148767,10,9.02983e-06,-4.09293,0.180698,0.326512,1.02233,0.111843,
2,1,0,1,0,51683.1,0.119655,0.119321,0.088756,27,0.00220123,10,1.05905e-05,-4.0518,0.247779,0.238116,0.823077,0.119321,
2,1,0,1,0,51690.5,0.127146,0.126793,0.0937427,27,0.00296925,10,1.18859e-05,-4.02806,0.621804,0.0948852,0.348622,0.126793,
2,1,0,1,0,51698,0.134637,0.134255,0.092665,27,0.0037551,10,1.24407e-05,-4.03308,-0.203461,-0.289982,-1.04345,0.134255,
2,1,0,1,0,51705.5,0.142128,0.141796,0.0777713,27,0.00447613,10,1.10276e-05,-4.10918,-0.0691659,-0.853021,-2.57135,0.141796,
2,1,0,1,0,51713,0.149619,0.14928,0.0610372,27,0.00506493,10,9.11162e-06,-4.21441,-0.086521,-0.681916,-1.62987,0.14928,
2,1,0,1,0,51720.5,0.15711,0.156762,0.0532667,27,0.00556074,10,8.3502e-06,-4.27354,-0.150171,-0.392885,-0.814679,0.156762,
2,1,0,1,0,51728,0.164601,0.164279,0.0508828,27,0.00602059,10,8.35901e-06,-4.29343,-1.12434,-0.0524752,-0.1044,0.164279,
2,1,0,1,0,51735.5,0.172091,0.171753,0.0501361,27,0.0064698,10,8.61104e-06,-4.29985,-5.37362,-0.0109796,-0.0216486,0.171753,
2,1,0,1,0,51743,0.179582,0.179249,0.0507297,27,0.006916,10,9.09326e-06,-4.29474,1.47895,0.0398932,0.0789099,0.179249,
2,1,0,1,0,51750.5,0.187073,0.18674,0.051354,27,0.00736623,10,9.58985e-06,-4.28943,-8.42424,-0.0070036,-0.0139809,0.18674,
2,1,0,1,0,51758,0.194564,0.194245,0.0516229,27,0.00781789,10,1.00275e-05,-4.28716,0.577182,0.102221,0.205711,0.1942455,
2,1,0,1,0,51765.5,0.202055,0.201705,0.0524784,27,0.00827513,10,1.05852e-05,-4.28002,0.7,0.0842858,0.171962,0.201705,
2,1,0,1,0,51772.9,0.209546,0.209222,0.053561,27,0.00873894,10,1.12061e-05,-4.27115,0.603268,0.0978007,0.204966,0.209222,
2,1,0,1,0,51780.4,0.217037,0.216686,0.0542201,27,0.00920903,10,1.17487e-05,-4.26584,1.63837,0.0360115,0.0769606,0.216686,
2,1,0,1,0,51787.9,0.224528,0.224181,0.0555464,27,0.00968619,10,1.24524e-05,-4.25534,-3.41611,-0.0172711,-0.0373457,0.2241808,
2,1,0,1,0,51795.4,0.232019,0.23171,0.0563154,27,0.010169,10,1.30488e-05,-4.24937,0.475989,0.123952,0.273665,0.23171,
2,1,0,1,0,51802.9,0.23951,0.239175,0.0576938,27,0.010661,10,1.37989e-05,-4.23887,0.865141,0.068197,0.153643,0.239175,
2,1,0,1,0,51810.4,0.247001,0.246654,0.0584396,27,0.0111584,10,1.44143e-05,-4.23329,7.52378,0.0078418,0.0177647,0.246654,
2,1,0,1,0,51817.9,0.254492,0.254136,0.059116,27,0.0116597,10,1.50235e-05,-4.22829,-3.723,-0.0158474,-0.0364741,0.254136,
2,1,0,1,0,51825.4,0.261983,0.261643,0.0600242,27,0.0121655,10,1.57049e-05,-4.22167,5.17793,0.0113945,0.0267144,0.261643,
2,1,0,1,0,51832.9,0.269474,0.269137,0.0610398,27,0.012679,10,1.64281e-05,-4.21439,1.87225,0.0315129,0.0750931,0.269137,
2,1,0,1,0,51840.4,0.276965,0.276638,0.0617075,27,0.0131991,10,1.70706e-05,-4.20966,1.26581,0.0466103,0.112262,0.276638,
2,1,0,1,0,51847.9,0.284456,0.284099,0.06256,27,0.0137231,10,1.77732e-05,-4.2037,1.03424,0.0570469,0.138921,0.2840991,
2,1,0,1,0,51855.3,0.291947,0.291623,0.0629847,27,0.0142515,10,1.83678e-05,-4.20076,1.27973,0.0461035,0.113523,0.291623,
2,1,0,1,0,51862.8,0.299438,0.299075,0.0637942,27,0.0147866,10,1.90793e-05,-4.19522,-0.00406334,-14.5201,-22.9874,0.299075,
2,1,0,1,0,51869.7,0.293745,0.293377,0.00778886,27,0.0148777,10,2.28507e-06,-5.10853,0.0109317,5.39713,1.63964,0.293377,
2,1,0,1,0,51877.2,0.286254,0.285909,-0.00071483,27,0.0148427,10,-2.04376e-07,-6.1458,-0.0128473,-4.5924,0.965402,0.285909,
2,1,0,1,0,51884.7,0.278763,0.278414,-0.00664298,27,0.0147559,10,-1.8495e-06,-5.17764,-0.027163,-2.17207,0.554194,0.278414,
2,0,0,1,0,51892.1,0.271272,0.27093,-0.0107951,27,0.0146303,10,-2.92472e-06,-4.96677,-0.0608217,-0.970048,0.419436,0.27093,
2,0,0,1,0,51899.6,0.263781,0.263476,-0.0147369,27,0.0144743,10,-3.88282e-06,-4.83159,-0.057117,-1.03297,0.599973,0.263476,
2,0,0,1,0,51907.1,0.25629,0.255932,-0.0183425,27,0.0142895,10,-4.69444e-06,-4.73654,-0.101348,-0.582151,0.410985,0.255932,
2,0,0,1,0,51914.6,0.248799,0.248417,-0.0211835,27,0.0140796,10,-5.26235e-06,-4.674,-0.113981,-0.517631,0.435981,0.248417,
2,0,0,1,0,51922.1,0.241308,0.24096,-0.0246949,27,0.0138444,10,-5.95047e-06,-4.60739,-0.180103,-0.32759,0.312512,0.24096,
2,0,0,1,0,51929.6,0.233817,0.233455,-0.027065,27,0.0135875,10,-6.31846e-06,-4.56759,-0.145567,-0.405313,0.430422,0.233455,
2,0,0,1,0,51937.1,0.226326,0.225992,-0.0299511,27,0.0133078,10,-6.7687e-06,-4.52359,-0.226183,-0.260851,0.307025,0.225992,
2,0,0,1,0,51944.6,0.218835,0.218511,-0.0328185,27,0.013008,10,-7.1712e-06,-4.48388,-0.230217,-0.25628,0.330717,0.218511,
2,0,0,1,0,51952.1,0.211344,0.210995,-0.0352452,27,0.0126871,10,-7.43654e-06,-4.4529,-0.252268,-0.233878,0.323743,0.210995,
2,0,0,1,0,51959.6,0.203853,0.203519,-0.0380942,27,0.0123449,10,-7.75288e-06,-4.41914,-0.234253,-0.251865,0.378433,0.203519,
2,0,0,1,0,51967.1,0.196362,0.196016,-0.0415322,27,0.0119786,10,-8.14099e-06,-4.38161,-0.237467,-0.248456,0.399296,0.196016,
2,0,0,1,0,51974.5,0.188871,0.188518,-0.044258,27,0.011591,10,-8.34344e-06,-4.35401,-0.204312,-0.288775,0.499296,0.188518,
2,0,0,1,0,51982,0.18138,0.18108,-0.0472988,27,0.0111805,10,-8.56488e-06,-4.32515,-0.280029,-0.210693,0.387994,0.18108,
2,0,0,1,0,51989.5,0.173889,0.173505,-0.0514562,27,0.0107431,10,-8.92791e-06,-4.28856,-0.162057,-0.36407,0.730266,0.173505,
2,0,0,1,0,51997,0.166398,0.166031,-0.0555664,27,0.0102706,10,-9.22576e-06,-4.25519,-0.254115,-0.232179,0.509835,0.166031,
2,0,0,1,0,52004.5,0.158907,0.158575,-0.0616513,27,0.00975883,10,-9.77638e-06,-4.21006,-0.15924,-0.370511,0.897738,0.158575,
2,0,0,1,0,52012,0.151417,0.151077,-0.0706041,27,0.00918918,10,-1.06667e-05,-4.15117,-0.119936,-0.491929,1.36576,0.151077,
2,0,0,1,0,52019.5,0.143926,0.143585,-0.0835551,27,0.00853712,10,-1.19972e-05,-4.07803,-0.0874447,-0.674712,2.20667,0.143585,
2,0,0,1,0,52027,0.136435,0.136043,-0.103724,27,0.0077587,10,-1.41109e-05,-3.98412,-0.0799132,-0.738301,2.99189,0.136043,
2,0,0,1,0,52034.5,0.128944,0.128604,-0.124678,27,0.00681901,10,-1.60342e-05,-3.90421,-0.136591,-0.431945,2.09315,0.128604,
2,0,0,1,0,52042,0.121453,0.121133,-0.136274,27,0.0057533,10,-1.65072e-05,-3.86559,-0.440117,-0.134055,0.709768,0.121133,
2,0,0,1,0,52049.5,0.113962,0.113592,-0.137363,27,0.00464082,10,-1.56033e-05,-3.86213,-2.25801,-0.0261293,0.141135,0.113592,
2,0,0,1,0,52056.9,0.106471,0.106124,-0.138506,27,0.00352099,10,-1.46987e-05,-3.85853,-5.83087,-0.0101186,0.0548661,0.1061236,
2,0,0,1,0,52064.4,0.0989798,0.0986572,-0.137183,27,0.00240637,10,-1.35341e-05,-3.8627,4.00415,0.0147347,-0.0787494,0.0986572,
2,0,0,1,0,52071.9,0.0914889,0.0911602,-0.133863,27,0.00131033,10,-1.22029e-05,-3.87334,0.480127,0.122884,-0.642184,0.0911602,
2,0,0,1,0,52079.4,0.083998,0.0836727,-0.129525,27,0.000245699,10,-1.08377e-05,-3.88765,0.447888,0.131729,-0.664451,0.0836727,
2,0,0,1,0,52086.9,0.076507,0.0761342,-0.125071,27,-0.000787364,10,-9.52215e-06,-3.90285,0.563582,0.104687,-0.511317,0.0761342,
2,0,0,1,0,52094.4,0.069016,0.0686976,-0.12165,27,-0.00178987,10,-8.35705e-06,-3.91489,0.981421,0.0601169,-0.28621,0.0686976,
2,0,0,1,0,52101.9,0.0615251,0.0612027,-0.118829,27,-0.00277109,10,-7.27267e-06,-3.92508,0.714056,0.0826266,-0.384008,0.0612027,
2,0,0,1,0,52109.4,0.0540342,0.0537258,-0.11611,27,-0.00372911,10,-6.23809e-06,-3.93513,1.44705,0.0407725,-0.184152,0.0537258,
2,0,0,1,0,52116.9,0.0465432,0.0461979,-0.112912,27,-0.00466566,10,-5.21631e-06,-3.94726,0.658407,0.0896103,-0.396481,0.0461979,
2,0,0,1,0,52124.4,0.0390522,0.0387061,-0.110687,27,-0.00557941,10,-4.28426e-06,-3.9559,0.901266,0.0654635,-0.281819,0.0387061,
2,0,0,1,0,52131.9,0.0315613,0.0312377,-0.107561,27,-0.00647219,10,-3.35995e-06,-3.96835,0.920539,0.0640929,-0.26893,0.0312377,
2,0,0,1,0,52139.4,0.0240703,0.0237396,-0.106113,27,-0.00734738,10,-2.51909e-06,-3.97423,7.34426,0.00803349,-0.033341,0.0237396,
2,0,0,1,0,52146.8,0.0165794,0.0162447,-0.105576,27,-0.00821438,10,-1.71505e-06,-3.97643,19.0434,0.00309819,-0.0127718,0.0162447,
2,0,0,1,0,52154.3,0.00908843,0.00874222,-0.10659,27,-0.00908138,10,-9.31836e-07,-3.97228,-1.06182,-0.0555647,0.23131,0.00874222,
2,0,0,1,0,52161.8,0.00159744,0.00118572,-0.110371,27,-0.00996589,10,-1.30869e-07,-3.95715, , , ,0.00118572,
2,0,0,1,0,52163.2,0.000199235,-0.000180243,-0.110619,27,-0.0101337,10,1.99383e-08,-3.95617, , , ,-0.000180243,