File: Figure_codes/Fig_3-5/rawdata_trumpetplot_data/after 10th/20221101_1-115_003_TrumpetPlot_ParaChange_from10_every3_07_CV_C01_12.csv
mode,ox/red,error,control changes,counter inc.,time/s,control/V,Ewe/V,<I>/mA,cycle number,(Q-Qo)/C,I Range,P/W,log(|I|),Tafel slope mV/dec,alpha_eff,dI/d(E-IR),E-IR/V,
2,0,0,0,0,24806.6,2.44065e-05,-0.00042076,-2.72811,13,0.0000000E+000,10,1.14788e-06,-2.56414, , , ,-0.00042076,
2,1,0,1,0,24806.7,0.007288,0.0069585,1.33687,13,8.94877e-06,10,9.30258e-06,-2.87391,0.0153044,3.85509,185.495,0.0069585,
2,1,0,1,0,24806.8,0.0147816,0.0144627,2.11452,13,0.000235524,10,3.05816e-05,-2.67479,0.0735545,0.802126,65.9925,0.0144627,
2,1,0,1,0,24807,0.0222712,0.0219803,2.49534,13,0.000526945,10,5.48482e-05,-2.60287,0.140907,0.418717,40.6747,0.0219803,
2,1,0,1,0,24807.1,0.0297648,0.0294368,2.78483,13,0.00085831,10,8.19764e-05,-2.5552,0.180493,0.326882,35.327,0.0294368,
2,1,0,1,0,24807.2,0.0372518,0.0368992,3.04629,13,0.00122389,10,0.000112406,-2.51623,0.189308,0.311661,36.9913,0.0368992,
2,1,0,1,0,24807.3,0.0447467,0.0444383,3.30144,13,0.00162265,10,0.00014671,-2.4813,0.213356,0.276533,35.698,0.0444383,
2,1,0,1,0,24807.5,0.052235,0.0518968,3.55427,13,0.00205317,10,0.000184455,-2.44925,0.260605,0.226396,31.4554,0.0518968,
2,1,0,1,0,24807.6,0.0597299,0.0593695,3.79473,13,0.00251457,10,0.000225291,-2.42082,0.282441,0.208893,30.9041,0.0593695,
2,1,0,1,0,24807.7,0.0672156,0.06691,4.01728,13,0.00300392,10,0.000268796,-2.39607,0.295595,0.199597,31.2261,0.06691,
2,1,0,1,0,24807.8,0.0747105,0.0744206,4.20402,13,0.00351955,10,0.000312866,-2.37633,0.390684,0.151017,24.7893,0.0744206,
2,1,0,1,0,24808,0.0821988,0.0818956,4.37344,13,0.00405729,10,0.000358165,-2.35918,0.527732,0.111799,19.0842,0.0818956,
2,1,0,1,0,24808.1,0.0896937,0.0893815,4.53509,13,0.00461521,10,0.000405353,-2.34341,0.473846,0.124513,22.0259,0.0893815,
2,1,0,1,0,24808.2,0.0971794,0.0968447,4.73762,13,0.00519533,10,0.000458813,-2.32444,0.3006,0.196274,36.3104,0.0968447,
2,1,0,1,0,24808.3,0.104674,0.104317,5.0611,13,0.00580796,10,0.000527959,-2.29576,0.221907,0.265877,52.5449,0.104317,
2,1,0,1,0,24808.5,0.112163,0.111827,5.46562,13,0.00646642,10,0.000611206,-2.26236,0.232427,0.253843,54.1163,0.111827,
2,1,0,1,0,24808.6,0.119657,0.119349,5.86257,13,0.00717642,10,0.000699694,-2.23191,0.321561,0.18348,41.898,0.119349,
2,1,0,1,0,24808.7,0.127143,0.126827,6.13046,13,0.00792782,10,0.000777506,-2.21251,0.438832,0.134448,32.1725,0.1268266,
2,1,0,1,0,24808.8,0.134638,0.134356,6.32614,13,0.00870898,10,0.000849955,-2.19886,0.713362,0.082707,20.4368,0.134356,
2,1,0,1,0,24809,0.142126,0.141785,6.40677,13,0.00950811,10,0.000908386,-2.19336,-2.81759,-0.0209399,-5.22789,0.1417854,
2,1,0,1,0,24809.1,0.149621,0.149309,6.09758,13,0.0102973,10,0.000910426,-2.21484,-0.166032,-0.355353,-84.1488,0.149309,
2,1,0,1,0,24809.2,0.157107,0.156772,5.20655,13,0.0110089,10,0.000816241,-2.28345,-0.0861385,-0.684943,-138.847,0.156772,
2,1,0,1,0,24809.3,0.164602,0.164329,4.20566,13,0.0115962,10,0.000691114,-2.37617,-0.0858303,-0.687403,-113.153,0.164329,
2,1,0,1,0,24809.5,0.17209,0.171806,3.52548,13,0.0120777,10,0.000605698,-2.45278,-0.120666,-0.488953,-67.6908,0.171806,
2,1,0,1,0,24809.6,0.179585,0.179246,3.14529,13,0.0124945,10,0.000563781,-2.50234,-0.172426,-0.342175,-42.0445,0.179246,
2,1,0,1,0,24809.7,0.187072,0.186805,2.90951,13,0.012873,10,0.000543511,-2.53618,-0.29099,-0.202756,-23.0245,0.186805,
2,1,0,1,0,24809.8,0.194566,0.194284,2.76399,13,0.0132286,10,0.000536999,-2.55846,-0.512194,-0.115191,-12.4477,0.1942843,
2,1,0,1,0,24809.9,0.202055,0.201747,2.66736,13,0.0135693,10,0.000538131,-2.57392,-0.500195,-0.117954,-12.2865,0.201747,
2,1,0,1,0,24810.1,0.209549,0.209238,2.60434,13,0.0139004,10,0.000544925,-2.5843,-0.553511,-0.106592,-10.8386,0.209238,
2,1,0,1,0,24810.2,0.217036,0.216722,2.55073,13,0.0142241,10,0.000552799,-2.59334,-1.34996,-0.0437049,-4.35429,0.216722,
2,1,0,1,0,24810.3,0.224529,0.224244,2.51317,13,0.0145428,10,0.000563564,-2.59978,-1.51809,-0.0388646,-3.82335,0.224244,
2,1,0,1,0,24810.4,0.232019,0.231731,2.48308,13,0.0148571,10,0.000575407,-2.60501,-1.59421,-0.037009,-3.6,0.231731,
2,1,0,1,0,24810.6,0.239513,0.239212,2.46567,13,0.0151683,10,0.000589818,-2.60807,-1.21057,-0.0487373,-4.68064,0.2392122,
2,1,0,1,0,24810.7,0.247001,0.24673,2.44649,13,0.0154763,10,0.000603624,-2.61146,-2.18188,-0.0270409,-2.57142,0.24673,
2,1,0,1,0,24810.8,0.254493,0.254168,2.41497,13,0.0157819,10,0.000613809,-2.61709,-2.68691,-0.0219583,-2.07833,0.254168,
2,1,0,1,0,24810.9,0.261983,0.261699,2.39714,13,0.0160848,10,0.000627328,-2.62031,-1.77842,-0.0331754,-3.11193,0.261699,
2,1,0,1,0,24811.1,0.269477,0.269191,2.38269,13,0.0163856,10,0.0006414,-2.62293,-1.88801,-0.0312499,-2.90521,0.269191,
2,1,0,1,0,24811.2,0.276965,0.276684,2.36644,13,0.0166839,10,0.000654758,-2.6259,-1.59072,-0.0370902,-3.41524,0.276684,
2,1,0,1,0,24811.3,0.284457,0.28418,2.34101,13,0.0169797,10,0.00066527,-2.6306,-2.7969,-0.0210948,-1.92875,0.2841804,
2,1,0,1,0,24811.4,0.291947,0.291638,2.31953,13,0.0172726,10,0.000676463,-2.6346,-1.2209,-0.0483249,-4.38027,0.2916376,
2,1,0,1,0,24811.6,0.29944,0.299133,2.29837,13,0.0175632,10,0.000687519,-2.63858,-0.00631068,-9.34923,-620.018,0.299133,
2,0,0,1,0,24811.7,0.293742,0.293454,-0.5289,13,0.0176053,10,-0.000155208,-3.27663,-0.00988544,-5.96837,100.861,0.293454,
2,0,0,1,0,24811.8,0.286254,0.285932,-0.905753,13,0.0175096,10,-0.000258984,-3.04299,-0.0636028,-0.927631,32.5498,0.285932,
2,0,0,1,0,24811.9,0.278761,0.278435,-1.08762,13,0.0173818,10,-0.00030283,-2.96352,-0.11986,-0.492239,21.0157,0.278435,
2,0,0,1,0,24812.1,0.271272,0.270948,-1.2209,13,0.0172348,10,-0.000330801,-2.91332,-0.18278,-0.322793,15.4298,0.2709485,
2,0,0,1,0,24812.2,0.263778,0.263427,-1.33241,13,0.017073,10,-0.000350994,-2.87536,-0.248105,-0.237803,12.2977,0.263427,
2,0,0,1,0,24812.3,0.25629,0.25594,-1.42006,13,0.0168992,10,-0.00036345,-2.84769,-0.301909,-0.195423,10.8076,0.25594,
2,0,0,1,0,24812.4,0.248797,0.24847,-1.49387,13,0.0167149,10,-0.000371183,-2.82569,-0.401543,-0.146933,8.60832,0.24847,
2,0,0,1,0,24812.6,0.241308,0.241023,-1.56491,13,0.0165213,10,-0.000377179,-2.80551,-0.475802,-0.124001,7.5883,0.241023,
2,0,0,1,0,24812.7,0.233814,0.233455,-1.63852,13,0.016319,10,-0.000382521,-2.78555,-0.454884,-0.129703,8.27781,0.233455,
2,0,0,1,0,24812.8,0.226326,0.226022,-1.70354,13,0.0161084,10,-0.000385037,-2.76865,-0.353298,-0.166998,11.0796,0.226022,
2,0,0,1,0,24812.9,0.218834,0.218488,-1.76493,13,0.0158897,10,-0.000385616,-2.75327,-0.41505,-0.142152,9.81566,0.218488,
2,0,0,1,0,24813.1,0.211344,0.211007,-1.82475,13,0.0156633,10,-0.000385034,-2.7388,-0.762693,-0.0773575,5.52669,0.211007,
2,0,0,1,0,24813.2,0.203856,0.203505,-1.89892,13,0.0154287,10,-0.000386438,-2.72149,-0.692835,-0.0851573,6.29777,0.203505,
2,0,0,1,0,24813.3,0.196362,0.196048,-1.95652,13,0.0151861,10,-0.000383573,-2.70851,-0.396449,-0.148821,11.3639,0.196048,
2,0,0,1,0,24813.4,0.18887,0.188565,-2.02557,13,0.0149345,10,-0.000381951,-2.69345,-0.363188,-0.16245,12.9059,0.188565,
2,0,0,1,0,24813.6,0.18138,0.181036,-2.11977,13,0.0146731,10,-0.000383756,-2.67371,-0.430276,-0.137121,11.3482,0.181036,
2,0,0,1,0,24813.7,0.173892,0.173542,-2.23233,13,0.0144,10,-0.000387403,-2.65124,-0.345886,-0.170576,14.8039,0.173542,
2,0,0,1,0,24813.8,0.166398,0.166064,-2.36401,13,0.0141119,10,-0.000392577,-2.62635,-0.243973,-0.24183,22.2804,0.166064,
2,0,0,1,0,24813.9,0.158905,0.158586,-2.54452,13,0.0138039,10,-0.000403525,-2.59439,-0.195329,-0.302054,30.1015,0.158586,
2,0,0,1,0,24814.1,0.151417,0.151095,-2.83593,13,0.0134664,10,-0.000428493,-2.54731,-0.137317,-0.429663,47.7861,0.1510946,
2,0,0,1,0,24814.2,0.143927,0.143628,-3.32299,13,0.0130821,10,-0.000477275,-2.47847,-0.0947835,-0.622471,80.7239,0.143628,
2,0,0,1,0,24814.3,0.136435,0.136091,-4.04375,13,0.0126224,10,-0.000550316,-2.39322,-0.0834835,-0.706726,111.335,0.136091,
2,0,0,1,0,24814.4,0.128941,0.128647,-4.87265,13,0.0120635,10,-0.000626854,-2.31223,-0.10002,-0.589881,112.147,0.128647,
2,0,0,1,0,24814.6,0.121453,0.121164,-5.61597,13,0.0114042,10,-0.000680452,-2.25058,-0.156797,-0.376284,82.416,0.1211639,
2,0,0,1,0,24814.7,0.113963,0.11365,-6.15138,13,0.0106648,10,-0.000699103,-2.21103,-0.266424,-0.221452,53.0555,0.11365,
2,0,0,1,0,24814.8,0.106471,0.106184,-6.43841,13,0.00987376,10,-0.000683659,-2.19122,-0.609692,-0.0967701,24.2759,0.1061844,
2,0,0,1,0,24814.9,0.0989825,0.0986577,-6.46267,13,0.00906358,10,-0.000637593,-2.18959,1.67761,0.035169,-8.86365,0.0986577,
2,0,0,1,0,24815.1,0.0914889,0.0911313,-6.26797,13,0.00826433,10,-0.000571208,-2.20287,0.421346,0.140028,-34.2726,0.0911313,
2,0,0,1,0,24815.2,0.0839993,0.0836506,-5.98726,13,0.0074974,10,-0.000500838,-2.22277,0.349139,0.168987,-39.4481,0.0836506,
2,0,0,1,0,24815.3,0.076507,0.0761719,-5.7499,13,0.00676377,10,-0.000437981,-2.24034,0.49909,0.118215,-26.5012,0.0761719,
2,0,0,1,0,24815.4,0.0690187,0.0687055,-5.56697,13,0.00605568,10,-0.000382481,-2.25438,0.656464,0.0898754,-19.5835,0.0687055,
2,0,0,1,0,24815.6,0.0615251,0.0612222,-5.42894,13,0.00536577,10,-0.000332372,-2.26528,0.597357,0.0987684,-20.9702,0.0612222,
2,0,0,1,0,24815.7,0.0540355,0.053741,-5.3022,13,0.00469385,10,-0.000284946,-2.27554,0.68878,0.0856588,-17.6941,0.053741,
2,0,0,1,0,24815.8,0.0465432,0.0462229,-5.14568,13,0.00403937,10,-0.000237848,-2.28856,0.651876,0.0905081,-18.1706,0.0462229,
2,0,0,1,0,24815.9,0.0390549,0.0387497,-4.97867,13,0.00340514,10,-0.000192922,-2.30289,0.492013,0.119916,-23.3035,0.0387497,
2,0,0,1,0,24816.1,0.0315613,0.0311786,-4.7954,13,0.00279234,10,-0.000149514,-2.31917,0.382322,0.15432,-28.8812,0.0311786,
2,0,0,1,0,24816.2,0.0240717,0.0237544,-4.58758,13,0.00220468,10,-0.000108975,-2.33842,0.383264,0.153941,-27.573,0.0237544,
2,0,0,1,0,24816.3,0.0165781,0.016197,-4.4009,13,0.00164162,10,-7.12814e-05,-2.35646,0.461299,0.1279,-21.9461,0.016197,
2,0,0,1,0,24816.4,0.00909108,0.00877983,-4.23264,13,0.00110102,10,-3.71618e-05,-2.37339,0.57661,0.102322,-16.9365,0.00877983,
2,0,0,1,0,24816.6,0.00159616,0.00123906,-4.16008,13,0.000576468,10,-5.1546e-06,-2.3809, , , ,0.00123906,
2,0,0,1,0,24816.6,0.000199195,-0.000157355,-4.13336,13,0.000479432,10,6.50406e-07,-2.3837, , , ,-0.000157355,