File: Figure_codes/Fig_3-5/rawdata_trumpetplot_data/after 10th/20221101_1-115_003_TrumpetPlot_ParaChange_from10_every3_09_CV_C01_21.csv
mode,ox/red,error,control changes,counter inc.,time/s,control/V,Ewe/V,<I>/mA,cycle number,(Q-Qo)/C,I Range,P/W,log(|I|),Tafel slope mV/dec,alpha_eff,dI/d(E-IR),E-IR/V,
2,0,0,0,0,42555.3,2.44065e-05,-0.000382585,-5.30468,22,0.0000000E+000,10,2.02949e-06,-2.27534, , , ,-0.000382585,
2,1,0,1,0,42555.4,0.00978761,0.00944348,1.07422,22,-0.000116274,10,1.01444e-05,-2.96891,0.00698538,8.44621,290.199,0.00944348,
2,1,0,1,0,42555.5,0.0197755,0.0193906,2.88404,22,9.51697e-05,10,5.59234e-05,-2.54,0.0564299,1.04554,117.069,0.0193906,
2,1,0,1,0,42555.6,0.0297635,0.0294322,3.78379,22,0.000432032,10,0.000111365,-2.42207,0.121529,0.485479,71.4697,0.0294322,
2,1,0,1,0,42555.7,0.0397514,0.0393862,4.40623,22,0.000842236,10,0.000173545,-2.35593,0.165389,0.356735,61.3867,0.03938625,
2,1,0,1,0,42555.8,0.0497484,0.049421,4.9642,22,0.00131078,10,0.000245336,-2.30415,0.217726,0.270983,52.4088,0.049421,
2,1,0,1,0,42555.9,0.0597273,0.0594115,5.46531,22,0.00183122,10,0.000324702,-2.26238,0.254037,0.23225,49.4801,0.0594115,
2,1,0,1,0,42556,0.0697152,0.0694197,5.91933,22,0.00240053,10,0.000410919,-2.22773,0.328518,0.179594,41.534,0.0694197,
2,1,0,1,0,42556.1,0.0797031,0.079356,6.33744,22,0.00301339,10,0.000502914,-2.19809,0.380697,0.154979,38.3054,0.079356,
2,1,0,1,0,42556.2,0.0896911,0.0893369,6.68001,22,0.00366413,10,0.000596771,-2.17522,0.437434,0.134877,35.2029,0.0893369,
2,1,0,1,0,42556.3,0.099679,0.0993586,7.05993,22,0.00434894,10,0.000701465,-2.1512,0.381775,0.154541,42.5327,0.0993586,
2,1,0,1,0,42556.4,0.109667,0.109371,7.58655,22,0.00507824,10,0.000829746,-2.11996,0.273459,0.215754,63.9268,0.109371,
2,1,0,1,0,42556.5,0.119655,0.119359,8.28305,22,0.00587068,10,0.000988655,-2.08181,0.273358,0.215834,69.7682,0.119359,
2,1,0,1,0,42556.6,0.129643,0.129327,8.91749,22,0.00673179,10,0.00115327,-2.04976,0.385838,0.152914,53.1972,0.129327,
2,1,0,1,0,42556.7,0.139631,0.139286,9.33487,22,0.00764595,10,0.00130022,-2.02989,0.718569,0.0821076,29.9278,0.139286,
2,1,0,1,0,42556.8,0.149619,0.149313,9.4379,22,0.00858719,10,0.00140921,-2.02512,-0.931832,-0.0633161,-23.2584,0.149313,
2,1,0,1,0,42556.9,0.159607,0.159321,8.65768,22,0.00950023,10,0.00137935,-2.0626,-0.148494,-0.397322,-134.017,0.159321,
2,1,0,1,0,42557,0.169595,0.169293,7.0862,22,0.0102886,10,0.00119964,-2.14959,-0.103844,-0.568161,-157.115,0.169293,
2,1,0,1,0,42557.1,0.179582,0.179276,5.77899,22,0.0109263,10,0.00103604,-2.23815,-0.13237,-0.44572,-100.731,0.179276,
2,1,0,1,0,42557.2,0.18957,0.189266,5.00915,22,0.0114618,10,0.00094806,-2.30024,-0.202762,-0.290981,-56.9708,0.189266,
2,1,0,1,0,42557.3,0.199558,0.199254,4.56806,22,0.0119378,10,0.000910204,-2.34027,-0.313803,-0.188016,-33.4788,0.199254,
2,1,0,1,0,42557.4,0.209546,0.2092,4.29315,22,0.012379,10,0.000898127,-2.36722,-0.396448,-0.148821,-24.9374,0.2092,
2,1,0,1,0,42557.5,0.219534,0.219214,4.10809,22,0.0127979,10,0.000900552,-2.38636,-0.631066,-0.0934926,-14.9858,0.219214,
2,1,0,1,0,42557.6,0.229522,0.229271,3.98006,22,0.013202,10,0.000912513,-2.40011,-0.882198,-0.0668784,-10.3994,0.229271,
2,1,0,1,0,42557.7,0.23951,0.239182,3.89254,22,0.0135956,10,0.000931027,-2.40977,-1.31525,-0.0448585,-6.8221,0.239182,
2,1,0,1,0,42557.8,0.249498,0.249192,3.83043,22,0.0139811,10,0.000954513,-2.41675,-1.32766,-0.044439,-6.63981,0.249192,
2,1,0,1,0,42557.9,0.259486,0.259196,3.7744,22,0.014361,10,0.000978309,-2.42315,-1.38276,-0.0426684,-6.28581,0.259196,
2,1,0,1,0,42558,0.269474,0.269164,3.72663,22,0.0147358,10,0.00100308,-2.42868,-2.31042,-0.0255365,-3.71382,0.269164,
2,1,0,1,0,42558.1,0.279462,0.279162,3.68052,22,0.015106,10,0.00102746,-2.43409,-1.98059,-0.0297891,-4.28059,0.279162,
2,1,0,1,0,42558.2,0.28945,0.289147,3.63783,22,0.0154717,10,0.00105187,-2.43916,-2.57147,-0.0229441,-3.25517,0.289147,
2,1,0,1,0,42558.3,0.299438,0.299142,3.59461,22,0.0158327,10,0.0010753,-2.44435,-0.0343846,-1.71589,-223.784,0.299142,
2,0,0,1,0,42558.3,0.291747,0.291395,-0.609512,22,0.0159128,10,-0.000177609,-3.21502,-0.00621783,-9.48884,173.607,0.291395,
2,0,0,1,0,42558.4,0.281759,0.281449,-1.54149,22,0.0157966,10,-0.00043385,-2.81206,-0.0642421,-0.9184,54.6258,0.281449,
2,0,0,1,0,42558.5,0.271771,0.271449,-1.93255,22,0.0156216,10,-0.000524589,-2.71387,-0.135286,-0.436114,32.7869,0.271449,
2,0,0,1,0,42558.6,0.261783,0.26147,-2.18736,22,0.0154154,10,-0.000571929,-2.66008,-0.247086,-0.238783,20.326,0.2614705,
2,0,0,1,0,42558.7,0.251795,0.251447,-2.37178,22,0.0151875,10,-0.000596377,-2.62493,-0.308088,-0.191504,17.7394,0.251447,
2,0,0,1,0,42558.8,0.241807,0.241484,-2.52259,22,0.0149423,10,-0.000609167,-2.59815,-0.367935,-0.160354,15.8568,0.241484,
2,0,0,1,0,42558.9,0.231815,0.231524,-2.67352,22,0.0146825,10,-0.000618982,-2.57292,-0.414325,-0.1424,14.8358,0.231524,
2,0,0,1,0,42559,0.221831,0.221513,-2.79897,22,0.0144094,10,-0.000620007,-2.553,-0.530061,-0.111308,12.1589,0.221513,
2,0,0,1,0,42559.1,0.211843,0.211541,-2.92204,22,0.0141235,10,-0.000618131,-2.53431,-0.685357,-0.0860865,9.81405,0.211541,
2,0,0,1,0,42559.2,0.201856,0.20148,-3.04523,22,0.0138251,10,-0.000613553,-2.51638,-0.599815,-0.0983637,11.7132,0.20148,
2,0,0,1,0,42559.3,0.191868,0.191554,-3.17741,22,0.0135142,10,-0.000608647,-2.49793,-0.505786,-0.11665,14.486,0.191554,
2,0,0,1,0,42559.4,0.18188,0.181513,-3.33188,22,0.0131897,10,-0.000604779,-2.47731,-0.439186,-0.13434,17.4242,0.181513,
2,0,0,1,0,42559.5,0.171892,0.171575,-3.50469,22,0.0128487,10,-0.000601317,-2.45535,-0.415538,-0.141985,19.4272,0.171575,
2,0,0,1,0,42559.6,0.161904,0.161554,-3.7504,22,0.0124871,10,-0.000605893,-2.42592,-0.287205,-0.205428,30.0571,0.1615542,
2,0,0,1,0,42559.7,0.151916,0.151589,-4.12475,22,0.012095,10,-0.000625266,-2.3846,-0.194529,-0.303297,48.9404,0.151589,
2,0,0,1,0,42559.8,0.141928,0.141628,-4.80508,22,0.011652,10,-0.000680534,-2.3183,-0.120208,-0.490815,92.1502,0.141628,
2,0,0,1,0,42559.9,0.13194,0.131605,-5.93731,22,0.011119,10,-0.000781382,-2.22641,-0.102709,-0.574436,133.171,0.131605,
2,0,0,1,0,42560,0.121952,0.121635,-7.26372,22,0.0104589,10,-0.000883524,-2.13884,-0.136406,-0.432532,122.435,0.121635,
2,0,0,1,0,42560.1,0.111964,0.111604,-8.39189,22,0.00967421,10,-0.000936564,-2.07614,-0.19863,-0.297034,97.1353,0.111604,
2,0,0,1,0,42560.2,0.101976,0.10163,-9.16521,22,0.00879345,10,-0.000931456,-2.03786,-0.40427,-0.145942,52.1107,0.10163,
2,0,0,1,0,42560.3,0.0919883,0.0916448,-9.44672,22,0.0078593,10,-0.000865743,-2.02472,-4.02525,-0.0146575,5.40098,0.0916448,
2,0,0,1,0,42560.4,0.0820004,0.0816767,-9.27001,22,0.00692175,10,-0.000757143,-2.03292,0.672044,0.0877919,-31.7474,0.0816767,
2,0,0,1,0,42560.5,0.0720124,0.0716586,-8.93568,22,0.00601206,10,-0.000640318,-2.04887,0.632945,0.0932151,-32.5232,0.0716586,
2,0,0,1,0,42560.6,0.0620245,0.0616309,-8.66795,22,0.00513311,10,-0.000534213,-2.06208,0.816857,0.0722281,-24.4337,0.0616309,
2,0,0,1,0,42560.7,0.0520366,0.0516468,-8.42804,22,0.00427871,10,-0.000435282,-2.07427,0.729039,0.0809284,-26.6103,0.0516468,
2,0,0,1,0,42560.8,0.0420486,0.0417419,-8.16417,22,0.00344897,10,-0.000340788,-2.08809,0.705847,0.0835876,-26.6516,0.0417419,
2,0,0,1,0,42560.9,0.0320607,0.0317405,-7.87056,22,0.00264781,10,-0.000249816,-2.10399,0.529818,0.111359,-34.1613,0.0317405,
2,0,0,1,0,42561,0.0220728,0.0217119,-7.49277,22,0.00187979,10,-0.000162682,-2.12536,0.423878,0.139191,-40.7068,0.0217119,
2,0,0,1,0,42561.1,0.0120848,0.0117175,-7.1105,22,0.00115015,10,-8.33175e-05,-2.1481,0.427243,0.138095,-38.3414,0.0117175,
2,0,0,1,0,42561.2,0.0020969,0.00173697,-6.83537,22,0.000456182,10,-1.18729e-05,-2.16524,0.773591,0.0762677,-20.2564,0.00173697,
2,0,0,1,0,42561.3,-0.00789103,-0.00827602,-6.59842,22,-0.000213485,10,5.46087e-05,-2.18056,1.119,0.0527256,-13.5988,-0.00827602,
2,0,0,1,0,42561.4,-0.017879,-0.0182433,-6.54012,22,-0.000868626,10,0.000119314,-2.18441,-11.8025,-0.00499892,1.27554,-0.0182433,
2,0,0,1,0,42561.5,-0.0278669,-0.0282453,-6.582,22,-0.00152376,10,0.000185911,-2.18164,-1.89044,-0.0312097,8.0291,-0.0282453,
2,0,0,1,0,42561.6,-0.0378548,-0.0382635,-6.72866,22,-0.00218835,10,0.000257462,-2.17207,-0.931017,-0.0633715,16.6238,-0.0382635,
2,0,0,1,0,42561.7,-0.0478428,-0.0482094,-6.925,22,-0.00287013,10,0.00033385,-2.15958,-0.588752,-0.100212,27.1156,-0.0482094,
2,0,0,1,0,42561.8,-0.0578217,-0.0582181,-7.19697,22,-0.00357484,10,0.000418993,-2.14285,-0.542539,-0.108748,30.5345,-0.0582181,
2,0,0,1,0,42561.9,-0.0678187,-0.0681945,-7.52492,22,-0.00431007,10,0.000513158,-2.1235,-0.455795,-0.129444,38.0329,-0.0681945,
2,0,0,1,0,42562,-0.0778066,-0.0781543,-7.92785,22,-0.00508193,10,0.000619596,-2.10084,-0.435155,-0.135584,41.9612,-0.0781543,
2,0,0,1,0,42562.1,-0.0877945,-0.0881826,-8.40455,22,-0.00589777,10,0.000741135,-2.07549,-0.385376,-0.153097,50.2251,-0.0881826,
2,0,0,1,0,42562.2,-0.0977825,-0.0981505,-8.91029,22,-0.00676332,10,0.000874549,-2.05011,-0.407593,-0.144752,50.3498,-0.0981505,
2,0,0,1,1,42562.3,-0.0927386,-0.0931066,-2.81712,22,-0.00734223,10,0.000262292,-2.5502,-0.0123398,-4.78129,517.719,-0.09310665,
2,1,0,1,1,42562.4,-0.0827529,-0.0831413,0.719287,22,-0.00742516,10,-5.98025e-05,-3.1431,0.00505955,11.6611,248.174,-0.0831413,
2,1,0,1,1,42562.5,-0.0727627,-0.073136,2.62958,22,-0.00724905,10,-0.000192317,-2.58011,0.0410429,1.43752,145.373,-0.073136,
2,1,0,1,1,42562.6,-0.0627748,-0.0631296,3.76336,22,-0.00692471,10,-0.000237579,-2.42442,0.0971477,0.607323,88.9286,-0.0631296,
2,1,0,1,1,42562.7,-0.0527868,-0.0531574,4.45902,22,-0.00651036,10,-0.00023703,-2.35076,0.192003,0.307286,53.3431,-0.0531574,
2,1,0,1,1,42562.8,-0.0427989,-0.0431352,4.86904,22,-0.00604168,10,-0.000210027,-2.31256,0.33567,0.175768,33.4155,-0.0431352,
2,1,0,1,1,42562.9,-0.0328109,-0.0331568,5.10852,22,-0.00554181,10,-0.000169382,-2.2917,0.728834,0.0809512,16.1147,-0.0331568,
2,1,0,1,1,42563,-0.022823,-0.0232243,5.21131,22,-0.00502527,10,-0.000121029,-2.28305,2.59931,0.0226983,4.61258,-0.0232243,
2,1,0,1,1,42563.1,-0.0128351,-0.0131941,5.23391,22,-0.00450232,10,-6.90567e-05,-2.28117,-14.3118,-0.00412246,-0.842531,-0.0131941,
2,1,0,1,1,42563.2,-0.00284713,-0.00322494,5.23823,22,-0.00397822,10,-1.6893e-05,-2.28082,-4.92335,-0.0119837,-2.44742,-0.00322494,
2,1,0,1,1,42563.3,-2.55332e-05,-0.000344411,5.24773,22,-0.00383094,10,-1.80737e-06,-2.28003, , , ,-0.000344411,