File: Figure_codes/Fig_3-5/rawdata_trumpetplot_data/after 10th/20221101_1-115_003_TrumpetPlot_ParaChange_from10_every3_08_CV_C01_31.csv
mode,ox/red,error,control changes,counter inc.,time/s,control/V,Ewe/V,<I>/mA,cycle number,(Q-Qo)/C,I Range,P/W,log(|I|),Tafel slope mV/dec,alpha_eff,dI/d(E-IR),E-IR/V,
2,0,0,0,0,62249.1,2.44065e-05,-0.000382585,-3.96265,32,0.0000000E+000,10,1.51605e-06,-2.40201, , , ,-0.000382585,
2,1,0,1,0,62249.2,0.00729419,0.00696024,0.220093,32,-0.000121899,10,1.5319e-06,-3.65739,0.0188167,3.13551,298.156,0.00696024,
2,1,0,1,0,62249.2,0.0147816,0.0144326,1.68001,32,-2.28687e-05,10,2.42468e-05,-2.77469,0.0284071,2.07695,133.413,0.0144326,
2,1,0,1,0,62249.3,0.0222707,0.0219223,2.43559,32,0.000174213,10,5.33938e-05,-2.6134,0.0758544,0.777806,73.535,0.0219223,
2,1,0,1,0,62249.4,0.0297581,0.0294373,2.91972,32,0.000426937,10,8.59485e-05,-2.53466,0.120422,0.489942,55.6307,0.0294373,
2,1,0,1,0,62249.5,0.0372544,0.0368943,3.2909,32,0.000719341,10,0.000121415,-2.48268,0.160304,0.368051,47.2414,0.0368943,
2,1,0,1,0,62249.6,0.0447507,0.0443908,3.61726,32,0.00104445,10,0.000160573,-2.44162,0.202951,0.29071,41.0816,0.0443908,
2,1,0,1,0,62249.7,0.0522381,0.0518683,3.92363,32,0.00139874,10,0.000203512,-2.40631,0.237209,0.248726,38.0517,0.0518683,
2,1,0,1,0,62249.8,0.0597273,0.0593846,4.20663,32,0.00178053,10,0.000249809,-2.37607,0.256053,0.230421,37.8332,0.0593846,
2,1,0,1,0,62249.9,0.0672147,0.0668825,4.47187,32,0.00218802,10,0.00029909,-2.34951,0.298653,0.197554,34.4772,0.0668825,
2,1,0,1,0,62250,0.0747038,0.0743565,4.72037,32,0.00261938,10,0.00035099,-2.32602,0.355789,0.165829,30.5181,0.0743565,
2,1,0,1,0,62250.1,0.0822055,0.0818749,4.93216,32,0.00307331,10,0.00040382,-2.30696,0.394623,0.14951,28.7737,0.0818749,
2,1,0,1,0,62250.2,0.0896946,0.0893598,5.12224,32,0.00354512,10,0.000457722,-2.29054,0.48031,0.122837,24.576,0.0893598,
2,1,0,1,0,62250.3,0.097182,0.0968727,5.3305,32,0.00403514,10,0.00051638,-2.27323,0.401621,0.146905,30.5457,0.0968727,
2,1,0,1,0,62250.4,0.104671,0.104345,5.59293,32,0.00454647,10,0.000583593,-2.25236,0.284547,0.207347,45.2987,0.104345,
2,1,0,1,0,62250.5,0.112159,0.111851,5.95029,32,0.00508717,10,0.000665547,-2.22546,0.264601,0.222977,51.8116,0.111851,
2,1,0,1,0,62250.6,0.119655,0.119303,6.35934,32,0.00566499,10,0.000758692,-2.19659,0.292641,0.201612,49.9849,0.119303,
2,1,0,1,0,62250.6,0.127149,0.126782,6.71272,32,0.0062791,10,0.000851052,-2.1731,0.361743,0.163099,42.7199,0.1267819,
2,1,0,1,0,62250.7,0.134639,0.134284,6.96444,32,0.00692147,10,0.00093521,-2.15711,0.612343,0.0963513,26.2075,0.134284,
2,1,0,1,0,62250.8,0.142126,0.141811,7.11856,32,0.00758293,10,0.00100949,-2.14761,1.51613,0.038915,10.8046,0.141811,
2,1,0,1,0,62250.9,0.149615,0.149253,7.06863,32,0.00825039,10,0.00105502,-2.15066,-0.569301,-0.103636,-28.5285,0.149253,
2,1,0,1,0,62251,0.157103,0.156746,6.62263,32,0.00889545,10,0.00103807,-2.17897,-0.169576,-0.347926,-89.6982,0.156746,
2,1,0,1,0,62251.1,0.164606,0.16422,5.82601,32,0.00948173,10,0.000956747,-2.23463,-0.114942,-0.5133,-116.58,0.16422,
2,1,0,1,0,62251.2,0.172095,0.171742,5.0194,32,0.00998895,10,0.00086204,-2.29935,-0.121819,-0.484324,-95.0089,0.171742,
2,1,0,1,0,62251.3,0.179582,0.179212,4.4061,32,0.0104295,10,0.000789626,-2.35595,-0.151757,-0.388779,-67.0885,0.179212,
2,1,0,1,0,62251.4,0.18707,0.186748,3.99649,32,0.0108227,10,0.000746339,-2.39832,-0.201491,-0.292817,-45.6896,0.186748,
2,1,0,1,0,62251.5,0.194559,0.194216,3.71837,32,0.0111835,10,0.000722168,-2.42965,-0.279127,-0.211373,-30.659,0.194216,
2,1,0,1,0,62251.6,0.202062,0.201726,3.51469,32,0.0115231,10,0.000709003,-2.45411,-0.365949,-0.161225,-22.1248,0.201726,
2,1,0,1,0,62251.7,0.20955,0.209206,3.38092,32,0.0118466,10,0.000707307,-2.47097,-0.427551,-0.137995,-18.2251,0.209206,
2,1,0,1,0,62251.8,0.217039,0.216689,3.2828,32,0.0121591,10,0.000711347,-2.48376,-0.694621,-0.0849384,-10.874,0.216689,
2,1,0,1,0,62251.9,0.224526,0.22419,3.20041,32,0.0124635,10,0.0007175,-2.49479,-0.83526,-0.0706367,-8.84008,0.22419,
2,1,0,1,0,62252,0.232016,0.231676,3.14658,32,0.0127616,10,0.000728986,-2.50216,-1.10407,-0.0534385,-6.55869,0.231676,
2,1,0,1,0,62252.1,0.23951,0.239146,3.10519,32,0.0130553,10,0.000742594,-2.50791,-1.55615,-0.0379141,-4.58629,0.239146,
2,1,0,1,0,62252.1,0.247006,0.246633,3.06177,32,0.013345,10,0.000755132,-2.51403,-2.20923,-0.0267061,-3.19223,0.2466325,
2,1,0,1,0,62252.2,0.254494,0.254127,3.02826,32,0.0136312,10,0.000769561,-2.51881,-1.40277,-0.0420596,-4.97165,0.254127,
2,1,0,1,0,62252.3,0.261983,0.261657,3.00308,32,0.0139145,10,0.000785775,-2.52243,-1.56307,-0.0377461,-4.42637,0.261657,
2,1,0,1,0,62252.4,0.26947,0.269133,2.97579,32,0.0141953,10,0.000800882,-2.5264,-5.79399,-0.010183,-1.18344,0.269133,
2,1,0,1,0,62252.5,0.276959,0.276602,2.95025,32,0.0144739,10,0.000816046,-2.53014,-1.75582,-0.0336026,-3.87435,0.276602,
2,1,0,1,0,62252.6,0.284461,0.284118,2.93229,32,0.0147507,10,0.000833114,-2.53279,-2.14877,-0.0274575,-3.13692,0.284118,
2,1,0,1,0,62252.7,0.29195,0.291615,2.90403,32,0.0150247,10,0.000846859,-2.537,-2.64678,-0.0222912,-2.52568,0.291615,
2,1,0,1,0,62252.8,0.299438,0.299084,2.87587,32,0.0152964,10,0.000860127,-2.54123,-0.0386304,-1.52729,-161.108,0.299084,
2,1,0,1,0,62252.9,0.29424,0.293899,0.0689329,32,0.0153925,10,2.02593e-05,-4.16157,0.0125403,4.70485,214.778,0.293899,
2,0,0,1,0,62253,0.286753,0.286401,-0.840303,32,0.0153476,10,-0.000240664,-3.07556,-0.0255233,-2.31161,73.877,0.286401,
2,0,0,1,0,62253.1,0.279264,0.278913,-1.2298,32,0.0152476,10,-0.000343008,-2.91016,-0.0773167,-0.763095,36.4412,0.2789129,
2,0,0,1,0,62253.2,0.271776,0.271452,-1.45993,32,0.0151201,10,-0.0003963,-2.83567,-0.117991,-0.500038,28.4095,0.271452,
2,0,0,1,0,62253.3,0.26428,0.263892,-1.62696,32,0.0149741,10,-0.000429341,-2.78862,-0.174061,-0.338961,21.4603,0.263892,
2,0,0,1,0,62253.4,0.256786,0.256465,-1.75688,32,0.0148143,10,-0.000450576,-2.75526,-0.296535,-0.198965,13.6391,0.256465,
2,0,0,1,0,62253.4,0.249296,0.248873,-1.87204,32,0.0146434,10,-0.0004659,-2.72768,-0.328584,-0.179558,13.1089,0.248873,
2,0,0,1,0,62253.5,0.241809,0.241434,-1.96227,32,0.0144628,10,-0.00047376,-2.70724,-0.35189,-0.167666,12.8654,0.241434,
2,0,0,1,0,62253.6,0.23432,0.233992,-2.0499,32,0.0142738,10,-0.000479659,-2.68827,-0.501966,-0.117538,9.42784,0.233992,
2,0,0,1,0,62253.7,0.226833,0.226517,-2.13526,32,0.0140769,10,-0.000483673,-2.67055,-0.452209,-0.130471,10.8663,0.226517,
2,0,0,1,0,62253.8,0.219329,0.218959,-2.21469,32,0.0138721,10,-0.000484927,-2.65469,-0.407286,-0.144861,12.494,0.218959,
2,0,0,1,0,62253.9,0.21184,0.211445,-2.28129,32,0.0136606,10,-0.000482367,-2.64182,-0.714274,-0.0826013,7.36288,0.211445,
2,0,0,1,0,62254,0.204353,0.203999,-2.3666,32,0.0134421,10,-0.000482785,-2.62587,-0.74437,-0.0792616,7.31128,0.203999,
2,0,0,1,0,62254.1,0.196863,0.19648,-2.43653,32,0.0132166,10,-0.000478729,-2.61323,-0.454634,-0.129775,12.3439,0.19648,
2,0,0,1,0,62254.2,0.189376,0.189006,-2.50725,32,0.012984,10,-0.000473885,-2.6008,-0.624039,-0.0945453,9.28858,0.189006,
2,0,0,1,0,62254.3,0.18188,0.181552,-2.59995,32,0.0127435,10,-0.000472026,-2.58503,-0.5151,-0.114541,11.6176,0.181552,
2,0,0,1,0,62254.4,0.174385,0.173989,-2.69757,32,0.0124945,10,-0.000469347,-2.56903,-0.366255,-0.16109,16.9596,0.173989,
2,0,0,1,0,62254.5,0.166896,0.166489,-2.80978,32,0.0122358,10,-0.000467796,-2.55133,-0.387698,-0.15218,16.6921,0.1664886,
2,0,0,1,0,62254.6,0.159409,0.159058,-2.96297,32,0.0119652,10,-0.000471283,-2.52827,-0.311574,-0.189361,21.8647,0.159058,
2,0,0,1,0,62254.7,0.151919,0.151567,-3.15997,32,0.0116786,10,-0.000478948,-2.50032,-0.207894,-0.283798,35.0335,0.151567,
2,0,0,1,0,62254.8,0.144425,0.144087,-3.46149,32,0.0113681,10,-0.000498754,-2.46074,-0.155621,-0.379126,51.4149,0.144087,
2,0,0,1,0,62254.8,0.136929,0.13656,-3.95639,32,0.0110208,10,-0.000540283,-2.4027,-0.115489,-0.510869,78.9546,0.13656,
2,0,0,1,0,62254.9,0.129441,0.129067,-4.63552,32,0.0106189,10,-0.000598292,-2.3339,-0.107871,-0.546948,98.7811,0.129067,
2,0,0,1,0,62255,0.121952,0.121596,-5.35775,32,0.0101503,10,-0.000651479,-2.27102,-0.128807,-0.458051,95.6552,0.121596,
2,0,0,1,0,62255.1,0.114465,0.114064,-6.02903,32,0.00961558,10,-0.000687695,-2.21975,-0.168771,-0.349587,82.1883,0.114064,
2,0,0,1,0,62255.2,0.106976,0.106644,-6.58127,32,0.00902343,10,-0.000701851,-2.18169,-0.232876,-0.253354,65.0174,0.106644,
2,0,0,1,0,62255.3,0.0994721,0.0991448,-6.96461,32,0.00838543,10,-0.000690505,-2.1571,-0.417463,-0.14133,38.3754,0.0991448,
2,0,0,1,0,62255.4,0.0919847,0.0916074,-7.1307,32,0.00772282,10,-0.000653225,-2.14687,-2.18303,-0.0270267,7.52019,0.0916074,
2,0,0,1,0,62255.5,0.0844974,0.0841964,-7.10531,32,0.00705418,10,-0.000598242,-2.14842,1.18952,0.0495998,-13.7417,0.0841964,
2,0,0,1,0,62255.6,0.0770082,0.0766255,-6.96229,32,0.00639472,10,-0.000533489,-2.15725,0.798845,0.0738566,-20.06,0.0766255,
2,0,0,1,0,62255.7,0.0695208,0.0691614,-6.80942,32,0.00574923,10,-0.000470949,-2.16689,0.78714,0.0749549,-19.9451,0.0691614,
2,0,0,1,0,62255.8,0.0620245,0.0616841,-6.69742,32,0.00511535,10,-0.000413125,-2.17409,0.954903,0.0617864,-16.145,0.0616841,
2,0,0,1,0,62255.9,0.0545282,0.0541693,-6.58211,32,0.00449235,10,-0.000356548,-2.18163,1.12117,0.0526235,-13.519,0.0541693,
2,0,0,1,0,62256,0.0470408,0.046667,-6.45154,32,0.00388129,10,-0.000301074,-2.19034,0.753533,0.0782979,-19.7133,0.046667,
2,0,0,1,0,62256.1,0.0395516,0.0391725,-6.31368,32,0.00328321,10,-0.000247322,-2.19972,0.658492,0.0895987,-22.0401,0.0391725,
2,0,0,1,0,62256.2,0.0320643,0.0317189,-6.13414,32,0.00269985,10,-0.000194568,-2.21225,0.586483,0.1006,-24.0804,0.0317189,
2,0,0,1,0,62256.3,0.0245751,0.0242438,-5.93373,32,0.00213369,10,-0.000143856,-2.22667,0.470043,0.12552,-29.0872,0.0242438,
2,0,0,1,0,62256.3,0.0170735,0.0167333,-5.72932,32,0.00158564,10,-9.58703e-05,-2.2419,0.466313,0.126525,-28.2892,0.0167333,
2,0,0,1,0,62256.4,0.00958429,0.00919243,-5.53836,32,0.00105776,10,-5.0911e-05,-2.25662,0.583986,0.10103,-21.8176,0.00919243,
2,0,0,1,0,62256.5,0.0020969,0.00166623,-5.40251,32,0.000546624,10,-9.00184e-06,-2.2674,0.789363,0.0747438,-15.6996,0.00166623,
2,0,0,1,0,62256.6,0.000199195,-0.000220343,-5.35143,32,0.000418907,10,1.17915e-06,-2.27153, , , ,-0.0002203433,