File: Figure_codes/Fig_3-5/rawdata_trumpetplot_data/after 10th/20221101_1-115_003_TrumpetPlot_ParaChange_from10_every3_09_CV_C01_10.csv
mode,ox/red,error,control changes,counter inc.,time/s,control/V,Ewe/V,<I>/mA,cycle number,(Q-Qo)/C,I Range,P/W,log(|I|),Tafel slope mV/dec,alpha_eff,dI/d(E-IR),E-IR/V,
2,0,0,0,0,20883.8,2.44065e-05,-0.000325324,-5.32312,11,0.0000000E+000,10,1.73174e-06,-2.27383, , , ,-0.000325324,
2,1,0,1,0,20883.9,0.00978761,0.0094309,1.62888,11,-7.26408e-05,10,1.53618e-05,-2.78811,0.012454,4.73744,274.465,0.0094309,
2,1,0,1,0,20884,0.0197755,0.0194429,3.27549,11,0.000186035,10,6.3685e-05,-2.48472,0.0730122,0.808084,102.912,0.01944291,
2,1,0,1,0,20884.1,0.0297635,0.0294617,4.08408,11,0.000556766,10,0.000120324,-2.38891,0.137608,0.428755,68.2086,0.0294617,
2,1,0,1,0,20884.2,0.0397514,0.0394033,4.69787,11,0.000996209,10,0.000185111,-2.3281,0.1733,0.340449,62.4312,0.03940326,
2,1,0,1,0,20884.3,0.0497484,0.0494197,5.26904,11,0.00149438,10,0.000260394,-2.27827,0.224434,0.262884,53.9068,0.0494197,
2,1,0,1,0,20884.4,0.0597273,0.0593655,5.78285,11,0.00204589,10,0.000343301,-2.23786,0.257243,0.229355,51.7395,0.0593655,
2,1,0,1,0,20884.5,0.0697152,0.0694098,6.25659,11,0.00264793,10,0.000434268,-2.20366,0.328058,0.179846,43.9369,0.0694098,
2,1,0,1,0,20884.6,0.0797031,0.0793907,6.68086,11,0.00329478,10,0.000530398,-2.17517,0.373422,0.157998,41.1731,0.07939069,
2,1,0,1,0,20884.7,0.0896911,0.089378,7.04026,11,0.00398081,10,0.000629245,-2.15241,0.422477,0.139653,38.4114,0.089378,
2,1,0,1,0,20884.8,0.099679,0.0993491,7.47021,11,0.00470368,10,0.000742158,-2.12667,0.336191,0.175496,51.1184,0.0993491,
2,1,0,1,0,20884.9,0.109667,0.109373,8.09504,11,0.00547931,10,0.000885375,-2.09178,0.259421,0.22743,71.951,0.109373,
2,1,0,1,0,20885,0.119655,0.119348,8.90229,11,0.00632847,10,0.00106247,-2.0505,0.276186,0.213624,74.1676,0.119348,
2,1,0,1,0,20885.1,0.129643,0.129298,9.56129,11,0.0072527,10,0.00123626,-2.01948,0.392915,0.15016,56.0158,0.129298,
2,1,0,1,0,20885.2,0.139631,0.139298,10.0237,11,0.0082331,10,0.00139628,-1.99897,0.630954,0.0935092,36.5833,0.139298,
2,1,0,1,0,20885.3,0.149619,0.149291,10.1328,11,0.00924461,10,0.00151274,-1.99427,-0.702988,-0.0839275,-33.0838,0.149291,
2,1,0,1,0,20885.4,0.159607,0.159262,9.0535,11,0.0102155,10,0.00144188,-2.04318,-0.113494,-0.519851,-183.231,0.159262,
2,1,0,1,0,20885.5,0.169595,0.1693,7.03761,11,0.0110196,10,0.00119147,-2.15257,-0.087275,-0.676024,-185.85,0.1693,
2,1,0,1,0,20885.6,0.179582,0.179277,5.60218,11,0.0116437,10,0.00100434,-2.25164,-0.129069,-0.457118,-100.306,0.179277,
2,1,0,1,0,20885.7,0.18957,0.189228,4.87344,11,0.0121634,10,0.000922193,-2.31216,-0.215685,-0.273548,-52.1089,0.189228,
2,1,0,1,0,20885.8,0.199558,0.19925,4.48908,11,0.0126289,10,0.000894448,-2.34784,-0.387704,-0.152178,-26.6612,0.19925,
2,1,0,1,0,20885.9,0.209546,0.209216,4.25708,11,0.013065,10,0.000890649,-2.37089,-0.466096,-0.126583,-21.0569,0.209216,
2,1,0,1,0,20886,0.219534,0.219239,4.11587,11,0.0134826,10,0.000902358,-2.38554,-0.820794,-0.0718816,-11.5406,0.219239,
2,1,0,1,0,20886.1,0.229522,0.229254,4.00389,11,0.0138883,10,0.000917906,-2.39752,-0.973063,-0.0606333,-9.48937,0.229254,
2,1,0,1,0,20886.2,0.23951,0.2392,3.93745,11,0.0142853,10,0.000941839,-2.40478,-1.98441,-0.0297317,-4.56755,0.2392,
2,1,0,1,0,20886.3,0.249498,0.24921,3.88192,11,0.0146756,10,0.000967415,-2.41095,-1.85126,-0.0318701,-4.82494,0.24921,
2,1,0,1,0,20886.4,0.259486,0.259161,3.8329,11,0.015061,10,0.000993337,-2.41647,-1.28134,-0.0460455,-6.88427,0.2591607,
2,1,0,1,0,20886.5,0.269474,0.269177,3.78176,11,0.0154415,10,0.00101796,-2.42231,-2.15873,-0.0273309,-4.03891,0.269177,
2,1,0,1,0,20886.6,0.279462,0.279143,3.7412,11,0.0158177,10,0.00104433,-2.42699,-2.48535,-0.0237392,-3.4653,0.2791425,
2,1,0,1,0,20886.7,0.28945,0.289155,3.69272,11,0.0161892,10,0.00106777,-2.43265,-3.12298,-0.0188922,-2.72345,0.289155,
2,1,0,1,0,20886.8,0.299438,0.299159,3.64859,11,0.0165557,10,0.00109151,-2.43788,-0.0303375,-1.94479,-254.787,0.299159,
2,0,0,1,0,20886.9,0.291747,0.291415,-0.863787,11,0.0166123,10,-0.000251721,-3.06359,-0.0122556,-4.81413,145.775,0.291415,
2,0,0,1,0,20887,0.281759,0.281438,-1.60246,11,0.0164822,10,-0.000450993,-2.79521,-0.0841415,-0.7012,43.5582,0.281438,
2,0,0,1,0,20887.1,0.271771,0.27144,-1.93381,11,0.0163048,10,-0.000524913,-2.71359,-0.147622,-0.39967,30.0791,0.27144,
2,0,0,1,0,20887.2,0.261783,0.261458,-2.16423,11,0.0160998,10,-0.000565855,-2.6647,-0.275472,-0.214178,18.069,0.261458,
2,0,0,1,0,20887.3,0.251795,0.251501,-2.3449,11,0.0158742,10,-0.000589745,-2.62987,-0.337785,-0.174668,15.9937,0.251501,
2,0,0,1,0,20887.4,0.241807,0.241482,-2.50184,11,0.0156316,10,-0.00060415,-2.60174,-0.389572,-0.151448,14.839,0.241482,
2,0,0,1,0,20887.5,0.231815,0.231482,-2.65653,11,0.0153741,10,-0.00061494,-2.57569,-0.389657,-0.151415,15.6606,0.231482,
2,0,0,1,0,20887.6,0.221831,0.221531,-2.7835,11,0.0151029,10,-0.000616632,-2.55541,-0.494284,-0.119365,12.9501,0.221531,
2,0,0,1,0,20887.7,0.211843,0.211493,-2.91455,11,0.0148182,10,-0.000616409,-2.53543,-0.596624,-0.0988897,11.2378,0.211493,
2,0,0,1,0,20887.8,0.201856,0.201542,-3.0473,11,0.0145204,10,-0.00061416,-2.51608,-0.556433,-0.106033,12.6054,0.201542,
2,0,0,1,0,20887.9,0.191868,0.191557,-3.19276,11,0.0142088,10,-0.000611596,-2.49583,-0.458687,-0.128628,16.0506,0.191557,
2,0,0,1,0,20888,0.18188,0.181593,-3.36704,11,0.0138822,10,-0.00061143,-2.47275,-0.39506,-0.149344,19.5755,0.181593,
2,0,0,1,0,20888.1,0.171892,0.171543,-3.57198,11,0.0135365,10,-0.000612747,-2.44709,-0.360221,-0.163788,22.833,0.171543,
2,0,0,1,0,20888.2,0.161904,0.161554,-3.87484,11,0.0131657,10,-0.000625996,-2.41175,-0.245536,-0.240291,36.3706,0.1615542,
2,0,0,1,0,20888.3,0.151916,0.151592,-4.36306,11,0.0127561,10,-0.000661404,-2.36021,-0.15494,-0.380791,65.0431,0.151592,
2,0,0,1,0,20888.4,0.141928,0.141588,-5.25806,11,0.0122795,10,-0.000744481,-2.27917,-0.103022,-0.572692,117.716,0.141588,
2,0,0,1,0,20888.5,0.13194,0.131635,-6.66092,11,0.0116878,10,-0.000876809,-2.17647,-0.0971521,-0.607295,158.024,0.131635,
2,0,0,1,0,20888.6,0.121952,0.121611,-8.22354,11,0.0109423,10,-0.00100007,-2.08494,-0.135583,-0.435156,139.48,0.121611,
2,0,0,1,0,20888.7,0.111964,0.111631,-9.42145,11,0.0100564,10,-0.00105173,-2.02588,-0.223639,-0.263818,96.9151,0.111631,
2,0,0,1,0,20888.8,0.101976,0.101624,-10.1275,11,0.00907524,10,-0.0010292,-1.9945,-0.564511,-0.104515,41.2228,0.101624,
2,0,0,1,0,20888.9,0.0919883,0.0916141,-10.2224,11,0.00805368,10,-0.000936513,-1.99045,1.44392,0.0408609,-16.2927,0.0916141,
2,0,0,1,0,20889,0.0820004,0.0816368,-9.80687,11,0.00705062,10,-0.000800602,-2.00847,0.395984,0.148996,-57.0027,0.0816368,
2,0,0,1,0,20889.1,0.0720124,0.0716785,-9.27022,11,0.00609859,10,-0.000664476,-2.03291,0.47591,0.123973,-44.9099,0.0716785,
2,0,0,1,0,20889.2,0.0620245,0.0617163,-8.9049,11,0.00519172,10,-0.000549578,-2.05037,0.63607,0.0927571,-32.2375,0.06171634,
2,0,0,1,0,20889.3,0.0520366,0.0516876,-8.61607,11,0.00431657,10,-0.000445344,-2.06469,0.637554,0.0925412,-31.1144,0.0516876,
2,0,0,1,0,20889.4,0.0420486,0.0417203,-8.32271,11,0.00346992,10,-0.000347226,-2.07974,0.668241,0.0882915,-28.7014,0.0417203,
2,0,0,1,0,20889.5,0.0320607,0.0317526,-8.00141,11,0.00265456,10,-0.000254065,-2.09683,0.513097,0.114988,-35.8743,0.0317526,
2,0,0,1,0,20889.6,0.0220728,0.0217205,-7.59168,11,0.00187507,10,-0.000164895,-2.11966,0.396381,0.148847,-44.1108,0.0217205,
2,0,0,1,0,20889.7,0.0120848,0.011747,-7.1712,11,0.00113774,10,-8.42401e-05,-2.14441,0.388915,0.151704,-42.4629,0.01174699,
2,0,0,1,0,20889.8,0.0020969,0.00169706,-6.86939,11,0.000439912,10,-1.16578e-05,-2.16308,0.746201,0.0790672,-21.0756,0.00169706,
2,0,0,1,0,20889.9,-0.00789103,-0.0082225,-6.61704,11,-0.000231818,10,5.44086e-05,-2.17934,1.22553,0.0481423,-12.4527,-0.0082225,
2,0,0,1,0,20890,-0.017879,-0.0182736,-6.57481,11,-0.000889459,10,0.000120146,-2.18212,-4.88681,-0.0120733,3.09641,-0.0182736,
2,0,0,1,0,20890.1,-0.0278669,-0.028254,-6.63957,11,-0.00154901,10,0.000187594,-2.17786,-1.47137,-0.0400988,10.4072,-0.028254,
2,0,0,1,0,20890.2,-0.0378548,-0.0382037,-6.81035,11,-0.00222048,10,0.000260181,-2.16683,-0.871147,-0.0677268,17.979,-0.0382037,
2,0,0,1,0,20890.3,-0.0478428,-0.0482081,-7.0313,11,-0.00291167,10,0.000338965,-2.15296,-0.531006,-0.11111,30.5333,-0.04820805,
2,0,0,1,0,20890.4,-0.0578217,-0.0582063,-7.33364,11,-0.00362864,10,0.000426864,-2.13468,-0.523668,-0.112667,32.2381,-0.0582063,
2,0,0,1,0,20890.5,-0.0678187,-0.0682082,-7.70274,11,-0.00437926,10,0.00052539,-2.11335,-0.415645,-0.141948,42.6586,-0.0682082,
2,0,0,1,0,20890.6,-0.0778066,-0.0782029,-8.1378,11,-0.00517052,10,0.0006364,-2.08949,-0.406325,-0.145204,46.1845,-0.0782029,
2,0,0,1,0,20890.7,-0.0877945,-0.0881474,-8.67131,11,-0.00601028,10,0.000764353,-2.06192,-0.361266,-0.163315,55.281,-0.0881474,
2,0,0,1,0,20890.8,-0.0977825,-0.0981444,-9.20854,11,-0.00690399,10,0.000903767,-2.03581,-0.395003,-0.149366,53.7209,-0.0981444,
2,0,0,1,1,20890.9,-0.0927386,-0.0930468,-2.19423,11,-0.00746965,10,0.000204166,-2.65872,-0.00878985,-6.71229,554.613,-0.0930468,
2,1,0,1,1,20891,-0.0827529,-0.0831596,1.43221,11,-0.0074821,10,-0.000119102,-2.84399,0.0129802,4.54539,238.369,-0.0831596,
2,1,0,1,1,20891.1,-0.0727627,-0.0731182,3.17961,11,-0.0072424,10,-0.000232487,-2.49763,0.057221,1.03109,126.886,-0.0731182,
2,1,0,1,1,20891.2,-0.0627748,-0.06314,4.13098,11,-0.00687251,10,-0.00026083,-2.38395,0.133499,0.441952,71.142,-0.06314,
2,1,0,1,1,20891.3,-0.0527868,-0.0531196,4.6731,11,-0.00642983,10,-0.000248233,-2.3304,0.275116,0.214455,39.0601,-0.0531196,
2,1,0,1,1,20891.4,-0.0427989,-0.0431529,4.96991,11,-0.00594617,10,-0.000214466,-2.30365,0.474325,0.124387,24.1314,-0.0431529,
2,1,0,1,1,20891.5,-0.0328109,-0.0331473,5.12811,11,-0.00544108,10,-0.000169983,-2.29004,1.30737,0.0451287,9.016,-0.0331473,
2,1,0,1,1,20891.6,-0.022823,-0.0231604,5.18748,11,-0.00492558,10,-0.000120144,-2.28504,5.45634,0.0108131,2.1876,-0.0231604,
2,1,0,1,1,20891.7,-0.0128351,-0.013224,5.192,11,-0.00440697,10,-6.86591e-05,-2.28467,-10.9087,-0.00540853,-1.09583,-0.013224,
2,1,0,1,1,20891.8,-0.00284713,-0.00323573,5.19791,11,-0.00388791,10,-1.6819e-05,-2.28417,102.945,0.000573124,0.116228,-0.00323573,
2,1,0,1,1,20891.8,-2.55332e-05,-0.00042076,5.21211,11,-0.00374181,10,-2.19305e-06,-2.28299, , , ,-0.00042076,