File: Figure_codes/Fig_3-5/rawdata_trumpetplot_data/after 10th/20221101_1-115_003_TrumpetPlot_ParaChange_from10_every3_04_CV_C01_4.csv
mode,ox/red,error,control changes,counter inc.,time/s,control/V,Ewe/V,<I>/mA,cycle number,(Q-Qo)/C,I Range,P/W,log(|I|),Tafel slope mV/dec,alpha_eff,dI/d(E-IR),E-IR/V,
2,0,0,1,0,8940.54,2.44065e-05,-0.000306236,-0.374796,5,0.0000000E+000,10,1.14776e-07,-3.42621, , , ,-0.000306236,
2,1,0,1,0,8941.26,0.00729063,0.00695861,0.386352,5,0.000220763,10,2.68847e-06,-3.41302,0.0674508,0.874712,13.0494,0.00695861,
2,1,0,1,0,8942.01,0.0147814,0.0144355,0.454804,5,0.000552019,10,6.56534e-06,-3.34218,0.126663,0.465803,8.27552,0.01443552,
2,1,0,1,0,8942.76,0.0222725,0.0219517,0.512554,5,0.000929105,10,1.12514e-05,-3.29026,0.169742,0.347586,6.94548,0.0219517,
2,1,0,1,0,8943.51,0.0297635,0.0294392,0.561682,5,0.00134582,10,1.65355e-05,-3.25051,0.1853,0.318402,6.98634,0.0294392,
2,1,0,1,0,8944.26,0.0372544,0.0369501,0.617485,5,0.00180228,10,2.28161e-05,-3.20937,0.189465,0.311404,7.51436,0.0369501,
2,1,0,1,0,8945.01,0.0447458,0.0444477,0.670625,5,0.00229971,10,2.98077e-05,-3.17352,0.18798,0.313863,8.22603,0.0444477,
2,1,0,1,0,8945.76,0.0522363,0.0519198,0.719258,5,0.00283644,10,3.73438e-05,-3.14312,0.228337,0.25839,7.269,0.0519198,
2,1,0,1,0,8946.51,0.0597282,0.0594178,0.770532,5,0.00340972,10,4.57834e-05,-3.11321,0.278791,0.211628,6.35395,0.0594178,
2,1,0,1,0,8947.26,0.0672182,0.0669013,0.813173,5,0.00401739,10,5.44023e-05,-3.08982,0.367038,0.160746,5.09286,0.0669013,
2,1,0,1,0,8948.01,0.0747092,0.0743824,0.851078,5,0.00465542,10,6.33053e-05,-3.07003,0.448991,0.131406,4.36102,0.0743824,
2,1,0,1,0,8948.76,0.0822001,0.0818753,0.884683,5,0.0053214,10,7.24336e-05,-3.05321,0.427595,0.137981,4.78118,0.0818753,
2,1,0,1,0,8949.5,0.0896911,0.0894042,0.932191,5,0.00601607,10,8.33417e-05,-3.0305,0.299247,0.197162,7.17538,0.0894042,
2,1,0,1,0,8950.25,0.097182,0.0968567,0.995835,5,0.00675223,10,9.64533e-05,-3.00181,0.180753,0.326411,12.6841,0.0968567,
2,1,0,1,0,8951,0.104673,0.104377,1.09503,5,0.0075483,10,0.000114296,-2.96057,0.206079,0.286298,12.1797,0.1043771,
2,1,0,1,0,8951.75,0.112164,0.11186,1.17937,5,0.00841474,10,0.000131925,-2.92835,0.296421,0.199041,9.14452,0.11186,
2,1,0,1,0,8952.5,0.119655,0.119326,1.24803,5,0.00933958,10,0.000148922,-2.90378,0.404281,0.145938,7.1142,0.119326,
2,1,0,1,0,8953.25,0.127146,0.126772,1.30574,5,0.0103116,10,0.000165531,-2.88414,0.359467,0.164132,8.37625,0.126772,
2,1,0,1,0,8954,0.134637,0.134366,1.34702,5,0.0113256,10,0.000180995,-2.87062,-3.21799,-0.0183344,-0.962107,0.134366,
2,1,0,1,0,8954.75,0.142127,0.141773,1.26576,5,0.0123296,10,0.000179451,-2.89765,-0.141538,-0.416849,-20.4808,0.141773,
2,1,0,1,0,8955.5,0.149619,0.149309,1.04725,5,0.013215,10,0.000156363,-2.97995,-0.0759929,-0.776389,-31.6636,0.149309,
2,1,0,1,0,8956.25,0.157109,0.156845,0.835261,5,0.0139292,10,0.000131007,-3.07818,-0.0834851,-0.706713,-23.0879,0.156845,
2,1,0,1,0,8957,0.164601,0.164298,0.708293,5,0.0145171,10,0.000116371,-3.14979,-0.134065,-0.440086,-12.1787,0.164298,
2,1,0,1,0,8957.74,0.172091,0.171753,0.636204,5,0.0150334,10,0.00010927,-3.1964,-0.208863,-0.282481,-7.06039,0.1717532,
2,1,0,1,0,8958.49,0.179582,0.179249,0.594811,5,0.0155091,10,0.000106619,-3.22562,-0.335178,-0.176026,-4.11329,0.179249,
2,1,0,1,0,8959.24,0.187074,0.186777,0.574054,5,0.0159608,10,0.00010722,-3.24105,-0.521493,-0.113137,-2.53006,0.186777,
2,1,0,1,0,8959.99,0.194564,0.194294,0.55616,5,0.0163973,10,0.000108059,-3.2548,-0.625768,-0.0942842,-2.04612,0.194294,
2,1,0,1,0,8960.74,0.202056,0.201731,0.544148,5,0.0168229,10,0.000109772,-3.26428,-0.888072,-0.0664361,-1.40741,0.201731,
2,1,0,1,0,8961.49,0.209546,0.20925,0.533985,5,0.0172407,10,0.000111736,-3.27247,-0.740254,-0.0797024,-1.66257,0.20925,
2,1,0,1,0,8962.24,0.217038,0.216729,0.525651,5,0.0176514,10,0.000113924,-3.2793,-1.36638,-0.0431797,-0.887599,0.216729,
2,1,0,1,0,8962.99,0.224528,0.224182,0.518808,5,0.018057,10,0.000116307,-3.28499,-1.08319,-0.0544686,-1.10269,0.224182,
2,1,0,1,0,8963.74,0.232019,0.231717,0.511512,5,0.0184575,10,0.000118526,-3.29114,-1.61532,-0.0365253,-0.731474,0.231717,
2,1,0,1,0,8964.49,0.23951,0.23924,0.507781,5,0.0188538,10,0.000121481,-3.29432,-1.80146,-0.0327512,-0.648957,0.23924,
2,1,0,1,0,8965.24,0.247001,0.246704,0.502566,5,0.0192461,10,0.000123985,-3.29881,-1.56751,-0.0376394,-0.736649,0.246704,
2,1,0,1,0,8965.98,0.254492,0.254206,0.497057,5,0.0196346,10,0.000126355,-3.30359,-3.35971,-0.017561,-0.341022,0.254206,
2,1,0,1,0,8966.73,0.261983,0.261672,0.492622,5,0.0200197,10,0.000128906,-3.30749,-2.05332,-0.0287339,-0.552561,0.261672,
2,1,0,1,0,8967.48,0.269474,0.269198,0.486518,5,0.0204014,10,0.00013097,-3.3129,7.93082,0.00743934,0.141603,0.269198,
2,1,0,1,0,8968.23,0.276965,0.27666,0.483538,5,0.0207797,10,0.000133776,-3.31557,-1.38601,-0.0425683,-0.804351,0.27666,
2,1,0,1,0,8968.98,0.284456,0.284176,0.480711,5,0.0211545,10,0.000136607,-3.31812,-3.82217,-0.0154363,-0.288339,0.284176,
2,1,0,1,0,8969.73,0.291947,0.291655,0.475446,5,0.0215257,10,0.000138667,-3.3229,-1.82245,-0.032374,-0.600641,0.291655,
2,1,0,1,0,8970.48,0.299437,0.299161,0.467367,5,0.0218936,10,0.000139818,-3.33034,-0.00158059,-37.3279,-246.607,0.299161,
2,0,0,1,0,8971.16,0.293745,0.293442,-0.0874331,5,0.021895,10,-2.56566e-05,-4.05832,-0.0182854,-3.22661,10.2165,0.293442,
2,0,0,1,0,8971.91,0.286253,0.285971,-0.136763,5,0.0217947,10,-3.91102e-05,-3.86403,-0.0563802,-1.04647,5.61117,0.285971,
2,0,0,1,0,8972.66,0.278763,0.278448,-0.172564,5,0.0216629,10,-4.80502e-05,-3.76305,-0.101278,-0.582557,3.9108,0.2784481,
2,0,0,1,0,8973.41,0.271272,0.270988,-0.200909,5,0.0215087,10,-5.44439e-05,-3.697,-0.145646,-0.405092,3.13668,0.270988,
2,0,0,1,0,8974.16,0.263781,0.263468,-0.222884,5,0.0213358,10,-5.87228e-05,-3.65192,-0.172482,-0.342065,2.97596,0.263468,
2,0,0,1,0,8974.91,0.25629,0.256007,-0.241527,5,0.0211473,10,-6.18324e-05,-3.61704,-0.292223,-0.2019,1.90345,0.256007,
2,0,0,1,0,8975.66,0.248799,0.248455,-0.26008,5,0.0209451,10,-6.46182e-05,-3.58489,-0.262115,-0.225092,2.28438,0.248455,
2,0,0,1,0,8976.41,0.241308,0.240989,-0.274898,5,0.0207302,10,-6.62474e-05,-3.56083,-0.325911,-0.181031,1.94948,0.240989,
2,0,0,1,0,8977.16,0.233817,0.233526,-0.291252,5,0.0205035,10,-6.80149e-05,-3.53573,-0.264982,-0.222657,2.52468,0.233526,
2,0,0,1,0,8977.91,0.226326,0.226028,-0.305757,5,0.020265,10,-6.91096e-05,-3.51462,-0.591921,-0.0996755,1.19276,0.226028,
2,0,0,1,0,8978.65,0.218835,0.218528,-0.324013,5,0.0200149,10,-7.08059e-05,-3.48944,-0.329569,-0.179022,2.25617,0.218528,
2,0,0,1,0,8979.4,0.211344,0.211024,-0.337453,5,0.0197531,10,-7.12107e-05,-3.47179,-0.425258,-0.138739,1.83089,0.211024,
2,0,0,1,0,8980.15,0.203854,0.203514,-0.355192,5,0.0194786,10,-7.22866e-05,-3.44954,-0.579095,-0.101883,1.41887,0.203514,
2,0,0,1,0,8980.9,0.196362,0.196067,-0.373332,5,0.0191913,10,-7.31983e-05,-3.4279,-0.291253,-0.202573,2.94831,0.196067,
2,0,0,1,0,8981.65,0.188872,0.188569,-0.393946,5,0.0188893,10,-7.42862e-05,-3.40456,-0.241675,-0.244129,3.74989,0.188569,
2,0,0,1,0,8982.4,0.18138,0.181085,-0.420649,5,0.0185702,10,-7.61732e-05,-3.37608,-0.246865,-0.238997,3.92052,0.1810848,
2,0,0,1,0,8983.15,0.17389,0.17359,-0.453441,5,0.0182296,10,-7.87129e-05,-3.34348,-0.182336,-0.323578,5.70372,0.17359,
2,0,0,1,0,8983.9,0.166398,0.166073,-0.498213,5,0.0178599,10,-8.27395e-05,-3.30259,-0.178462,-0.330603,6.46706,0.166073,
2,0,0,1,0,8984.65,0.158907,0.158583,-0.564169,5,0.0174478,10,-8.94674e-05,-3.24859,-0.109079,-0.540895,11.9975,0.158583,
2,0,0,1,0,8985.4,0.151417,0.151083,-0.682244,5,0.0169683,10,-0.000103075,-3.16606,-0.0808578,-0.729676,19.4521,0.151083,
2,0,0,1,0,8986.15,0.143925,0.143662,-0.863787,5,0.0163794,10,-0.000124094,-3.06359,-0.0633601,-0.931186,31.2858,0.143662,
2,0,0,1,0,8986.89,0.136435,0.136102,-1.09828,5,0.0156308,10,-0.000149479,-2.95929,-0.0814198,-0.72464,30.9128,0.136102,
2,0,0,1,0,8987.64,0.128943,0.128636,-1.28533,5,0.0147165,10,-0.00016534,-2.89098,-0.16553,-0.35643,17.8428,0.128636,
2,0,0,1,0,8988.39,0.121453,0.121168,-1.37037,5,0.0136994,10,-0.000166044,-2.86316,-1.09317,-0.0539716,2.87821,0.121168,
2,0,0,1,0,8989.14,0.113962,0.11365,-1.35833,5,0.0126572,10,-0.000154375,-2.86699,0.544895,0.108278,-5.74997,0.11365,
2,0,0,1,0,8989.89,0.106471,0.106147,-1.30799,5,0.0116405,10,-0.000138839,-2.8834,0.407797,0.14468,-7.3995,0.106147,
2,0,0,1,0,8990.64,0.0989799,0.098705,-1.24423,5,0.0106692,10,-0.000122812,-2.9051,0.37863,0.155825,-7.54772,0.098705,
2,0,0,1,0,8991.39,0.0914889,0.0911156,-1.18045,5,0.00974842,10,-0.000107558,-2.92795,0.346274,0.170385,-7.82315,0.0911156,
2,0,0,1,0,8992.14,0.083998,0.0836939,-1.12361,5,0.00887339,10,-9.40389e-05,-2.94939,0.332127,0.177643,-7.78498,0.0836939,
2,0,0,1,0,8992.89,0.076507,0.0761851,-1.07891,5,0.00803535,10,-8.21967e-05,-2.96702,0.391518,0.150695,-6.33158,0.07618513,
2,0,0,1,0,8993.64,0.0690161,0.0687506,-1.03685,5,0.00722781,10,-7.12842e-05,-2.98428,0.513388,0.114923,-4.66936,0.0687506,
2,0,0,1,0,8994.39,0.0615251,0.0612482,-1.00453,5,0.00644685,10,-6.15257e-05,-2.99804,0.540232,0.109212,-4.28263,0.0612482,
2,0,0,1,0,8995.13,0.0540342,0.0537003,-0.969206,5,0.00569338,10,-5.20466e-05,-3.01358,0.491745,0.119981,-4.52777,0.0537003,
2,0,0,1,0,8995.88,0.0465441,0.0462574,-0.927968,5,0.00496774,10,-4.29254e-05,-3.03247,0.45795,0.128835,-4.67934,0.0462574,
2,0,0,1,0,8996.63,0.0390523,0.0387305,-0.892243,5,0.00427148,10,-3.4557e-05,-3.04952,0.353705,0.166805,-5.78602,0.03873051,
2,0,0,1,0,8997.38,0.0315618,0.0312097,-0.853915,5,0.00360458,10,-2.66504e-05,-3.06859,0.419393,0.14068,-4.68774,0.0312097,
2,0,0,1,0,8998.13,0.0240704,0.0237767,-0.814285,5,0.00296486,10,-1.9361e-05,-3.08922,0.399619,0.147641,-4.71577,0.0237767,
2,0,0,1,0,8998.88,0.0165796,0.0162905,-0.793677,5,0.00234783,10,-1.29294e-05,-3.10036,0.892886,0.0660779,-2.04656,0.0162905,
2,0,0,1,0,8999.63,0.00908846,0.00878675,-0.777702,5,0.00174587,10,-6.83347e-06,-3.10919,2.36181,0.0249808,-0.758412,0.00878675,
2,0,0,1,0,9000.38,0.00159728,0.00123106,-0.785972,5,0.00114872,10,-9.67579e-07,-3.10459, , , ,0.00123106,
2,0,0,1,0,9000.52,0.000199195,-0.000121089,-0.774929,5,0.0010369,10,9.38355e-08,-3.11074, , , ,-0.000121089,