File: Figure_codes/Fig_3-5/rawdata_trumpetplot_data/after 10th/20221101_1-115_003_TrumpetPlot_ParaChange_from10_every3_02_CV_C01_30.csv
mode,ox/red,error,control changes,counter inc.,time/s,control/V,Ewe/V,<I>/mA,cycle number,(Q-Qo)/C,I Range,P/W,log(|I|),Tafel slope mV/dec,alpha_eff,dI/d(E-IR),E-IR/V,
2,0,0,1,0,59443.9,2.44065e-05,-0.00042076,-0.387516,31,0.0000000E+000,10,1.63051e-07,-3.41171, , , ,-0.00042076,
2,0,0,1,0,59451.2,0.00729061,0.0069512,-0.0959503,31,-0.000983411,10,-6.6697e-07,-4.01795,-0.0298179,-1.97867,7.51787,0.0069512,
2,0,0,1,0,59458.7,0.0147815,0.0144492,-0.0594941,31,-0.00148129,10,-8.59643e-07,-4.22553,-0.0405859,-1.45371,3.37337,0.0144492,
2,0,0,1,0,59466.2,0.0222725,0.0219241,-0.0386008,31,-0.00177826,10,-8.46288e-07,-4.4134,-0.0386138,-1.52795,2.30902,0.0219241,
2,0,0,1,0,59473.7,0.0297635,0.0294085,-0.0232247,31,-0.0019433,10,-6.83004e-07,-4.63405,-0.0302891,-1.94789,1.73438,0.02940849,
2,0,0,1,0,59481.2,0.0372544,0.0369129,-0.0106698,31,-0.00200107,10,-3.93852e-07,-4.97185,-0.0137753,-4.28301,1.56431,0.0369129,
2,0,0,1,0,59488.7,0.0447454,0.0443783,0.00149703,31,-0.00196531,10,6.64357e-08,-5.82477,0.0101758,5.79806,1.42513,0.0443783,
2,1,0,1,0,59496.2,0.0522363,0.0518562,0.0114484,31,-0.00184853,10,5.93671e-07,-4.94125,0.0174395,3.38312,1.43322,0.0518562,
2,1,0,1,0,59503.6,0.0597273,0.0593597,0.0204414,31,-0.00165821,10,1.2134e-06,-4.68949,0.0430073,1.37186,1.09268,0.0593597,
2,1,0,1,0,59511.1,0.0672183,0.0668685,0.0287638,31,-0.001404,10,1.92339e-06,-4.54115,0.0795488,0.741683,0.816288,0.0668685,
2,1,0,1,0,59518.6,0.0747092,0.0743634,0.035832,31,-0.00109443,10,2.66459e-06,-4.44573,0.0804742,0.733154,1.02551,0.0743634,
2,1,0,1,0,59526.1,0.0822001,0.0818572,0.0430301,31,-0.000727355,10,3.52233e-06,-4.36623,0.098225,0.600662,1.01165,0.0818572,
2,1,0,1,0,59533.6,0.0896911,0.0893077,0.0513234,31,-0.000301655,10,4.58357e-06,-4.28968,0.102501,0.575603,1.15503,0.0893077,
2,1,0,1,0,59541.1,0.0971821,0.0968218,0.0611403,31,0.000191609,10,5.91971e-06,-4.21367,0.0891494,0.66181,1.5773,0.0968218,
2,1,0,1,0,59548.6,0.104673,0.104322,0.0715977,31,0.000759759,10,7.46921e-06,-4.1451,0.118656,0.497237,1.36744,0.104322,
2,1,0,1,0,59556.1,0.112164,0.111811,0.0800459,31,0.00139837,10,8.94997e-06,-4.09666,0.176219,0.33481,1.0437,0.111811,
2,1,0,1,0,59563.6,0.119655,0.119326,0.0873405,31,0.00210035,10,1.0422e-05,-4.05878,0.237863,0.248042,0.845651,0.119326,
2,1,0,1,0,59571.1,0.127146,0.126792,0.0920202,31,0.00285151,10,1.16674e-05,-4.03612,0.480749,0.122725,0.443725,0.126792,
2,1,0,1,0,59578.6,0.134637,0.134259,0.0897975,31,0.00361734,10,1.20562e-05,-4.04674,-0.155178,-0.380208,-1.32977,0.134259,
2,1,0,1,0,59586,0.142128,0.141787,0.0754227,31,0.00431354,10,1.0694e-05,-4.1225,-0.0808816,-0.729461,-2.14186,0.141787,
2,1,0,1,0,59593.5,0.149619,0.149242,0.0601026,31,0.00488668,10,8.96983e-06,-4.22111,-0.0916047,-0.644072,-1.51319,0.149242,
2,1,0,1,0,59601,0.15711,0.156806,0.0535746,31,0.0053754,10,8.40081e-06,-4.27104,-0.171644,-0.343734,-0.719281,0.156806,
2,1,0,1,0,59608.5,0.164601,0.164235,0.0517254,31,0.00583152,10,8.49512e-06,-4.2863,3.73417,0.0158,0.0317832,0.164235,
2,1,0,1,0,59616,0.172091,0.171794,0.0515553,31,0.00628074,10,8.85691e-06,-4.28773,-1.51766,-0.0388757,-0.0784351,0.171794,
2,1,0,1,0,59623.5,0.179582,0.179265,0.0519559,31,0.00673138,10,9.31388e-06,-4.28437,2.15872,0.027331,0.0553915,0.179265,
2,1,0,1,0,59631,0.187073,0.18675,0.0524494,31,0.0071848,10,9.7949e-06,-4.28026,1.83205,0.0322043,0.0662562,0.18675,
2,1,0,1,0,59638.5,0.194564,0.194242,0.0533853,31,0.00764223,10,1.03697e-05,-4.27258,1.02941,0.0573146,0.118856,0.194242,
2,1,0,1,0,59646,0.202055,0.201685,0.0539311,31,0.00810334,10,1.08771e-05,-4.26816,3.12714,0.0188671,0.0395192,0.201685,
2,1,0,1,0,59653.5,0.209546,0.209173,0.0536355,31,0.00856679,10,1.12191e-05,-4.27055,-25.4644,-0.00231696,-0.00488353,0.209173,
2,1,0,1,0,59661,0.217037,0.216705,0.0551157,31,0.00903541,10,1.19438e-05,-4.25872,-5.68697,-0.0103746,-0.0223769,0.216705,
2,1,0,1,0,59668.4,0.224528,0.224187,0.0559235,31,0.00951008,10,1.25373e-05,-4.25241,0.895559,0.0658806,0.143598,0.224187,
2,1,0,1,0,59675.9,0.232019,0.231717,0.0571954,31,0.00999269,10,1.32532e-05,-4.24264,1.4038,0.0420288,0.0940796,0.231717,
2,1,0,1,0,59683.4,0.23951,0.239172,0.0579468,31,0.0104821,10,1.38592e-05,-4.23697,0.996845,0.0591867,0.133502,0.2391717,
2,1,0,1,0,59690.9,0.247001,0.246649,0.0588337,31,0.0109772,10,1.45113e-05,-4.23037,1.29991,0.0453879,0.104426,0.246649,
2,1,0,1,0,59698.4,0.254492,0.254139,0.0598829,31,0.0114792,10,1.52186e-05,-4.2227,0.703095,0.0839147,0.196997,0.254139,
2,1,0,1,0,59705.9,0.261983,0.261624,0.0609883,31,0.0119881,10,1.5956e-05,-4.21475,1.08345,0.0544558,0.128989,0.261624,
2,1,0,1,0,59713.4,0.269474,0.269122,0.0615815,31,0.0125038,10,1.65729e-05,-4.21055,1.14781,0.0514024,0.123982,0.269122,
2,1,0,1,0,59720.9,0.276965,0.27663,0.0633241,31,0.013027,10,1.75173e-05,-4.19843,1.54845,0.0381026,0.093471,0.27663,
2,1,0,1,0,59728.4,0.284456,0.284113,0.0634147,31,0.0135548,10,1.80169e-05,-4.19781,7.67817,0.00768413,0.0190342,0.284113,
2,1,0,1,0,59735.9,0.291947,0.29158,0.0642394,31,0.0140882,10,1.87309e-05,-4.1922,-16.321,-0.00361498,-0.00909649,0.29158,
2,1,0,1,0,59743.4,0.299438,0.299109,0.0647921,31,0.0146252,10,1.93799e-05,-4.18848,-0.00410107,-14.3865,-22.9432,0.299109,
2,1,0,1,0,59750.2,0.293745,0.293413,0.00716393,31,0.0147192,10,2.10199e-06,-5.14485,0.0105961,5.5681,1.57841,0.293413,
2,0,0,1,0,59757.7,0.286254,0.285943,-0.000771336,31,0.014688,10,-2.20558e-07,-6.11276,-0.00690627,-8.54296,0.759755,0.285943,
2,0,0,1,0,59765.2,0.278763,0.278487,-0.00691386,31,0.0146051,10,-1.92542e-06,-5.16028,-0.0232688,-2.53559,0.662232,0.278487,
2,0,0,1,0,59772.7,0.271272,0.270943,-0.0111775,31,0.0144833,10,-3.02846e-06,-4.95165,-0.0478152,-1.23392,0.534894,0.2709426,
2,0,0,1,0,59780.2,0.263781,0.263474,-0.0152873,31,0.0143298,10,-4.02781e-06,-4.81567,-0.0766419,-0.769814,0.444073,0.263474,
2,0,0,1,0,59787.7,0.25629,0.255941,-0.0183686,31,0.0141498,10,-4.70127e-06,-4.73592,-0.093658,-0.629952,0.452307,0.255941,
2,0,0,1,0,59795.1,0.248799,0.248426,-0.0218855,31,0.0139413,10,-5.43693e-06,-4.65984,-0.128006,-0.460914,0.39548,0.2484259,
2,0,0,1,0,59802.6,0.241308,0.240997,-0.0244645,31,0.0137109,10,-5.89586e-06,-4.61146,-0.146169,-0.403643,0.39004,0.240997,
2,0,0,1,0,59810.1,0.233817,0.23349,-0.0272525,31,0.0134597,10,-6.36318e-06,-4.56459,-0.148087,-0.398415,0.421543,0.23349,
2,0,0,1,0,59817.6,0.226326,0.225999,-0.0299928,31,0.0131875,10,-6.77835e-06,-4.52298,-0.259217,-0.227609,0.266862,0.225999,
2,0,0,1,0,59825.1,0.218835,0.218526,-0.03273,31,0.0128944,10,-7.15234e-06,-4.48505,-0.267967,-0.220176,0.281132,0.218526,
2,0,0,1,0,59832.6,0.211344,0.211023,-0.0351333,31,0.0125807,10,-7.41394e-06,-4.45428,-0.207459,-0.284394,0.390376,0.211023,
2,0,0,1,0,59840.1,0.203853,0.20354,-0.0379943,31,0.0122448,10,-7.73337e-06,-4.42028,-0.329361,-0.179135,0.269196,0.20354,
2,0,0,1,0,59847.6,0.196362,0.19602,-0.0407507,31,0.011887,10,-7.98794e-06,-4.38986,-0.268187,-0.219996,0.350076,0.19602,
2,0,0,1,0,59855.1,0.188871,0.188543,-0.0444484,31,0.0115069,10,-8.38042e-06,-4.35214,-0.213147,-0.276804,0.473722,0.188543,
2,0,0,1,0,59862.6,0.18138,0.18106,-0.0473053,31,0.0111029,10,-8.56511e-06,-4.32509,-0.229109,-0.257519,0.475418,0.18106,
2,0,0,1,0,59870.1,0.173889,0.173559,-0.0512306,31,0.010671,10,-8.89154e-06,-4.29047,-0.216024,-0.273118,0.542657,0.1735591,
2,0,0,1,0,59877.5,0.166398,0.16606,-0.0556522,31,0.0102052,10,-9.2416e-06,-4.25452,-0.223902,-0.263508,0.577451,0.1660599,
2,0,0,1,0,59885,0.158907,0.15856,-0.0615165,31,0.00969978,10,-9.75404e-06,-4.21101,-0.153248,-0.384997,0.926399,0.15856,
2,0,0,1,0,59892.5,0.151417,0.151061,-0.0694624,31,0.00914257,10,-1.04931e-05,-4.15825,-0.126969,-0.464682,1.26259,0.151061,
2,0,0,1,0,59900,0.143926,0.143618,-0.0813028,31,0.00851019,10,-1.16765e-05,-4.08989,-0.0895283,-0.65901,2.098,0.143618,
2,0,0,1,0,59907.5,0.136435,0.136102,-0.100373,31,0.00776202,10,-1.36609e-05,-3.99838,-0.0773842,-0.76243,2.96184,0.1361023,
2,0,0,1,0,59915,0.128944,0.128607,-0.120715,31,0.00685892,10,-1.55249e-05,-3.91824,-0.133351,-0.442441,2.07451,0.128607,
2,0,0,1,0,59922.5,0.121453,0.121111,-0.133179,31,0.00582793,10,-1.61295e-05,-3.87556,-0.332828,-0.177269,0.917572,0.121111,
2,0,0,1,0,59930,0.113962,0.113638,-0.1363,31,0.00474168,10,-1.54888e-05,-3.8655,-2.26224,-0.0260803,0.138554,0.113638,
2,0,0,1,0,59937.5,0.106471,0.106118,-0.136089,31,0.00364392,10,-1.44415e-05,-3.86618,-6.57894,-0.00896801,0.0479684,0.106118,
2,0,0,1,0,59945,0.0989798,0.0986488,-0.13561,31,0.00254926,10,-1.33778e-05,-3.86771,2.1731,0.0271501,-0.143274,0.0986488,
2,0,0,1,0,59952.5,0.0914889,0.0911188,-0.132887,31,0.00146925,10,-1.21085e-05,-3.87652,0.48881,0.120701,-0.62369,0.0911188,
2,0,0,1,0,59959.9,0.083998,0.08366,-0.12824,31,0.000417688,10,-1.07286e-05,-3.89198,0.408957,0.14427,-0.723077,0.08366,
2,0,0,1,0,59967.4,0.076507,0.0761576,-0.125242,31,-0.000605307,10,-9.53816e-06,-3.90225,0.65542,0.0900186,-0.439741,0.0761576,
2,0,0,1,0,59974.9,0.069016,0.0686679,-0.1212,31,-0.00160242,10,-8.32254e-06,-3.9165,0.848941,0.0694984,-0.330289,0.0686679,
2,0,0,1,0,59982.4,0.0615251,0.0611761,-0.118285,31,-0.00257417,10,-7.23624e-06,-3.92707,0.906534,0.0650831,-0.301399,0.0611761,
2,0,0,1,0,59989.9,0.0540342,0.053695,-0.115883,31,-0.00352144,10,-6.22235e-06,-3.93598,0.947293,0.0622827,-0.28084,0.053695,
2,0,0,1,0,59997.4,0.0465432,0.0461862,-0.113124,31,-0.00444909,10,-5.22478e-06,-3.94644,0.744441,0.0792541,-0.350213,0.0461862,
2,0,0,1,0,60004.9,0.0390522,0.0387124,-0.11066,31,-0.00535602,10,-4.28391e-06,-3.95601,0.613591,0.0961553,-0.413392,0.0387124,
2,0,0,1,0,60012.4,0.0315613,0.031208,-0.108331,31,-0.00624327,10,-3.38078e-06,-3.96525,0.953066,0.0619054,-0.260741,0.03120801,
2,0,0,1,0,60019.9,0.0240703,0.0237364,-0.105948,31,-0.00711482,10,-2.51482e-06,-3.97491,2.41689,0.0244115,-0.10144,0.0237364,
2,0,0,1,0,60027.4,0.0165794,0.0162563,-0.105779,31,-0.00797777,10,-1.71958e-06,-3.9756,1.50071,0.0393147,-0.16253,0.0162563,
2,0,0,1,0,60034.9,0.00908843,0.00873156,-0.106836,31,-0.00884113,10,-9.32841e-07,-3.97128,-1.161,-0.0508181,0.211782,0.00873156,
2,0,0,1,0,60042.3,0.00159744,0.0011814,-0.110094,31,-0.00971796,10,-1.30065e-07,-3.95824, , , ,0.0011814,
2,0,0,1,0,60043.7,0.000199235,-0.000164923,-0.110133,31,-0.00988446,10,1.81635e-08,-3.95808, , , ,-0.000164923,