File: Figure_codes/Fig_3-5/rawdata_trumpetplot_data/after 10th/20221101_1-115_003_TrumpetPlot_ParaChange_from10_every3_09_CV_C01_23.csv
mode,ox/red,error,control changes,counter inc.,time/s,control/V,Ewe/V,<I>/mA,cycle number,(Q-Qo)/C,I Range,P/W,log(|I|),Tafel slope mV/dec,alpha_eff,dI/d(E-IR),E-IR/V,
2,0,0,0,0,46495.5,2.44065e-05,-0.000306236,-5.25316,24,0.0000000E+000,10,1.60871e-06,-2.27958, , , ,-0.000306236,
2,1,0,1,0,46495.6,0.00978761,0.00948469,1.04364,24,-0.000116672,10,9.89862e-06,-2.98145,0.00691956,8.52656,284.218,0.00948469,
2,1,0,1,0,46495.7,0.0197755,0.0194375,2.8375,24,9.09708e-05,10,5.5154e-05,-2.54706,0.0570788,1.03366,113.757,0.0194375,
2,1,0,1,0,46495.8,0.0297635,0.0294448,3.72142,24,0.000422658,10,0.000109577,-2.42929,0.124081,0.475496,68.884,0.0294448,
2,1,0,1,0,46495.9,0.0397514,0.0394402,4.33633,24,0.000826636,10,0.000171026,-2.36288,0.164389,0.358905,60.8265,0.0394402,
2,1,0,1,0,46496,0.0497484,0.0494423,4.89406,24,0.00128813,10,0.000241973,-2.31033,0.210857,0.279811,53.3064,0.04944225,
2,1,0,1,0,46496.1,0.0597273,0.0593794,5.3827,24,0.00180104,10,0.000319621,-2.269,0.254613,0.231724,48.6418,0.0593794,
2,1,0,1,0,46496.2,0.0697152,0.0693832,5.83933,24,0.00236232,10,0.000405151,-2.23364,0.316226,0.186575,42.5248,0.0693832,
2,1,0,1,0,46496.3,0.0797031,0.0794002,6.24353,24,0.00296675,10,0.000495738,-2.20457,0.373872,0.157808,38.4572,0.0794002,
2,1,0,1,0,46496.4,0.0896911,0.0893884,6.58732,24,0.0036087,10,0.00058883,-2.18129,0.439653,0.134197,34.5402,0.0893884,
2,1,0,1,0,46496.5,0.099679,0.0993876,6.95421,24,0.00428413,10,0.000691163,-2.15775,0.400701,0.147242,39.9423,0.0993876,
2,1,0,1,0,46496.6,0.109667,0.109367,7.47168,24,0.00500286,10,0.000817154,-2.12658,0.28035,0.210452,61.411,0.109367,
2,1,0,1,0,46496.7,0.119655,0.119312,8.15709,24,0.00578336,10,0.000973242,-2.08846,0.284801,0.207162,65.9308,0.119312,
2,1,0,1,0,46496.8,0.129643,0.129357,8.78328,24,0.00663126,10,0.00113618,-2.05634,0.395405,0.149214,51.1158,0.129357,
2,1,0,1,0,46496.9,0.139631,0.139305,9.18514,24,0.0075313,10,0.00127953,-2.03691,0.712106,0.0828529,29.706,0.139305,
2,1,0,1,0,46497,0.149619,0.149321,9.27262,24,0.00845718,10,0.0013846,-2.0328,-0.865691,-0.0681537,-24.5984,0.1493213,
2,1,0,1,0,46497.1,0.159607,0.159307,8.4906,24,0.00935371,10,0.00135261,-2.07106,-0.145566,-0.405314,-134.118,0.159307,
2,1,0,1,0,46497.2,0.169595,0.169288,6.95927,24,0.0101276,10,0.00117812,-2.15744,-0.104739,-0.563304,-153.005,0.169288,
2,1,0,1,0,46497.3,0.179582,0.179301,5.68779,24,0.0107548,10,0.00101983,-2.24506,-0.131326,-0.449264,-99.9554,0.179301,
2,1,0,1,0,46497.4,0.18957,0.189269,4.93634,24,0.0112824,10,0.000934298,-2.30659,-0.204013,-0.289197,-55.7462,0.189269,
2,1,0,1,0,46497.5,0.199558,0.199279,4.49693,24,0.0117515,10,0.000896146,-2.34708,-0.333585,-0.176867,-31.0192,0.199279,
2,1,0,1,0,46497.6,0.209546,0.20923,4.23238,24,0.0121866,10,0.000885543,-2.37342,-0.398214,-0.148162,-24.4635,0.20923,
2,1,0,1,0,46497.7,0.219534,0.21921,4.05493,24,0.0126001,10,0.000888879,-2.39202,-0.629349,-0.0937477,-14.8315,0.21921,
2,1,0,1,0,46497.8,0.229522,0.229231,3.93016,24,0.0129993,10,0.000900915,-2.40559,-0.86389,-0.0682958,-10.4884,0.229231,
2,1,0,1,0,46497.9,0.23951,0.239213,3.84655,24,0.0133886,10,0.000920146,-2.41493,-1.53057,-0.0385477,-5.79487,0.239213,
2,1,0,1,0,46498,0.249498,0.249169,3.78778,24,0.0137702,10,0.000943797,-2.42162,-1.53467,-0.0384449,-5.68081,0.249169,
2,1,0,1,0,46498.1,0.259486,0.259197,3.73748,24,0.0141465,10,0.000968743,-2.42742,-1.21411,-0.0485952,-7.08455,0.2591967,
2,1,0,1,0,46498.2,0.269474,0.269176,3.68804,24,0.0145179,10,0.000992732,-2.4332,-2.32773,-0.0253466,-3.6491,0.269176,
2,1,0,1,0,46498.3,0.279462,0.279178,3.64669,24,0.014885,10,0.00101808,-2.4381,-1.83751,-0.0321086,-4.57008,0.279178,
2,1,0,1,0,46498.4,0.28945,0.289167,3.60395,24,0.0152478,10,0.00104214,-2.44322,-2.2496,-0.0262269,-3.6873,0.289167,
2,1,0,1,0,46498.5,0.299438,0.299138,3.56294,24,0.0156062,10,0.00106581,-2.44819,-0.0357939,-1.64832,-213.857,0.299138,
2,0,0,1,0,46498.6,0.291747,0.291445,-0.56125,24,0.0156885,10,-0.000163574,-3.25084,-0.00549836,-10.7305,174.307,0.291445,
2,0,0,1,0,46498.7,0.281759,0.281424,-1.50673,24,0.0155758,10,-0.00042403,-2.82196,-0.0622066,-0.948452,55.1204,0.281424,
2,0,0,1,0,46498.8,0.271771,0.271439,-1.8973,24,0.0154038,10,-0.000515003,-2.72186,-0.1389,-0.424767,31.3742,0.271439,
2,0,0,1,0,46498.9,0.261783,0.261456,-2.14885,24,0.0152007,10,-0.000561832,-2.66779,-0.242856,-0.242942,20.3493,0.2614564,
2,0,0,1,0,46499,0.251795,0.251487,-2.33575,24,0.0149757,10,-0.00058741,-2.63157,-0.317925,-0.185578,16.9304,0.251487,
2,0,0,1,0,46499.1,0.241807,0.241527,-2.49312,24,0.0147336,10,-0.000602156,-2.60326,-0.380495,-0.155061,15.116,0.241527,
2,0,0,1,0,46499.2,0.231815,0.231491,-2.63824,24,0.0144766,10,-0.000610729,-2.57869,-0.400774,-0.147215,15.1417,0.231491,
2,0,0,1,0,46499.3,0.221831,0.221528,-2.76346,24,0.0142066,10,-0.000612186,-2.55855,-0.525848,-0.1122,12.1024,0.221528,
2,0,0,1,0,46499.4,0.211843,0.211559,-2.88698,24,0.0139238,10,-0.000610768,-2.53956,-0.657276,-0.0897645,10.1114,0.211559,
2,0,0,1,0,46499.5,0.201856,0.20157,-3.01047,24,0.0136286,10,-0.000606821,-2.52137,-0.550437,-0.107188,12.601,0.20157,
2,0,0,1,0,46499.6,0.191868,0.191526,-3.14301,24,0.0133209,10,-0.000601967,-2.50265,-0.535647,-0.110147,13.5324,0.191526,
2,0,0,1,0,46499.7,0.18188,0.181588,-3.29345,24,0.0129999,10,-0.000598052,-2.48235,-0.404007,-0.146037,18.7241,0.181588,
2,0,0,1,0,46499.8,0.171892,0.171535,-3.4635,24,0.0126626,10,-0.00059411,-2.46049,-0.424692,-0.138924,18.768,0.171535,
2,0,0,1,0,46499.9,0.161904,0.161575,-3.70112,24,0.0123052,10,-0.000598009,-2.43167,-0.296149,-0.199224,28.7593,0.161575,
2,0,0,1,0,46500,0.151916,0.151575,-4.06429,24,0.0119185,10,-0.000616044,-2.39102,-0.200605,-0.29411,46.7437,0.151575,
2,0,0,1,0,46500.1,0.141928,0.141615,-4.72238,24,0.0114825,10,-0.000668759,-2.32584,-0.122243,-0.482645,89.0798,0.1416146,
2,0,0,1,0,46500.2,0.13194,0.131569,-5.81849,24,0.0109595,10,-0.000765534,-2.23519,-0.103411,-0.57054,129.63,0.131569,
2,0,0,1,0,46500.3,0.121952,0.121648,-7.1159,24,0.0103128,10,-0.000865636,-2.14777,-0.131845,-0.447495,124.088,0.121648,
2,0,0,1,0,46500.4,0.111964,0.111656,-8.22219,24,0.00954385,10,-0.000918055,-2.08501,-0.192501,-0.306492,98.2724,0.111656,
2,0,0,1,0,46500.5,0.101976,0.101689,-8.99213,24,0.00867981,10,-0.000914405,-2.04614,-0.391319,-0.150772,52.8474,0.101689,
2,0,0,1,0,46500.6,0.0919883,0.0916926,-9.28258,24,0.00776226,10,-0.000851144,-2.03233,-3.10674,-0.018991,6.87723,0.0916926,
2,0,0,1,0,46500.7,0.0820004,0.0816763,-9.1278,24,0.0068403,10,-0.000745525,-2.03963,0.716351,0.0823619,-29.3302,0.0816763,
2,0,0,1,0,46500.8,0.0720124,0.0717033,-8.81458,24,0.00594397,10,-0.000632034,-2.0548,0.68495,0.0861377,-29.6432,0.07170327,
2,0,0,1,0,46500.9,0.0620245,0.0617246,-8.55683,24,0.00507639,10,-0.000528167,-2.06769,0.768586,0.0767644,-25.6417,0.06172464,
2,0,0,1,0,46501,0.0520366,0.0516872,-8.33033,24,0.00423252,10,-0.000430571,-2.07934,0.773081,0.076318,-24.7978,0.0516872,
2,0,0,1,0,46501.1,0.0420486,0.041768,-8.06709,24,0.00341272,10,-0.000336946,-2.09328,0.705358,0.0836454,-26.3493,0.041768,
2,0,0,1,0,46501.2,0.0320607,0.0317592,-7.76927,24,0.00262149,10,-0.000246746,-2.10962,0.549047,0.107459,-32.5647,0.0317592,
2,0,0,1,0,46501.3,0.0220728,0.0217409,-7.40357,24,0.00186314,10,-0.00016096,-2.13056,0.438816,0.134453,-38.8327,0.0217409,
2,0,0,1,0,46501.4,0.0120848,0.0117184,-7.02759,24,0.00114252,10,-8.23518e-05,-2.15319,0.432276,0.136487,-37.4376,0.0117184,
2,0,0,1,0,46501.5,0.0020969,0.00173437,-6.76394,24,0.000456562,10,-1.17312e-05,-2.1698,0.82258,0.0717255,-18.8413,0.00173437,
2,0,0,1,0,46501.6,-0.00789103,-0.00824532,-6.53182,24,-0.000206077,10,5.38569e-05,-2.18497,1.26718,0.0465601,-11.8889,-0.00824532,
2,0,0,1,0,46501.7,-0.017879,-0.0182396,-6.48175,24,-0.00085494,10,0.000118225,-2.18831,-38.936,-0.00151531,0.383031,-0.0182396,
2,0,0,1,0,46501.8,-0.0278669,-0.0282501,-6.52729,24,-0.00150414,10,0.000184397,-2.18527,-1.7645,-0.0334373,8.5247,-0.0282501,
2,0,0,1,0,46501.9,-0.0378548,-0.0382274,-6.66896,24,-0.00216295,10,0.000254937,-2.17594,-0.889806,-0.0663066,17.2477,-0.0382274,
2,0,0,1,0,46502,-0.0478428,-0.048228,-6.86875,24,-0.00283909,10,0.000331266,-2.16312,-0.566034,-0.104234,27.9771,-0.048228,
2,0,0,1,0,46502.1,-0.0578217,-0.0582467,-7.14007,24,-0.00353808,10,0.000415885,-2.1463,-0.540978,-0.109062,30.3839,-0.0582467,
2,0,0,1,0,46502.2,-0.0678187,-0.0681833,-7.4666,24,-0.00426721,10,0.000509097,-2.12688,-0.452331,-0.130435,38.0016,-0.0681833,
2,0,0,1,0,46502.3,-0.0778066,-0.0782038,-7.85451,24,-0.00503244,10,0.000614252,-2.10488,-0.422618,-0.139606,42.8433,-0.0782038,
2,0,0,1,0,46502.4,-0.0877945,-0.0881631,-8.32891,24,-0.00584082,10,0.000734302,-2.07941,-0.381663,-0.154586,50.2342,-0.0881631,
2,0,0,1,0,46502.5,-0.0977825,-0.0981782,-8.82299,24,-0.00669789,10,0.000866226,-2.05438,-0.402603,-0.146546,50.4738,-0.0981782,
2,0,0,1,1,46502.6,-0.0927386,-0.093121,-2.8259,24,-0.00727267,10,0.000263151,-2.54884,-0.0128079,-4.60654,502.055,-0.093121,
2,1,0,1,1,46502.7,-0.0827529,-0.0831244,0.672893,24,-0.00735859,10,-5.59338e-05,-3.17205,0.00456385,12.9277,246.224,-0.0831244,
2,1,0,1,1,46502.8,-0.0727627,-0.0731406,2.57125,24,-0.00718728,10,-0.000188063,-2.58986,0.0397218,1.48533,147.153,-0.0731406,
2,1,0,1,1,46502.9,-0.0627748,-0.0631248,3.70077,24,-0.00686832,10,-0.00023361,-2.43171,0.0962958,0.612695,88.4336,-0.0631248,
2,1,0,1,1,46503,-0.0527868,-0.0531449,4.39995,24,-0.00645946,10,-0.000233835,-2.35655,0.191457,0.308164,52.7949,-0.0531449,
2,1,0,1,1,46503.1,-0.0427989,-0.0431317,4.81228,24,-0.00599641,10,-0.000207562,-2.31765,0.322536,0.182925,34.3368,-0.0431317,
2,1,0,1,1,46503.2,-0.0328109,-0.0331776,5.04702,24,-0.00550226,10,-0.000167448,-2.29696,0.652297,0.0904496,17.799,-0.0331776,
2,1,0,1,1,46503.3,-0.022823,-0.0231579,5.15112,24,-0.00499132,10,-0.000119289,-2.2881,1.99874,0.0295186,5.93431,-0.0231579,
2,1,0,1,1,46503.4,-0.0128351,-0.0131806,5.17919,24,-0.00447394,10,-6.8265e-05,-2.28574,-56.5282,-0.00104373,-0.211024,-0.0131806,
2,1,0,1,1,46503.5,-0.00284713,-0.00321539,5.17404,24,-0.00395557,10,-1.66366e-05,-2.28617,-4.76732,-0.0123759,-2.4996,-0.00321539,
2,1,0,1,1,46503.5,-2.55332e-05,-0.000401673,5.20066,24,-0.00380996,10,-2.08896e-06,-2.28394, , , ,-0.000401673,