File: Figure_codes/Fig_3-5/rawdata_trumpetplot_data/after 10th/20221101_1-115_003_TrumpetPlot_ParaChange_from10_every3_10_CV_C01_18.csv
mode,ox/red,error,control changes,counter inc.,time/s,control/V,Ewe/V,<I>/mA,cycle number,(Q-Qo)/C,I Range,P/W,log(|I|),Tafel slope mV/dec,alpha_eff,dI/d(E-IR),E-IR/V,
2,1,0,0,0,36652.9,-2.44065e-05,-0.000325324,5.15741,19,0.0000000E+000,10,-1.67783e-06,-2.28757, , , ,-0.000325324,
2,1,0,1,0,36652.9,0.00977853,0.00947601,7.59025,19,0.000322722,10,7.19253e-05,-2.11974,0.11778,0.500936,147.718,0.00947601,
2,1,0,1,0,36653,0.0197755,0.0193893,8.70677,19,0.000732655,10,0.000168818,-2.06014,0.232382,0.253892,86.2743,0.0193893,
2,1,0,1,0,36653,0.0297726,0.0294518,9.46488,19,0.001188,10,0.000278757,-2.02388,0.33059,0.178469,65.8463,0.02945176,
2,1,0,1,0,36653.1,0.0397514,0.0394526,10.0887,19,0.00167616,10,0.000398025,-1.99617,0.350782,0.168196,66.3152,0.0394526,
2,1,0,1,0,36653.1,0.0497393,0.0493833,10.7361,19,0.00219556,10,0.000530182,-1.96916,0.392106,0.150469,62.9046,0.0493833,
2,1,0,1,0,36653.2,0.0597364,0.059424,11.3614,19,0.00274762,10,0.000675142,-1.94457,0.376441,0.156731,69.5316,0.05942405,
2,1,0,1,0,36653.2,0.0697152,0.0693458,12.0443,19,0.00333157,10,0.000835219,-1.91922,0.41541,0.142028,66.7045,0.0693458,
2,1,0,1,0,36653.3,0.0796941,0.079346,12.6843,19,0.00394878,10,0.00100644,-1.89674,0.444899,0.132614,65.7392,0.079346,
2,1,0,1,0,36653.3,0.0896911,0.0893556,13.3409,19,0.00460002,10,0.00119208,-1.87482,0.509802,0.115731,60.2148,0.0893556,
2,1,0,1,0,36653.4,0.099679,0.0993518,13.9228,19,0.0052803,10,0.00138325,-1.85627,0.541781,0.1089,59.1812,0.0993518,
2,1,0,1,0,36653.4,0.109658,0.109396,14.5585,19,0.00599033,10,0.00159263,-1.83688,0.479009,0.123171,69.9334,0.109396,
2,1,0,1,0,36653.5,0.119655,0.119381,15.3546,19,0.00673733,10,0.00183304,-1.81376,0.403488,0.146225,87.6981,0.119381,
2,1,0,1,0,36653.5,0.129652,0.129314,16.3307,19,0.00752926,10,0.00211178,-1.787,0.375076,0.157302,100.19,0.129314,
2,1,0,1,0,36653.6,0.139631,0.139337,17.2732,19,0.00836846,10,0.00240679,-1.76263,0.452186,0.130477,88.0033,0.139337,
2,1,0,1,0,36653.6,0.149619,0.149295,18.0553,19,0.0092511,10,0.00269557,-1.74339,0.646346,0.0912823,64.2542,0.149295,
2,1,0,1,0,36653.7,0.159616,0.159321,18.4229,19,0.0101656,10,0.00293516,-1.73464,57.7818,0.00102108,0.734079,0.159321,
2,1,0,1,0,36653.7,0.169595,0.169304,17.9308,19,0.0110774,10,0.00303576,-1.7464,-0.363897,-0.162134,-113.227,0.169304,
2,1,0,1,0,36653.8,0.179573,0.179255,16.2161,19,0.0119335,10,0.00290681,-1.79005,-0.173214,-0.340618,-215.503,0.179255,
2,1,0,1,0,36653.8,0.18957,0.189226,13.9501,19,0.0126877,10,0.00263972,-1.85542,-0.148274,-0.397911,-216.599,0.189226,
2,1,0,1,0,36653.9,0.199558,0.199249,12.0106,19,0.0133327,10,0.00239311,-1.92043,-0.170067,-0.346922,-162.766,0.199249,
2,1,0,1,0,36653.9,0.209537,0.209244,10.6659,19,0.0138959,10,0.00223177,-1.972,-0.214113,-0.275556,-114.662,0.209244,
2,1,0,1,0,36654,0.219534,0.219189,9.73594,19,0.0144041,10,0.00213401,-2.01162,-0.308852,-0.19103,-72.6552,0.219189,
2,1,0,1,0,36654,0.229531,0.229218,9.1053,19,0.0148744,10,0.0020871,-2.04071,-0.38505,-0.153227,-54.4487,0.229218,
2,1,0,1,0,36654.1,0.23951,0.239232,8.65635,19,0.0153169,10,0.00207088,-2.06267,-0.537291,-0.10981,-37.1402,0.239232,
2,1,0,1,0,36654.1,0.249498,0.249195,8.32736,19,0.0157402,10,0.00207514,-2.07949,-0.612651,-0.0963027,-31.2707,0.249195,
2,1,0,1,0,36654.2,0.259495,0.259199,8.06536,19,0.0161497,10,0.00209053,-2.09338,-0.737415,-0.0800093,-25.1997,0.259199,
2,1,0,1,0,36654.2,0.269474,0.269162,7.86835,19,0.016547,10,0.00211786,-2.10412,-1.06858,-0.0552136,-16.9425,0.269162,
2,1,0,1,0,36654.3,0.279453,0.279104,7.68912,19,0.016935,10,0.00214607,-2.11412,-1.0559,-0.0558765,-16.7913,0.279104,
2,1,0,1,0,36654.3,0.28945,0.289123,7.54215,19,0.0173158,10,0.00218061,-2.1225,-1.47427,-0.0400199,-11.7749,0.289123,
2,1,0,1,0,36654.4,0.299438,0.299104,7.4055,19,0.0176887,10,0.00221501,-2.13045,-0.0674906,-0.874196,-244.057,0.299104,
2,1,0,1,0,36654.4,0.291747,0.291425,0.926077,19,0.0178487,10,0.000269882,-3.03335,0.00421416,14.0004,404.983,0.2914252,
2,0,0,1,0,36654.5,0.28175,0.281436,-1.60173,19,0.0178219,10,-0.000450784,-2.79541,-0.0218651,-2.69836,163.777,0.281436,
2,0,0,1,0,36654.5,0.27178,0.271462,-2.77475,19,0.01771,10,-0.00075324,-2.55678,-0.0696237,-0.847412,91.1448,0.271462,
2,0,0,1,0,36654.6,0.261783,0.261469,-3.47281,19,0.0175527,10,-0.000908033,-2.45932,-0.142901,-0.412873,55.8327,0.261469,
2,0,0,1,0,36654.6,0.251786,0.251477,-3.96421,19,0.0173661,10,-0.000996909,-2.40184,-0.217442,-0.271337,41.9367,0.251477,
2,0,0,1,0,36654.7,0.241807,0.241493,-4.34636,19,0.0171582,10,-0.00104962,-2.36187,-0.295409,-0.199723,33.9282,0.241493,
2,0,0,1,0,36654.7,0.231824,0.231486,-4.68114,19,0.0169328,10,-0.00108362,-2.32965,-0.332373,-0.177511,32.3647,0.231486,
2,0,0,1,0,36654.8,0.221822,0.221503,-4.9591,19,0.0166917,10,-0.00109846,-2.3046,-0.397901,-0.148278,28.6964,0.221503,
2,0,0,1,0,36654.8,0.211843,0.211556,-5.23152,19,0.0164374,10,-0.00110676,-2.28137,-0.531323,-0.111044,22.6504,0.211556,
2,0,0,1,0,36654.9,0.201865,0.201541,-5.47902,19,0.0161702,10,-0.00110425,-2.2613,-0.516477,-0.114235,24.4806,0.201541,
2,0,0,1,0,36654.9,0.191868,0.19153,-5.74906,19,0.0158894,10,-0.00110112,-2.2404,-0.502863,-0.117328,26.2893,0.19153,
2,0,0,1,0,36655,0.18188,0.181574,-6.02622,19,0.0155961,10,-0.00109421,-2.21996,-0.424714,-0.138917,32.6635,0.181574,
2,0,0,1,0,36655,0.171901,0.171568,-6.35604,19,0.0152876,10,-0.00109049,-2.19681,-0.418199,-0.141081,34.9084,0.171568,
2,0,0,1,0,36655.1,0.161904,0.161566,-6.75077,19,0.0149607,10,-0.00109069,-2.17065,-0.317433,-0.185866,49.0395,0.1615655,
2,0,0,1,0,36655.1,0.151907,0.151611,-7.33549,19,0.0146093,10,-0.00111214,-2.13457,-0.243476,-0.242324,69.4173,0.151611,
2,0,0,1,0,36655.2,0.141928,0.14163,-8.26158,19,0.014222,10,-0.00117009,-2.08294,-0.156254,-0.37759,122.008,0.14163,
2,0,0,1,0,36655.2,0.13194,0.131667,-9.7546,19,0.0137749,10,-0.00128436,-2.01079,-0.126409,-0.466739,177.569,0.131667,
2,0,0,1,0,36655.3,0.121943,0.121617,-11.6626,19,0.0132402,10,-0.00141837,-1.9332,-0.136281,-0.432929,197.052,0.121617,
2,0,0,1,0,36655.3,0.111964,0.111664,-13.5749,19,0.0126099,10,-0.00151583,-1.86726,-0.174326,-0.338447,179.015,0.111664,
2,0,0,1,0,36655.4,0.101985,0.101692,-15.1829,19,0.0118907,10,-0.00154398,-1.81865,-0.250067,-0.235937,139.751,0.101692,
2,0,0,1,0,36655.4,0.0919883,0.0916981,-16.3748,19,0.0110996,10,-0.00150154,-1.78582,-0.382526,-0.154238,98.4816,0.0916981,
2,0,0,1,0,36655.5,0.0820004,0.0816682,-17.0135,19,0.0102636,10,-0.00138947,-1.76921,-1.17284,-0.0503051,33.3962,0.08166822,
2,0,0,1,0,36655.5,0.0720215,0.0717206,-17.0915,19,0.00941068,10,-0.00122581,-1.76722,2.66864,0.0221086,-14.7334,0.0717206,
2,0,0,1,0,36655.6,0.0620245,0.0617501,-16.7937,19,0.00856271,10,-0.00103701,-1.77485,1.07743,0.0547599,-35.9239,0.0617501,
2,0,0,1,0,36655.6,0.0520275,0.0516998,-16.4622,19,0.00773113,10,-0.000851089,-1.78351,1.03511,0.0569988,-36.6048,0.0516998,
2,0,0,1,0,36655.7,0.0420486,0.0417336,-16.1108,19,0.00691822,10,-0.000672362,-1.79288,1.09887,0.0536917,-33.792,0.0417336,
2,0,0,1,0,36655.7,0.0320607,0.0316997,-15.7542,19,0.00612293,10,-0.000499403,-1.8026,0.894326,0.0659715,-40.5275,0.0316997,
2,0,0,1,0,36655.8,0.0220637,0.0217743,-15.2937,19,0.00534645,10,-0.000333011,-1.81549,0.702814,0.0839483,-50.1103,0.02177432,
2,0,0,1,0,36655.8,0.0120848,0.011718,-14.7371,19,0.00459669,10,-0.000172689,-1.83159,0.518552,0.113778,-65.3985,0.011718,
2,0,0,1,0,36655.9,0.00210598,0.00170574,-14.1058,19,0.00387813,10,-2.40608e-05,-1.8506,0.543453,0.108565,-59.6673,0.00170574,
2,0,0,1,0,36655.9,-0.00789103,-0.00825871,-13.4392,19,0.00319008,10,0.000110991,-1.87163,0.54251,0.108754,-57.069,-0.00825871,
2,0,0,1,0,36656,-0.017879,-0.0182714,-12.9592,19,0.00253218,10,0.000236782,-1.88742,0.778149,0.075821,-38.3539,-0.0182714,
2,0,0,1,0,36656,-0.0278578,-0.028211,-12.6574,19,0.00189388,10,0.000357078,-1.89766,1.36497,0.0432243,-21.3651,-0.028211,
2,0,0,1,0,36656.1,-0.0378548,-0.0382328,-12.5456,19,0.00126439,10,0.000479654,-1.90151,5.29579,0.0111409,-5.45586,-0.0382328,
2,0,0,1,0,36656.1,-0.0478519,-0.0482284,-12.5798,19,0.000636734,10,0.000606706,-1.90032,-2.07721,-0.0284035,13.9499,-0.0482284,
2,0,0,1,0,36656.2,-0.0578126,-0.0581842,-12.7261,19,6.73751e-06,10,0.000740458,-1.8953,-1.47683,-0.0399504,19.859,-0.0581842,
2,0,0,1,0,36656.2,-0.0678187,-0.0682163,-12.9922,19,-0.000635989,10,0.000886282,-1.88632,-0.945366,-0.0624097,31.6243,-0.0682163,
2,0,0,1,0,36656.3,-0.0778157,-0.0782346,-13.3248,19,-0.00129381,10,0.00104246,-1.87534,-0.801266,-0.0736334,38.3442,-0.0782346,
2,0,0,1,0,36656.3,-0.0877945,-0.0881525,-13.7864,19,-0.00196996,10,0.0012153,-1.86055,-0.635961,-0.092773,49.8711,-0.0881525,
2,0,0,1,0,36656.4,-0.0977734,-0.0981774,-14.3048,19,-0.00267056,10,0.00140441,-1.84452,-0.560461,-0.10527,58.8237,-0.0981774,
2,0,0,1,1,36656.4,-0.0936874,-0.0940926,-7.20358,19,-0.0031528,10,0.000677804,-2.14245,-0.0211224,-2.79324,786.374,-0.0940926,
2,0,0,1,1,36656.4,-0.0837086,-0.0840918,-1.38111,19,-0.00335286,10,0.00011614,-2.85977,-0.00613984,-9.60937,443.621,-0.0840918,
2,1,0,1,1,36656.5,-0.0737025,-0.074156,2.29871,19,-0.00332312,10,-0.000170463,-2.63852,0.0171946,3.43132,295.78,-0.074156,
2,1,0,1,1,36656.5,-0.0637236,-0.0641438,4.78374,19,-0.0031426,10,-0.000306847,-2.32023,0.0530486,1.11219,207.027,-0.0641438,
2,1,0,1,1,36656.6,-0.0537447,-0.0540778,6.55255,19,-0.00285699,10,-0.000354347,-2.18359,0.105126,0.561231,142.908,-0.0540778,
2,1,0,1,1,36656.6,-0.0437477,-0.0441012,7.76471,19,-0.00249698,10,-0.000342433,-2.10987,0.178979,0.329647,99.8907,-0.0441012,
2,1,0,1,1,36656.7,-0.0337507,-0.0341385,8.6217,19,-0.00208569,10,-0.000294332,-2.06441,0.285036,0.206991,69.5489,-0.0341385,
2,1,0,1,1,36656.7,-0.0237809,-0.0241411,9.17112,19,-0.00164168,10,-0.000221401,-2.03758,0.461642,0.127805,45.7466,-0.0241411,
2,1,0,1,1,36656.8,-0.0137839,-0.0141697,9.52119,19,-0.0011736,10,-0.000134913,-2.02131,0.932796,0.0632507,23.4911,-0.0141697,
2,1,0,1,1,36656.8,-0.0037869,-0.0041801,9.71729,19,-0.000692082,10,-4.06192e-05,-2.01245,1.37558,0.0428909,16.2738,-0.0041801,
2,1,0,1,1,36656.9,-2.55332e-05,-0.000363498,9.75528,19,-0.000509804,10,-3.54603e-06,-2.01076, , , ,-0.000363498,