File: Figure_codes/Fig_3-5/rawdata_trumpetplot_data/after 10th/20221101_1-115_003_TrumpetPlot_ParaChange_from10_every3_14_CV_C01_33.csv
mode,ox/red,error,control changes,counter inc.,time/s,control/V,Ewe/V,<I>/mA,cycle number,(Q-Qo)/C,I Range,P/W,log(|I|),Tafel slope mV/dec,alpha_eff,dI/d(E-IR),E-IR/V,
2,1,0,1,0,66213.4,2.44065e-05,-0.000248974,29.3756,34,0.0000000E+000,10,-7.31377e-06,-1.53201, , , ,-0.000248974,
2,1,0,1,0,66213.4,0.0133084,0.0129319,32.9672,34,0.000412407,10,0.000426327,-1.48192,0.354291,0.16653,213.468,0.0129319,
2,1,0,1,0,66213.4,0.0273414,0.0269982,35.6478,34,0.000893636,10,0.000962425,-1.44797,0.465112,0.126851,176.028,0.0269982,
2,1,0,1,0,66213.5,0.0413245,0.0409796,37.9289,34,0.00140916,10,0.00155431,-1.42103,0.568256,0.103827,153.441,0.0409796,
2,1,0,1,0,66213.5,0.0553076,0.0549908,39.9569,34,0.0019547,10,0.00219726,-1.39841,0.651884,0.0905069,141.06,0.0549908,
2,1,0,1,0,66213.5,0.0693407,0.0689818,41.8395,34,0.00252764,10,0.00288616,-1.37841,0.744448,0.0792534,129.276,0.0689818,
2,1,0,1,0,66213.5,0.0833238,0.0829293,43.568,34,0.00312578,10,0.00361306,-1.36083,0.823503,0.0716452,121.788,0.0829293,
2,1,0,1,0,66213.5,0.0973069,0.0969193,45.2587,34,0.00374777,10,0.00438644,-1.3443,0.843807,0.0699212,123.544,0.0969193,
2,1,0,1,0,66213.5,0.11134,0.110916,46.9803,34,0.00439368,10,0.00521085,-1.32808,0.890929,0.066223,121.376,0.110916,
2,1,0,1,0,66213.5,0.125323,0.124897,48.651,34,0.00506332,10,0.00607636,-1.31291,0.913627,0.0645778,122.666,0.124897,
2,1,0,1,0,66213.5,0.139306,0.138929,50.4599,34,0.00575681,10,0.00701037,-1.29705,0.851315,0.0693046,136.511,0.138929,
2,1,0,1,0,66213.6,0.153339,0.152929,52.4069,34,0.00647704,10,0.00801453,-1.28061,0.855869,0.0689358,141.041,0.152929,
2,1,0,1,0,66213.6,0.167322,0.166932,54.4303,34,0.00722509,10,0.00908613,-1.26416,0.869521,0.0678535,144.094,0.166932,
2,1,0,1,0,66213.6,0.181305,0.180975,56.394,34,0.00800121,10,0.0102059,-1.24877,0.965538,0.0611058,134.403,0.1809745,
2,1,0,1,0,66213.6,0.195338,0.194967,58.1425,34,0.00880355,10,0.0113359,-1.23551,1.24229,0.0474928,107.622,0.194967,
2,1,0,1,0,66213.6,0.209322,0.208983,59.4016,34,0.00962712,10,0.0124139,-1.2262,2.01093,0.0293397,67.896,0.208983,
2,1,0,1,0,66213.6,0.223305,0.222998,60.0241,34,0.010464,10,0.0133853,-1.22167,6.52751,0.00903867,21.1387,0.222998,
2,1,0,1,0,66213.6,0.237338,0.237009,59.9857,34,0.0113049,10,0.0142171,-1.22195,-4.46825,-0.0132043,-30.8535,0.2370085,
2,1,0,1,0,66213.7,0.251321,0.25102,59.2032,34,0.01214,10,0.0148612,-1.22765,-1.70842,-0.0345349,-79.647,0.25102,
2,1,0,1,0,66213.7,0.265304,0.264983,57.7373,34,0.0129592,10,0.0152994,-1.23854,-1.05525,-0.0559111,-125.791,0.264983,
2,1,0,1,0,66213.7,0.279337,0.27902,55.691,34,0.0137538,10,0.0155389,-1.25422,-0.765001,-0.0771241,-167.371,0.27902,
2,1,0,1,0,66213.7,0.29332,0.293032,53.1729,34,0.0145159,10,0.0155814,-1.27431,-0.651098,-0.0906162,-188.409,0.2930319,
2,1,0,1,0,66213.7,0.298714,0.298557,49.4567,34,0.0149327,10,0.0147656,-1.30578,0.0667574,0.883797,1565.43,0.2985566,
2,1,0,1,0,66213.7,0.28473,0.284502,33.4938,34,0.015501,10,0.00952905,-1.47504,0.0851852,0.692608,909.638,0.284502,
2,1,0,1,0,66213.7,0.270747,0.270494,22.5826,34,0.015889,10,0.00610847,-1.64623,0.0756517,0.77989,685.101,0.270494,
2,1,0,1,0,66213.8,0.256714,0.256472,14.0287,34,0.0161421,10,0.00359798,-1.85298,0.0582537,1.01281,546.755,0.256472,
2,1,0,1,0,66213.8,0.242731,0.242423,7.13225,34,0.016288,10,0.00172902,-2.14677,0.0345668,1.70684,446.925,0.242423,
2,1,0,1,0,66213.8,0.228748,0.228504,1.45383,34,0.0163463,10,0.000332206,-2.83749,0.0307619,1.91796,371.148,0.228504,
2,0,0,1,0,66213.8,0.214715,0.214379,-3.31185,34,0.0163317,10,-0.000709993,-2.47993,-0.0176048,-3.35136,312.21,0.214379,
2,0,0,1,0,66213.8,0.200732,0.200435,-7.34069,34,0.016256,10,-0.00147133,-2.13426,-0.0607269,-0.971563,266.975,0.200435,
2,0,0,1,0,66213.8,0.186735,0.186427,-10.8483,34,0.0161279,10,-0.00202242,-1.96464,-0.104483,-0.564685,235.192,0.186427,
2,0,0,1,0,66213.8,0.172716,0.172383,-13.9666,34,0.0159534,10,-0.00240761,-1.85491,-0.15114,-0.390367,211.128,0.172383,
2,0,0,1,0,66213.9,0.158733,0.15843,-16.8293,34,0.0157374,10,-0.00266626,-1.77393,-0.190937,-0.309002,202.461,0.15843,
2,0,0,1,0,66213.9,0.144719,0.144414,-19.7281,34,0.0154814,10,-0.00284901,-1.70492,-0.214468,-0.275099,211.63,0.1444138,
2,0,0,1,0,66213.9,0.130717,0.130416,-22.8564,34,0.0151834,10,-0.00298085,-1.64099,-0.21921,-0.269149,240.471,0.130416,
2,0,0,1,0,66213.9,0.116733,0.116443,-26.5337,34,0.0148381,10,-0.00308967,-1.5762,-0.214394,-0.275194,285.229,0.116443,
2,0,0,1,0,66213.9,0.102703,0.102409,-30.788,34,0.0144371,10,-0.00315297,-1.51162,-0.228015,-0.258754,310.056,0.102409,
2,0,0,1,0,66213.9,0.0887173,0.0884731,-35.0671,34,0.0139756,10,-0.00310249,-1.4551,-0.267121,-0.220874,301.558,0.0884731,
2,0,0,1,0,66213.9,0.0747341,0.0744355,-39.1484,34,0.0134552,10,-0.00291403,-1.40729,-0.326493,-0.180708,275.223,0.0744355,
2,0,0,1,0,66213.9,0.0607011,0.0603617,-42.7781,34,0.012881,10,-0.00258216,-1.36878,-0.419618,-0.140604,233.718,0.0603617,
2,0,0,1,0,66214,0.046718,0.0464566,-45.7291,34,0.0122609,10,-0.00212442,-1.33981,-0.538937,-0.109475,194.82,0.0464566,
2,0,0,1,0,66214,0.0327349,0.0324635,-48.1701,34,0.0116029,10,-0.00156377,-1.31722,-0.707471,-0.0833956,156.454,0.0324635,
2,0,0,1,0,66214,0.0187018,0.0184842,-50.1654,34,0.0109141,10,-0.000927266,-1.2996,-0.8956,-0.0658776,128.755,0.0184842,
2,0,0,1,0,66214,0.00471874,0.00441575,-51.7279,34,0.0102002,10,-0.000228418,-1.28628,-1.23774,-0.0476675,96.1063,0.00441575,
2,0,0,1,0,66214,-0.00926437,-0.00961343,-52.8475,34,0.00946729,10,0.000508046,-1.27698,-1.95844,-0.030126,62.0519,-0.00961343,
2,0,0,1,0,66214,-0.0232974,-0.0236299,-53.5499,34,0.00872213,10,0.00126538,-1.27124,-3.53729,-0.0166794,34.7973,-0.0236299,
2,0,0,1,0,66214,-0.0372805,-0.0376135,-53.8005,34,0.00797034,10,0.00202362,-1.26921,-17.5646,-0.00335904,7.04573,-0.0376135,
2,0,0,1,0,66214.1,-0.0512637,-0.0516681,-53.7642,34,0.00721722,10,0.00277789,-1.26951,11.4529,0.00515155,-10.8004,-0.0516681,
2,0,0,1,0,66214.1,-0.0652967,-0.0656612,-53.5694,34,0.00646599,10,0.00351743,-1.27108,6.97683,0.00845657,-17.6654,-0.0656612,
2,0,0,1,0,66214.1,-0.0792798,-0.0796003,-53.2396,34,0.00571831,10,0.00423789,-1.27377,5.29343,0.0111459,-23.162,-0.0796003,
2,0,0,1,0,66214.1,-0.0932629,-0.0936061,-52.9355,34,0.00497512,10,0.00495509,-1.27625,5.93709,0.00993752,-20.5327,-0.0936061,
2,0,0,1,0,66214.1,-0.107296,-0.107702,-52.7313,34,0.00423574,10,0.00567927,-1.27793,10.2051,0.00578145,-11.8945,-0.107702,
2,0,0,1,0,66214.1,-0.121279,-0.121611,-52.567,34,0.00349884,10,0.00639276,-1.27929,17.3176,0.00340695,-6.99261,-0.121611,
2,0,0,1,0,66214.1,-0.135262,-0.135608,-52.5363,34,0.00276323,10,0.00712433,-1.27954,-43.997,-0.001341,2.75093,-0.135608,
2,0,0,1,0,66214.2,-0.149295,-0.14964,-52.6865,34,0.00202683,10,0.00788401,-1.2783,-8.90765,-0.00662352,13.6175,-0.14964,
2,0,0,1,0,66214.2,-0.163278,-0.163622,-52.8947,34,0.00128784,10,0.00865472,-1.27659,-6.28207,-0.00939181,19.396,-0.163622,
2,0,0,1,0,66214.2,-0.177261,-0.177622,-53.2015,34,0.000545143,10,0.00944976,-1.27408,-5.34145,-0.0110457,22.9361,-0.177622,
2,0,0,1,0,66214.2,-0.191295,-0.191616,-53.5732,34,-0.000202227,10,0.0102655,-1.27105,-5.13024,-0.0115004,24.0283,-0.191616,
2,0,0,0,1,66214.2,-0.199984,-0.200265,-53.4154,34,-0.000701143,10,0.0106972,-1.27233,-0.0450464,-1.30976,2450.53,-0.200265,
2,0,0,1,1,66214.2,-0.186686,-0.187119,-36.7027,34,-0.00127157,10,0.00686777,-1.4353,-0.0942832,-0.625774,907.679,-0.187119,
2,0,0,1,1,66214.2,-0.172667,-0.173082,-26.2791,34,-0.00170742,10,0.00454842,-1.58039,-0.0931797,-0.633185,649.555,-0.173082,
2,0,0,1,1,66214.3,-0.158684,-0.159075,-18.1674,34,-0.00201585,10,0.00288998,-1.74071,-0.0786821,-0.749853,528.36,-0.159075,
2,0,0,1,1,66214.3,-0.14467,-0.145074,-11.3238,34,-0.00222073,10,0.0016428,-1.94601,-0.0560637,-1.05237,455.199,-0.145074,
2,0,0,1,1,66214.3,-0.130668,-0.131087,-5.35316,34,-0.00233608,10,0.000701731,-2.27139,-0.0271047,-2.17675,402.964,-0.131087,
2,0,0,1,1,66214.3,-0.116685,-0.117096,0.00615192,34,-0.0023724,10,-7.20367e-07,-5.21099,-0.733144,-0.0804753,366.835,-0.117096,
2,1,0,1,1,66214.3,-0.102654,-0.103113,4.95006,34,-0.00233703,10,-0.000510414,-2.30539,0.0293956,2.0071,337.394,-0.1031127,
2,1,0,1,1,66214.3,-0.0886685,-0.089179,9.46419,34,-0.00223532,10,-0.000844007,-2.02392,0.0677698,0.870594,312.615,-0.08917895,
2,1,0,1,1,66214.3,-0.0746854,-0.0751392,13.7106,34,-0.00207221,10,-0.0010302,-1.86294,0.107141,0.550677,290.759,-0.0751392,
2,1,0,1,1,66214.3,-0.0606523,-0.06104,17.7029,34,-0.00185186,10,-0.00108058,-1.75196,0.148219,0.39806,272.216,-0.06104,
2,1,0,1,1,66214.4,-0.0466692,-0.047031,21.3249,34,-0.0015781,10,-0.00100293,-1.67111,0.194556,0.303255,251.144,-0.047031,
2,1,0,1,1,66214.4,-0.0326861,-0.0330961,24.6929,34,-0.00125528,10,-0.00081724,-1.60743,0.244463,0.241345,231.788,-0.0330961,
2,1,0,1,1,66214.4,-0.018653,-0.0190744,27.8455,34,-0.000887026,10,-0.000531135,-1.55525,0.299769,0.196818,213.076,-0.0190744,
2,1,0,1,1,66214.4,-0.00466992,-0.00513533,30.6734,34,-0.00047688,10,-0.000157518,-1.51324, , , ,-0.00513533,
2,1,0,0,1,66214.4,-0.000175352,-0.000554371,31.5317,34,-0.000336896,10,-1.74803e-05,-1.50125, , , ,-0.000554371,