File: Figure_codes/Fig_3-5/rawdata_trumpetplot_data/after 10th/20221101_1-115_003_TrumpetPlot_ParaChange_from10_every3_07_CV_C01_29.csv
mode,ox/red,error,control changes,counter inc.,time/s,control/V,Ewe/V,<I>/mA,cycle number,(Q-Qo)/C,I Range,P/W,log(|I|),Tafel slope mV/dec,alpha_eff,dI/d(E-IR),E-IR/V,
2,0,0,0,0,58298.8,2.44065e-05,-0.000363498,-2.69886,30,0.0000000E+000,10,9.81029e-07,-2.56882, , , ,-0.000363498,
2,1,0,1,0,58298.9,0.007288,0.0069266,0.792289,30,-4.93368e-05,10,5.48787e-06,-3.10112,0.00740394,7.96873,203.049,0.0069266,
2,1,0,1,0,58299,0.0147816,0.014417,1.74297,30,0.000120245,10,2.51284e-05,-2.75871,0.0497095,1.1869,79.7885,0.014417,
2,1,0,1,0,58299.2,0.0222712,0.0218781,2.18866,30,0.000370042,10,4.78837e-05,-2.65982,0.106145,0.555845,47.3248,0.0218781,
2,1,0,1,0,58299.3,0.0297648,0.0293876,2.49381,30,0.000665157,10,7.32872e-05,-2.60314,0.161535,0.365246,35.4713,0.0293876,
2,1,0,1,0,58299.4,0.0372518,0.0368786,2.74685,30,0.000994357,10,0.0001013,-2.56116,0.199067,0.296382,31.8124,0.0368786,
2,1,0,1,0,58299.5,0.0447467,0.0443947,2.99136,30,0.0013548,10,0.000132801,-2.52413,0.221925,0.265855,30.9895,0.0443947,
2,1,0,1,0,58299.7,0.052235,0.0518269,3.22259,30,0.00174406,10,0.000167017,-2.49179,0.226287,0.260731,32.7115,0.0518269,
2,1,0,1,0,58299.8,0.0597299,0.0593607,3.43372,30,0.00216167,10,0.000203828,-2.46424,0.261869,0.225304,30.1803,0.0593607,
2,1,0,1,0,58299.9,0.0672156,0.0668389,3.6365,30,0.002605,10,0.00024306,-2.43932,0.344442,0.171291,24.2981,0.0668389,
2,1,0,1,0,58300,0.0747105,0.074351,3.81912,30,0.00307266,10,0.000283955,-2.41804,0.437397,0.134889,20.0935,0.074351,
2,1,0,1,0,58300.2,0.0821988,0.0818474,3.97433,30,0.00356096,10,0.000325288,-2.40074,0.467807,0.12612,19.5345,0.0818474,
2,1,0,1,0,58300.3,0.0896937,0.0893351,4.11354,30,0.0040678,10,0.000367484,-2.38578,0.438471,0.134559,21.6206,0.0893351,
2,1,0,1,0,58300.4,0.0971794,0.0968088,4.2781,30,0.004593,10,0.000414158,-2.36875,0.357144,0.1652,27.6302,0.0968088,
2,1,0,1,0,58300.5,0.104674,0.104304,4.52985,30,0.00514399,10,0.000472481,-2.34392,0.268602,0.219656,38.8345,0.104304,
2,1,0,1,0,58300.7,0.112163,0.111763,4.86403,30,0.00573092,10,0.000543618,-2.313,0.231748,0.254587,48.2527,0.111763,
2,1,0,1,0,58300.8,0.119657,0.119304,5.20332,30,0.00636167,10,0.000620775,-2.28372,0.285137,0.206918,41.9958,0.1193037,
2,1,0,1,0,58300.9,0.127143,0.126747,5.4524,30,0.00702994,10,0.000691078,-2.26341,0.443386,0.133067,28.3399,0.126747,
2,1,0,1,0,58301,0.134638,0.134292,5.61808,30,0.00772438,10,0.000754465,-2.25041,0.94526,0.0624167,13.6802,0.134292,
2,1,0,1,0,58301.2,0.142126,0.141765,5.67633,30,0.00843229,10,0.000804705,-2.24593,-2.78724,-0.0211679,-4.6755,0.141765,
2,1,0,1,0,58301.3,0.149621,0.149231,5.46938,30,0.00913364,10,0.000816202,-2.26206,-0.234419,-0.251687,-53.5589,0.149231,
2,1,0,1,0,58301.4,0.157107,0.156758,4.86845,30,0.00978397,10,0.000763168,-2.31261,-0.11595,-0.508839,-96.5852,0.156758,
2,1,0,1,0,58301.5,0.164602,0.164229,4.1359,30,0.0103475,10,0.000679236,-2.38343,-0.100546,-0.586799,-94.8205,0.164229,
2,1,0,1,0,58301.7,0.17209,0.17175,3.56125,30,0.0108276,10,0.000611647,-2.4484,-0.129943,-0.454044,-63.2282,0.17175,
2,1,0,1,0,58301.8,0.179585,0.179222,3.17521,30,0.0112484,10,0.000569066,-2.49823,-0.179038,-0.329538,-40.9046,0.179222,
2,1,0,1,0,58301.9,0.187072,0.186725,2.91685,30,0.0116294,10,0.000544648,-2.53509,-0.250873,-0.235179,-26.8204,0.186725,
2,1,0,1,0,58302,0.194566,0.194231,2.75015,30,0.0119844,10,0.000534165,-2.56064,-0.324218,-0.181976,-19.5328,0.194231,
2,1,0,1,0,58302.2,0.202055,0.201733,2.63932,30,0.0123216,10,0.000532438,-2.57851,-0.42806,-0.137831,-14.1562,0.201733,
2,1,0,1,0,58302.3,0.209549,0.209199,2.55985,30,0.0126473,10,0.000535519,-2.59179,-0.640849,-0.0920653,-9.18024,0.209199,
2,1,0,1,0,58302.4,0.217036,0.21668,2.49354,30,0.0129641,10,0.000540302,-2.60318,-0.841638,-0.0701014,-6.84008,0.21668,
2,1,0,1,0,58302.5,0.22453,0.224195,2.45734,30,0.0132752,10,0.000550924,-2.60954,-0.968785,-0.060901,-5.84119,0.224195,
2,1,0,1,0,58302.7,0.232019,0.231665,2.4251,30,0.0135813,10,0.000561811,-2.61527,-1.40895,-0.0418751,-3.95304,0.231665,
2,1,0,1,0,58302.8,0.239513,0.239184,2.3973,30,0.0138839,10,0.000573396,-2.62028,-2.97557,-0.0198281,-1.85253,0.239184,
2,1,0,1,0,58302.9,0.247001,0.246632,2.37421,30,0.0141833,10,0.000585558,-2.62448,-2.2765,-0.025917,-2.40104,0.246632,
2,1,0,1,0,58303,0.254493,0.254113,2.35069,30,0.0144803,10,0.000597342,-2.6288,-1.18812,-0.0496585,-4.56265,0.254113,
2,1,0,1,0,58303.2,0.261983,0.261631,2.33731,30,0.0147747,10,0.000611513,-2.63128,-1.82563,-0.0323176,-2.94778,0.261631,
2,1,0,1,0,58303.3,0.269477,0.269096,2.32169,30,0.0150672,10,0.000624756,-2.6342,-5.12772,-0.0115061,-1.03985,0.269096,
2,1,0,1,0,58303.4,0.276965,0.276576,2.30091,30,0.0153573,10,0.000636376,-2.6381,-5.49891,-0.0107294,-0.964421,0.276576,
2,1,0,1,0,58303.5,0.284457,0.284181,2.28178,30,0.0156455,10,0.00064844,-2.64173,-1.74403,-0.0338296,-3.01402,0.284181,
2,1,0,1,0,58303.7,0.291947,0.291605,2.27025,30,0.0159312,10,0.000662018,-2.64393,-1.20486,-0.0489685,-4.33027,0.291605,
2,1,0,1,0,58303.8,0.29944,0.299111,2.25166,30,0.0162149,10,0.000673496,-2.6475,-0.00949789,-6.21191,-442.516,0.299111,
2,0,0,1,0,58303.9,0.293742,0.293339,-0.244957,30,0.01629,10,-7.18557e-05,-3.61091,-0.00550558,-10.7164,136.473,0.293339,
2,0,0,1,0,58304,0.286254,0.28588,-0.786083,30,0.0162171,10,-0.000224725,-3.10453,-0.0411655,-1.43324,43.511,0.28588,
2,0,0,1,0,58304.2,0.278761,0.278367,-1.02098,30,0.0161005,10,-0.000284206,-2.99098,-0.0999275,-0.590428,23.4804,0.278367,
2,0,0,1,0,58304.3,0.271272,0.270914,-1.17744,30,0.0159611,10,-0.000318986,-2.92906,-0.144557,-0.408143,18.6351,0.270914,
2,0,0,1,0,58304.4,0.263778,0.263423,-1.28566,30,0.0158052,10,-0.000338674,-2.89087,-0.193253,-0.3053,15.2825,0.263423,
2,0,0,1,0,58304.5,0.25629,0.255964,-1.37835,30,0.0156367,10,-0.000352809,-2.86064,-0.31316,-0.188402,10.1386,0.255964,
2,0,0,1,0,58304.7,0.248798,0.248423,-1.45875,30,0.0154573,10,-0.000362388,-2.83602,-0.373097,-0.158136,9.01958,0.248423,
2,0,0,1,0,58304.8,0.241308,0.240926,-1.53247,30,0.0152687,10,-0.000369211,-2.81461,-0.402942,-0.146423,8.75433,0.240926,
2,0,0,1,0,58304.9,0.233814,0.233441,-1.59758,30,0.0150713,10,-0.000372941,-2.79654,-0.355377,-0.166021,10.3345,0.233441,
2,0,0,1,0,58305,0.226326,0.225936,-1.65439,30,0.0148662,10,-0.000373787,-2.78136,-0.419566,-0.140621,9.11761,0.225936,
2,0,0,1,0,58305.2,0.218834,0.218451,-1.72115,30,0.0146532,10,-0.000375986,-2.76418,-0.589812,-0.100032,6.71989,0.218451,
2,0,0,1,0,58305.3,0.211344,0.210961,-1.78024,30,0.014433,10,-0.000375561,-2.74952,-0.615735,-0.0958204,6.64031,0.210961,
2,0,0,1,0,58305.4,0.203856,0.203465,-1.83836,30,0.0142053,10,-0.000374042,-2.73557,-0.546462,-0.107967,7.7451,0.203465,
2,0,0,1,0,58305.5,0.196362,0.196026,-1.89323,30,0.0139701,10,-0.000371124,-2.7228,-0.525677,-0.112236,8.31774,0.1960264,
2,0,0,1,0,58305.7,0.18887,0.188481,-1.96146,30,0.0137271,10,-0.000369698,-2.70742,-0.525388,-0.112298,8.60179,0.188481,
2,0,0,1,0,58305.8,0.18138,0.18104,-2.03308,30,0.0134759,10,-0.000368069,-2.69185,-0.457116,-0.12907,10.2296,0.18104,
2,0,0,1,0,58305.9,0.173892,0.173537,-2.11666,30,0.0132152,10,-0.00036732,-2.67435,-0.354472,-0.166445,13.7241,0.173537,
2,0,0,1,0,58306,0.166398,0.16601,-2.21305,30,0.0129431,10,-0.000367389,-2.65501,-0.366709,-0.160891,13.9236,0.16601,
2,0,0,1,0,58306.2,0.158905,0.158526,-2.34018,30,0.0126568,10,-0.000370978,-2.63075,-0.272568,-0.21646,19.8221,0.158526,
2,0,0,1,0,58306.3,0.151417,0.151048,-2.52999,30,0.0123513,10,-0.00038215,-2.59688,-0.202706,-0.291062,28.7813,0.1510482,
2,0,0,1,0,58306.4,0.143927,0.143533,-2.83151,30,0.0120164,10,-0.000406416,-2.54798,-0.118792,-0.496666,54.837,0.1435332,
2,0,0,1,0,58306.5,0.136435,0.136051,-3.29239,30,0.0116336,10,-0.000447934,-2.48249,-0.0982312,-0.600624,77.3757,0.136051,
2,0,0,1,0,58306.7,0.128941,0.128571,-3.9141,30,0.0111818,10,-0.000503238,-2.40737,-0.106602,-0.553461,84.5312,0.128571,
2,0,0,1,0,58306.8,0.121453,0.121051,-4.53805,30,0.0106518,10,-0.000549337,-2.34313,-0.138897,-0.424775,75.0538,0.121051,
2,0,0,1,0,58306.9,0.113963,0.113602,-5.0659,30,0.0100493,10,-0.000575496,-2.29534,-0.188229,-0.313448,61.8854,0.113602,
2,0,0,1,0,58307,0.106471,0.106097,-5.46459,30,0.00938773,10,-0.000579778,-2.26244,-0.297848,-0.198088,42.2014,0.106097,
2,0,0,1,0,58307.1,0.0989825,0.0986359,-5.66766,30,0.00868837,10,-0.000559034,-2.2466,-0.905701,-0.0651429,14.4106,0.0986359,
2,0,0,1,0,58307.3,0.0914889,0.0910965,-5.68087,30,0.00797567,10,-0.000517507,-2.24559,1.16466,0.0506586,-11.2125,0.0910965,
2,0,0,1,0,58307.4,0.0839993,0.0836532,-5.54894,30,0.00727254,10,-0.000464186,-2.25579,0.544027,0.10845,-23.4512,0.0836532,
2,0,0,1,0,58307.5,0.076507,0.0760727,-5.39941,30,0.00658726,10,-0.000410748,-2.26765,0.723699,0.0815256,-17.1787,0.0760727,
2,0,0,1,0,58307.6,0.0690187,0.068657,-5.27437,30,0.00591919,10,-0.000362123,-2.27783,0.857522,0.0688029,-14.1896,0.068657,
2,0,0,1,0,58307.8,0.0615251,0.0611503,-5.17871,30,0.00526377,10,-0.000316679,-2.28578,0.815765,0.0723248,-14.6272,0.0611503,
2,0,0,1,0,58307.9,0.0540355,0.0536536,-5.07524,30,0.00462181,10,-0.000272305,-2.29454,0.844445,0.0698683,-13.8216,0.0536536,
2,0,0,1,0,58308,0.0465432,0.0461513,-4.95082,30,0.00399367,10,-0.000228487,-2.30532,0.797839,0.0739497,-14.2862,0.0461513,
2,0,0,1,0,58308.1,0.0390549,0.0386786,-4.81478,30,0.00338215,10,-0.000186229,-2.31742,0.563155,0.104767,-19.6816,0.0386786,
2,0,0,1,0,58308.3,0.0315613,0.0311966,-4.65792,30,0.00278831,10,-0.000145311,-2.33181,0.461165,0.127937,-23.2441,0.0311966,
2,0,0,1,0,58308.4,0.0240717,0.0236633,-4.4872,30,0.00221559,10,-0.000106182,-2.34802,0.417577,0.141291,-24.7319,0.0236633,
2,0,0,1,0,58308.5,0.0165781,0.0162455,-4.31734,30,0.00166381,10,-7.01372e-05,-2.36478,0.503455,0.11719,-19.7814,0.0162455,
2,0,0,1,0,58308.6,0.00909108,0.00871629,-4.17654,30,0.00113155,10,-3.6404e-05,-2.37918,0.621869,0.0948753,-15.4765,0.008716289,
2,0,0,1,0,58308.8,0.00159616,0.00117226,-4.09389,30,0.000614217,10,-4.7991e-06,-2.38786, , , ,0.001172257,
2,0,0,1,0,58308.8,0.000199195,-0.000197439,-4.07571,30,0.000518646,10,8.04701e-07,-2.3898, , , ,-0.000197439,