File: Figure_codes/Fig_3-5/rawdata_trumpetplot_data/after 10th/20221101_1-115_003_TrumpetPlot_ParaChange_from10_every3_13_CV_C01_17.csv
mode,ox/red,error,control changes,counter inc.,time/s,control/V,Ewe/V,<I>/mA,cycle number,(Q-Qo)/C,I Range,P/W,log(|I|),Tafel slope mV/dec,alpha_eff,dI/d(E-IR),E-IR/V,
2,1,0,1,0,34690.1,2.44065e-05,-0.000287149,18.6413,18,0.0000000E+000,10,-5.35283e-06,-1.72952, , , ,-0.0002871489,
2,1,0,1,0,34690.1,0.0122624,0.011898,22.7395,18,0.000317819,10,0.000270554,-1.64322,0.20677,0.285341,251.469,0.01189798,
2,1,0,1,0,34690.1,0.0250636,0.0246769,25.5396,18,0.000705353,10,0.000630239,-1.59279,0.298773,0.197474,196.234,0.0246769,
2,1,0,1,0,34690.1,0.0378703,0.0374495,27.8565,18,0.00113323,10,0.00104321,-1.55507,0.381361,0.154709,167.873,0.0374495,
2,1,0,1,0,34690.1,0.0506632,0.050307,29.9072,18,0.00159576,10,0.00150454,-1.52422,0.438573,0.134527,156.9,0.050307,
2,1,0,1,0,34690.2,0.0634672,0.0631411,31.8762,18,0.0020903,10,0.00201269,-1.49653,0.48131,0.122582,152.432,0.0631411,
2,1,0,1,0,34690.2,0.0762629,0.0758914,33.8355,18,0.00261624,10,0.00256782,-1.47063,0.499393,0.118143,156.019,0.07589139,
2,1,0,1,0,34690.2,0.0890668,0.0887022,35.8638,18,0.00317407,10,0.00318119,-1.44534,0.510808,0.115503,161.689,0.0887022,
2,1,0,1,0,34690.2,0.10186,0.101501,37.947,18,0.00376478,10,0.00385167,-1.42082,0.535868,0.110102,163.043,0.101501,
2,1,0,1,0,34690.2,0.114666,0.114275,40.0841,18,0.00438915,10,0.00458061,-1.39703,0.538797,0.109503,171.309,0.114275,
2,1,0,1,0,34690.2,0.127462,0.127052,42.3098,18,0.00504852,10,0.00537554,-1.37356,0.55543,0.106224,175.371,0.127052,
2,1,0,1,0,34690.2,0.140263,0.139853,44.7131,18,0.00574436,10,0.00625327,-1.34956,0.508701,0.115982,202.42,0.139853,
2,1,0,1,0,34690.3,0.153064,0.152726,47.3306,18,0.00648113,10,0.00722863,-1.32486,0.539051,0.109452,202.116,0.152726,
2,1,0,1,0,34690.3,0.165866,0.165506,49.8601,18,0.00725926,10,0.00825217,-1.30225,0.610747,0.0966029,187.806,0.165506,
2,1,0,1,0,34690.3,0.178667,0.178309,52.0944,18,0.00807565,10,0.00928889,-1.28321,0.775988,0.0760321,154.315,0.178309,
2,1,0,1,0,34690.3,0.191463,0.191133,53.7018,18,0.00892331,10,0.0102642,-1.27001,1.39315,0.04235,88.5272,0.191133,
2,1,0,1,0,34690.3,0.204269,0.203916,54.2351,18,0.00978861,10,0.0110594,-1.26572,-12.1635,-0.00485059,-10.2347,0.203916,
2,1,0,1,0,34690.3,0.217062,0.216784,53.4054,18,0.0106516,10,0.0115775,-1.27241,-1.04139,-0.0566552,-117.722,0.216784,
2,1,0,1,0,34690.4,0.229866,0.229536,51.266,18,0.0114904,10,0.0117674,-1.29017,-0.552822,-0.106725,-212.931,0.229536,
2,1,0,1,0,34690.4,0.242662,0.242331,48.0989,18,0.0122861,10,0.0116558,-1.31787,-0.409125,-0.14421,-270.249,0.242331,
2,1,0,1,0,34690.4,0.255466,0.255136,44.4733,18,0.0130265,10,0.0113467,-1.3519,-0.359109,-0.164296,-285.053,0.255136,
2,1,0,1,0,34690.4,0.268259,0.267942,40.9095,18,0.013709,10,0.0109614,-1.38818,-0.357964,-0.164821,-263.43,0.267942,
2,1,0,1,0,34690.4,0.281065,0.28074,37.7747,18,0.0143377,10,0.0106049,-1.4228,-0.385551,-0.153028,-225.927,0.28074,
2,1,0,1,0,34690.4,0.293861,0.293582,35.144,18,0.0149202,10,0.0103177,-1.45415,-0.434274,-0.135859,-186.923,0.293582,
2,1,0,1,0,34690.4,0.298983,0.298814,31.7603,18,0.0152284,10,0.00949043,-1.49812,0.0371528,1.58804,1718.61,0.2988143,
2,1,0,1,0,34690.5,0.286187,0.285924,15.5914,18,0.0155893,10,0.00445797,-1.80711,0.0391063,1.50871,917.048,0.285924,
2,1,0,1,0,34690.5,0.273386,0.273147,6.23559,18,0.0157577,10,0.00170323,-2.20512,0.0220749,2.67272,600.677,0.273147,
2,1,0,1,0,34690.5,0.260585,0.260305,-0.17017,18,0.0158026,10,-4.42961e-05,-3.76912,0.971287,0.0607442,421.258,0.260305,
2,0,0,1,0,34690.5,0.247783,0.247491,-4.79377,18,0.0157605,10,-0.00118641,-2.31932,-0.0321598,-1.83459,312.382,0.247491,
2,0,0,1,0,34690.5,0.234982,0.234689,-8.29562,18,0.0156542,10,-0.00194689,-2.08115,-0.0780727,-0.755706,238.76,0.234689,
2,0,0,1,0,34690.5,0.222187,0.221885,-11.0181,18,0.0154986,10,-0.00244475,-1.95789,-0.130825,-0.450986,191.896,0.221885,
2,0,0,1,0,34690.6,0.20938,0.20906,-13.2395,18,0.0153038,10,-0.00276786,-1.87813,-0.190111,-0.310345,159.521,0.2090604,
2,0,0,1,0,34690.6,0.196587,0.196231,-15.1142,18,0.0150763,10,-0.00296586,-1.82062,-0.254124,-0.23217,136.6,0.196231,
2,0,0,1,0,34690.6,0.183783,0.183437,-16.7752,18,0.0148207,10,-0.00307719,-1.77533,-0.307266,-0.192016,125.571,0.183437,
2,0,0,1,0,34690.6,0.170987,0.170694,-18.3537,18,0.0145394,10,-0.00313287,-1.73628,-0.344801,-0.171113,122.52,0.170694,
2,0,0,1,0,34690.6,0.158183,0.157867,-19.9904,18,0.0142327,10,-0.00315582,-1.69918,-0.336672,-0.175245,136.831,0.157867,
2,0,0,1,0,34690.6,0.145385,0.145066,-21.9134,18,0.0138979,10,-0.00317889,-1.65929,-0.294311,-0.200468,171.912,0.145066,
2,0,0,1,0,34690.7,0.132584,0.132253,-24.4636,18,0.0135276,10,-0.00323538,-1.61148,-0.241384,-0.244423,234.303,0.132253,
2,0,0,1,0,34690.7,0.119783,0.119503,-27.9359,18,0.0131091,10,-0.00333842,-1.55384,-0.210241,-0.280631,306.775,0.119503,
2,0,0,1,0,34690.7,0.106987,0.106703,-32.2095,18,0.0126281,10,-0.00343684,-1.49202,-0.215394,-0.273917,343.874,0.106703,
2,0,0,1,0,34690.7,0.0941801,0.0938929,-36.6109,18,0.012077,10,-0.0034375,-1.43639,-0.253821,-0.232448,330.986,0.0938929,
2,0,0,1,0,34690.7,0.0813844,0.0811393,-40.6541,18,0.0114581,10,-0.00329865,-1.3909,-0.309572,-0.190586,301.498,0.0811393,
2,0,0,1,0,34690.7,0.0685832,0.0683487,-44.1289,18,0.0107784,10,-0.00301616,-1.35528,-0.424071,-0.139128,238.975,0.0683487,
2,0,0,1,0,34690.8,0.0557876,0.0555751,-46.7971,18,0.0100496,10,-0.00260075,-1.32978,-0.598138,-0.0986395,179.794,0.0555751,
2,0,0,1,0,34690.8,0.0429808,0.0426508,-48.7507,18,0.00928399,10,-0.00207926,-1.31202,-0.912244,-0.0646757,122.791,0.0426508,
2,0,0,1,0,34690.8,0.030188,0.0298538,-49.978,18,0.0084932,10,-0.00149203,-1.30122,-1.53333,-0.0384783,74.9603,0.0298538,
2,0,0,1,0,34690.8,0.017384,0.0170547,-50.7057,18,0.00768693,10,-0.000864772,-1.29494,-2.88428,-0.0204557,40.441,0.0170547,
2,0,0,1,0,34690.8,0.00458834,0.00430441,-51.0019,18,0.00687257,10,-0.000219533,-1.29241,-10.6147,-0.00555835,11.0608,0.00430441,
2,0,0,1,0,34690.8,-0.00821564,-0.00859332,-50.9514,18,0.00605601,10,0.000437842,-1.29284,5.06564,0.0116471,-23.142,-0.00859332,
2,0,0,1,0,34690.8,-0.0210196,-0.0213606,-50.4767,18,0.0052441,10,0.00107821,-1.29691,2.14614,0.0274912,-54.093,-0.0213606,
2,0,0,1,0,34690.9,-0.0338153,-0.0341725,-49.616,18,0.00444311,10,0.0016955,-1.30438,1.51249,0.0390085,-75.4908,-0.0341725,
2,0,0,1,0,34690.9,-0.0466193,-0.0469758,-48.5721,18,0.0036576,10,0.00228171,-1.31361,1.33329,0.0442515,-83.875,-0.0469758,
2,0,0,1,0,34690.9,-0.0594121,-0.0597982,-47.5224,18,0.00288903,10,0.00284176,-1.3231,1.45418,0.0405728,-75.2923,-0.0597982,
2,0,0,1,0,34690.9,-0.0722189,-0.0725846,-46.6729,18,0.00213576,10,0.00338773,-1.33094,1.91704,0.0307766,-56.1035,-0.0725846,
2,0,0,1,0,34690.9,-0.0850146,-0.0853933,-46.1031,18,0.001394,10,0.00393689,-1.33627,3.13116,0.0188429,-33.9254,-0.0853933,
2,0,0,1,0,34690.9,-0.0978158,-0.0981723,-45.8308,18,0.000658992,10,0.00449931,-1.33884,12.6253,0.00467317,-8.36456,-0.09817227,
2,0,0,1,0,34691,-0.110611,-0.110949,-45.8526,18,-7.41771e-05,10,0.00508731,-1.33864,-7.22367,-0.0081676,14.6321,-0.110949,
2,0,0,1,0,34691,-0.123418,-0.123776,-46.1817,18,-0.000810298,10,0.00571618,-1.33553,-2.99659,-0.019689,35.5192,-0.123776,
2,0,0,1,0,34691,-0.136214,-0.136589,-46.7496,18,-0.00155363,10,0.00638547,-1.33022,-2.09416,-0.0281735,51.4376,-0.136589,
2,0,0,1,0,34691,-0.149015,-0.149354,-47.5092,18,-0.00230771,10,0.00709568,-1.32322,-1.73248,-0.0340553,63.1497,-0.149354,
2,0,0,1,0,34691,-0.161816,-0.162199,-48.3375,18,-0.00307449,10,0.00784028,-1.31572,-1.72926,-0.0341186,64.3503,-0.162199,
2,0,0,1,0,34691,-0.174615,-0.174963,-49.1345,18,-0.00385443,10,0.00859671,-1.30861,-1.86447,-0.0316444,60.6711,-0.174963,
2,0,0,1,0,34691.1,-0.187419,-0.187803,-49.8725,18,-0.00464678,10,0.00936622,-1.30214,-2.11772,-0.0278601,54.2157,-0.187803,
2,0,0,1,0,34691.1,-0.199647,-0.199907,-50.4933,18,-0.00541493,10,0.010094,-1.29677,0.253178,0.233038,-445.828,-0.199907,
2,0,0,1,1,34691.1,-0.192535,-0.192999,-37.914,18,-0.00585696,10,0.00731736,-1.4212,-0.0680398,-0.86714,1312.28,-0.192999,
2,0,0,1,1,34691.1,-0.179739,-0.180152,-25.2513,18,-0.00635409,10,0.00454908,-1.59772,-0.0708248,-0.833042,822.573,-0.180152,
2,0,0,1,1,34691.1,-0.166932,-0.167347,-16.1055,18,-0.00668103,10,0.0026952,-1.79303,-0.0575458,-1.02527,639.195,-0.167347,
2,0,0,1,1,34691.1,-0.154139,-0.154588,-8.73148,18,-0.00687714,10,0.00134978,-2.05891,-0.0366911,-1.60802,527.784,-0.154588,
2,0,0,1,1,34691.1,-0.141335,-0.141761,-2.46625,18,-0.00696474,10,0.000349618,-2.60796,-0.0107242,-5.50158,455.469,-0.141761,
2,1,0,1,1,34691.2,-0.12854,-0.128954,2.98773,18,-0.00695905,10,-0.000385279,-2.52466,0.0106809,5.52387,402.643,-0.128954,
2,1,0,1,1,34691.2,-0.115736,-0.116219,7.86782,18,-0.00687104,10,-0.000914393,-2.10415,0.047976,1.22978,363.547,-0.116219,
2,1,0,1,1,34691.2,-0.102932,-0.103336,12.309,18,-0.00670869,10,-0.00127197,-1.90978,0.084683,0.696716,329.755,-0.103336,
2,1,0,1,1,34691.2,-0.0901362,-0.0905554,16.3442,18,-0.00647862,10,-0.00148005,-1.78664,0.124306,0.474636,300.419,-0.0905554,
2,1,0,1,1,34691.2,-0.0773322,-0.0777382,20.0124,18,-0.00618693,10,-0.00155572,-1.6987,0.168117,0.350946,272.886,-0.0777382,
2,1,0,1,1,34691.2,-0.0645393,-0.0649253,23.3483,18,-0.0058392,10,-0.00151589,-1.63175,0.21506,0.274341,249.254,-0.0649253,
2,1,0,1,1,34691.3,-0.0517325,-0.0521167,26.399,18,-0.00544049,10,-0.00137583,-1.57841,0.269939,0.218568,224.552,-0.0521167,
2,1,0,1,1,34691.3,-0.0389369,-0.0393218,29.1288,18,-0.00499573,10,-0.0011454,-1.53568,0.331254,0.178111,202.02,-0.0393218,
2,1,0,1,1,34691.3,-0.0261357,-0.0264983,31.5381,18,-0.00450971,10,-0.000835707,-1.50116,0.406489,0.145145,178.422,-0.0264983,
2,1,0,1,1,34691.3,-0.01334,-0.0137469,33.6541,18,-0.00398739,10,-0.000462639,-1.47296,0.508766,0.115967,152.146,-0.0137469,
2,1,0,1,1,34691.3,-0.000774629,-0.00116994,35.4377,18,-0.00344432,10,-4.14599e-05,-1.45053, , , ,-0.00116994,
2,1,0,0,1,34691.3,-0.000125413,-0.000535284,35.5438,18,-0.00341594,10,-1.9026e-05,-1.44924, , , ,-0.000535284,