File: Figure_codes/Fig_3-5/rawdata_trumpetplot_data/after 10th/20221101_1-115_003_TrumpetPlot_ParaChange_from10_every3_03_CV_C01_23.csv
mode,ox/red,error,control changes,counter inc.,time/s,control/V,Ewe/V,<I>/mA,cycle number,(Q-Qo)/C,I Range,P/W,log(|I|),Tafel slope mV/dec,alpha_eff,dI/d(E-IR),E-IR/V,
2,0,0,1,0,46253,2.44065e-05,-0.000306236,-0.113387,24,0.0000000E+000,10,3.47231e-08,-3.94544, , , ,-0.000306236,
2,1,0,1,0,46254.5,0.00729041,0.00696488,0.200157,24,0.000248959,10,1.39407e-06,-3.69863,0.0779234,0.757154,5.82243,0.00696488,
2,1,0,1,0,46256,0.0147815,0.0144629,0.229655,24,0.000593471,10,3.32148e-06,-3.63892,0.136884,0.431021,3.87465,0.0144629,
2,1,0,1,0,46257.5,0.0222725,0.0219167,0.25689,24,0.000980003,10,5.63018e-06,-3.59025,0.173142,0.340761,3.41425,0.0219167,
2,1,0,1,0,46259,0.0297635,0.0294519,0.282411,24,0.00140549,10,8.31755e-06,-3.54912,0.197542,0.298671,3.29696,0.0294519,
2,1,0,1,0,46260.5,0.0372545,0.0369206,0.309144,24,0.00186992,10,1.14138e-05,-3.50984,0.201522,0.292772,3.53125,0.0369206,
2,1,0,1,0,46262,0.0447456,0.044403,0.334621,24,0.00237327,10,1.48582e-05,-3.47545,0.230193,0.256307,3.34499,0.044403,
2,1,0,1,0,46263.5,0.0522367,0.0518798,0.357968,24,0.00291347,10,1.85713e-05,-3.44616,0.235802,0.25021,3.49111,0.0518798,
2,1,0,1,0,46265,0.0597277,0.0593854,0.380451,24,0.00348805,10,2.25933e-05,-3.4197,0.300188,0.196544,2.9143,0.0593854,
2,1,0,1,0,46266.5,0.0672187,0.0668497,0.39861,24,0.00409326,10,2.6647e-05,-3.39945,0.375686,0.157046,2.43959,0.0668497,
2,1,0,1,0,46268,0.0747092,0.0743856,0.413563,24,0.00472441,10,3.07631e-05,-3.38346,0.633462,0.0931389,1.50449,0.0743856,
2,1,0,0,0,46269.4,0.0822001,0.0818488,0.427854,24,0.00537789,10,3.50193e-05,-3.3687,0.426684,0.138276,2.3162,0.0818488,
2,1,0,1,0,46270.9,0.0896911,0.0893914,0.449185,24,0.00605689,10,4.01533e-05,-3.34757,0.321884,0.183296,3.21902,0.0893914,
2,1,0,0,0,46272.4,0.097182,0.0968694,0.480533,24,0.00677383,10,4.6549e-05,-3.31828,0.192351,0.306731,5.74046,0.0968694,
2,1,0,1,0,46273.9,0.104673,0.104334,0.521215,24,0.00754464,10,5.43803e-05,-3.28298,0.217541,0.271213,5.50204,0.104334,
2,1,0,0,0,46275.4,0.112164,0.111889,0.557905,24,0.00837477,10,6.24234e-05,-3.25344,0.354429,0.166465,3.6125,0.111889,
2,1,0,1,0,46276.9,0.119655,0.119352,0.581739,24,0.00925107,10,6.94318e-05,-3.23527,0.574142,0.102762,2.33556,0.119352,
2,1,0,0,0,46278.4,0.127146,0.126812,0.596314,24,0.0101587,10,7.56199e-05,-3.22452,0.963897,0.0612099,1.42808,0.1268121,
2,1,0,1,0,46279.9,0.134637,0.134336,0.594197,24,0.0110804,10,7.98219e-05,-3.22607,-0.341411,-0.172812,-3.99799,0.134336,
2,1,0,1,0,46281.4,0.142127,0.141809,0.532368,24,0.0119543,10,7.54946e-05,-3.27379,-0.102073,-0.578019,-11.9452,0.141809,
2,1,0,1,0,46282.9,0.149618,0.149316,0.427991,24,0.0126949,10,6.39058e-05,-3.36857,-0.0770548,-0.765689,-12.8047,0.149316,
2,1,0,1,0,46284.4,0.157109,0.156784,0.35773,24,0.0132981,10,5.60864e-05,-3.44644,-0.129273,-0.456397,-6.37646,0.1567843,
2,1,0,1,0,46285.9,0.1646,0.164299,0.326154,24,0.0138291,10,5.35868e-05,-3.48658,-0.23874,-0.247131,-3.15921,0.164299,
2,1,0,1,0,46287.4,0.172091,0.171783,0.311569,24,0.0143269,10,5.35222e-05,-3.50645,-0.492323,-0.11984,-1.46213,0.171783,
2,1,0,1,0,46288.9,0.179582,0.17926,0.303213,24,0.0148074,10,5.43538e-05,-3.51825,-0.806402,-0.0731645,-0.869443,0.17926,
2,1,0,1,0,46290.4,0.187074,0.18674,0.299256,24,0.0152774,10,5.58831e-05,-3.52396,-1.10614,-0.0533384,-0.618221,0.18674,
2,1,0,1,0,46291.9,0.194564,0.194201,0.294196,24,0.0157405,10,5.71332e-05,-3.53136,-1.5858,-0.0372053,-0.426679,0.194201,
2,1,0,1,0,46293.4,0.202056,0.201736,0.29156,24,0.0161984,10,5.88183e-05,-3.53527,-1.72644,-0.0341743,-0.387821,0.201736,
2,1,0,1,0,46294.9,0.209547,0.209192,0.28852,24,0.0166522,10,6.03562e-05,-3.53982,-0.953444,-0.0618809,-0.696426,0.209192,
2,1,0,1,0,46296.4,0.217038,0.216688,0.285609,24,0.0171018,10,6.1888e-05,-3.54423,-6.03619,-0.00977438,-0.10897,0.216688,
2,1,0,1,0,46297.9,0.224529,0.224199,0.283798,24,0.0175484,10,6.36272e-05,-3.54699,-2.29651,-0.0256911,-0.284324,0.224199,
2,1,0,1,0,46299.4,0.232019,0.231694,0.282397,24,0.0179923,10,6.54297e-05,-3.54914,6.28513,0.00938724,0.10329,0.231694,
2,1,0,0,0,46300.9,0.23951,0.239204,0.280962,24,0.0184337,10,6.72071e-05,-3.55135,-5.23583,-0.0112685,-0.123546,0.239204,
2,1,0,1,0,46302.4,0.247001,0.246698,0.278406,24,0.0188725,10,6.86823e-05,-3.55532,-2.09005,-0.0282289,-0.307488,0.246698,
2,1,0,0,0,46303.9,0.254492,0.254168,0.277601,24,0.0193088,10,7.05572e-05,-3.55658,-1.03065,-0.0572455,-0.620245,0.254168,
2,1,0,1,0,46305.4,0.261983,0.261669,0.275238,24,0.0197425,10,7.20212e-05,-3.56029,-2.81184,-0.0209827,-0.225977,0.261669,
2,1,0,0,0,46306.9,0.269474,0.269203,0.274253,24,0.0201735,10,7.38297e-05,-3.56185,6.33739,0.00930983,0.0994014,0.269203,
2,1,0,1,0,46308.4,0.276965,0.276644,0.271569,24,0.0206018,10,7.51279e-05,-3.56612,-1.6137,-0.036562,-0.388382,0.276644,
2,1,0,0,0,46309.9,0.284456,0.284148,0.270096,24,0.0210271,10,7.67473e-05,-3.56848,-2.80605,-0.021026,-0.221736,0.2841478,
2,1,0,1,0,46311.4,0.291947,0.291633,0.268168,24,0.0214497,10,7.82066e-05,-3.57159,-1.01368,-0.0582038,-0.609928,0.291633,
2,1,0,1,0,46312.9,0.299437,0.299172,0.266103,24,0.0218693,10,7.96107e-05,-3.57495,-0.00266642,-22.1271,-118.549,0.299172,
2,0,0,1,0,46314.3,0.293744,0.293384,-0.0145873,24,0.0219119,10,-4.27967e-06,-4.83603,-0.00324477,-18.1831,5.90813,0.293384,
2,0,0,1,0,46315.8,0.286253,0.285975,-0.0459935,24,0.0218455,10,-1.3153e-05,-4.3373,-0.0320801,-1.83915,3.26467,0.285975,
2,0,0,0,0,46317.3,0.278763,0.278442,-0.0670572,24,0.0217413,10,-1.86715e-05,-4.17355,-0.0623574,-0.946159,2.44903,0.278442,
2,0,0,1,0,46318.8,0.271272,0.270969,-0.0836464,24,0.0216092,10,-2.26656e-05,-4.07755,-0.0882424,-0.668613,2.17882,0.270969,
2,0,0,0,0,46320.3,0.263781,0.263449,-0.0980881,24,0.0214542,10,-2.58412e-05,-4.00838,-0.140787,-0.419074,1.59658,0.263449,
2,0,0,1,0,46321.8,0.25629,0.255991,-0.10898,24,0.0212796,10,-2.78979e-05,-3.96265,-0.234489,-0.251611,1.06934,0.2559908,
2,0,0,0,0,46323.3,0.248799,0.248456,-0.119017,24,0.0210882,10,-2.95704e-05,-3.92439,-0.218468,-0.270063,1.2656,0.248456,
2,0,0,1,0,46324.8,0.241308,0.241001,-0.129734,24,0.0208815,10,-3.12659e-05,-3.88695,-0.263558,-0.22386,1.13101,0.241001,
2,0,0,0,0,46326.3,0.233817,0.233485,-0.140021,24,0.0206607,10,-3.26927e-05,-3.85381,-0.20414,-0.289017,1.56793,0.233485,
2,0,0,1,0,46327.7,0.226326,0.225999,-0.147201,24,0.0204259,10,-3.32673e-05,-3.83209,-0.371885,-0.158651,0.918355,0.225999,
2,0,0,0,0,46329.2,0.218835,0.218514,-0.157152,24,0.0201781,10,-3.43399e-05,-3.80368,-0.291084,-0.202691,1.23989,0.218514,
2,0,0,1,0,46330.7,0.211344,0.211071,-0.164967,24,0.019917,10,-3.48198e-05,-3.7826,-0.398071,-0.148215,0.957484,0.211071,
2,0,0,1,0,46332.2,0.203854,0.203515,-0.17318,24,0.0196426,10,-3.52448e-05,-3.7615,-0.307426,-0.191916,1.30638,0.203515,
2,0,0,1,0,46333.7,0.196363,0.196025,-0.183866,24,0.0193546,10,-3.60424e-05,-3.7355,-0.352224,-0.167507,1.19854,0.196025,
2,0,0,1,0,46335.2,0.188871,0.188517,-0.192734,24,0.0190518,10,-3.63337e-05,-3.71504,-0.239763,-0.246076,1.85334,0.188517,
2,0,0,1,0,46336.7,0.181381,0.181049,-0.205635,24,0.0187326,10,-3.723e-05,-3.6869,-0.246978,-0.238888,1.91286,0.181049,
2,0,0,1,0,46338.2,0.173889,0.173546,-0.219161,24,0.0183946,10,-3.80346e-05,-3.65924,-0.265881,-0.221904,1.89367,0.1735464,
2,0,0,1,0,46339.7,0.166398,0.166061,-0.235232,24,0.0180343,10,-3.90629e-05,-3.6285,-0.257491,-0.229134,2.10781,0.166061,
2,0,0,1,0,46341.2,0.158907,0.158577,-0.256159,24,0.0176452,10,-4.06208e-05,-3.59149,-0.168607,-0.349927,3.51454,0.1585765,
2,0,0,1,0,46342.7,0.151416,0.151102,-0.290204,24,0.0172158,10,-4.38504e-05,-3.5373,-0.120699,-0.488819,5.55187,0.151102,
2,0,0,1,0,46344.2,0.143925,0.143612,-0.345127,24,0.0167219,10,-4.95642e-05,-3.46202,-0.0782102,-0.754378,10.1776,0.143612,
2,0,0,1,0,46345.7,0.136434,0.136103,-0.428271,24,0.0161232,10,-5.82889e-05,-3.36828,-0.0826306,-0.714021,11.9122,0.1361029,
2,0,0,1,0,46347.2,0.128943,0.128638,-0.520036,24,0.0153899,10,-6.68963e-05,-3.28397,-0.122377,-0.482117,9.73268,0.128638,
2,0,0,0,0,46348.7,0.121453,0.121133,-0.582961,24,0.0145369,10,-7.06155e-05,-3.23436,-0.242353,-0.243447,5.50842,0.121133,
2,0,0,1,0,46350.2,0.113962,0.11362,-0.601531,24,0.0136193,10,-6.83457e-05,-3.22074,-2.32419,-0.0253852,0.598765,0.11362,
2,0,0,0,0,46351.7,0.106471,0.106115,-0.601388,24,0.0126912,10,-6.38164e-05,-3.22085,1.18746,0.0496859,-1.168,0.1061151,
2,0,0,1,0,46353.2,0.0989798,0.0986583,-0.591603,24,0.0117739,10,-5.83666e-05,-3.22797,1.18272,0.049885,-1.14856,0.0986583,
2,0,0,0,0,46354.7,0.0914889,0.0911676,-0.578158,24,0.010876,10,-5.27093e-05,-3.23795,0.53637,0.109999,-2.47584,0.0911676,
2,0,0,1,0,46356.2,0.083998,0.0836514,-0.557606,24,0.0100026,10,-4.66446e-05,-3.25367,0.363146,0.162469,-3.53546,0.0836514,
2,0,0,0,0,46357.7,0.076507,0.0761491,-0.540765,24,0.00915721,10,-4.11787e-05,-3.26699,0.503697,0.117134,-2.46525,0.0761491,
2,0,0,1,0,46359.2,0.069016,0.0686838,-0.520995,24,0.00833964,10,-3.57839e-05,-3.28317,0.618406,0.0954065,-1.9469,0.0686838,
2,0,0,0,0,46360.7,0.0615251,0.0612175,-0.50629,24,0.00754724,10,-3.09938e-05,-3.2956,0.522843,0.112845,-2.23099,0.0612175,
2,0,0,1,0,46362.2,0.0540342,0.0536759,-0.490916,24,0.00677962,10,-2.63503e-05,-3.30899,0.573203,0.10293,-1.96475,0.0536759,
2,0,0,1,0,46363.7,0.0465436,0.0461845,-0.471974,24,0.00603716,10,-2.17979e-05,-3.32608,0.566306,0.104184,-1.92164,0.0461845,
2,0,0,1,0,46365.2,0.0390526,0.0387277,-0.454282,24,0.00532062,10,-1.75933e-05,-3.34267,0.37229,0.158479,-2.81265,0.0387277,
2,0,0,1,0,46366.7,0.0315615,0.0312326,-0.438241,24,0.00463025,10,-1.36874e-05,-3.35829,0.595128,0.0991384,-1.6953,0.0312326,
2,0,0,1,0,46368.2,0.0240706,0.0237027,-0.423907,24,0.00396337,10,-1.00477e-05,-3.37273,0.614145,0.0960685,-1.59119,0.0237027,
2,0,0,1,0,46369.7,0.0165795,0.0162563,-0.415149,24,0.00331516,10,-6.74877e-06,-3.3818,1.18797,0.0496647,-0.803242,0.0162563,
2,0,0,1,0,46371.2,0.00908846,0.0087613,-0.410016,24,0.00267727,10,-3.59228e-06,-3.3872,3.31524,0.0177966,-0.284402,0.0087613,
2,0,0,1,0,46372.7,0.00159739,0.00125452,-0.416288,24,0.00203977,10,-5.22243e-07,-3.38061, , , ,0.001254524,
2,0,0,0,0,46373,0.000199195,-0.000126815,-0.413525,24,0.00192004,10,5.24413e-08,-3.3835, , , ,-0.000126815,