File: Figure_codes/Fig_3-5/rawdata_trumpetplot_data/after 10th/20221101_1-115_003_TrumpetPlot_ParaChange_from10_every3_02_CV_C01_15.csv
mode,ox/red,error,control changes,counter inc.,time/s,control/V,Ewe/V,<I>/mA,cycle number,(Q-Qo)/C,I Range,P/W,log(|I|),Tafel slope mV/dec,alpha_eff,dI/d(E-IR),E-IR/V,
2,0,0,1,0,29892,2.44065e-05,-0.000382585,-0.3837,16,0.0000000E+000,10,1.46798e-07,-3.41601, , , ,-0.000382585,
2,0,0,1,0,29899.3,0.00729061,0.00698725,-0.0944054,16,-0.000947452,10,-6.59634e-07,-4.025,-0.0302215,-1.95225,7.27024,0.00698725,
2,0,0,1,0,29906.7,0.0147815,0.0144471,-0.0582184,16,-0.00142177,10,-8.41089e-07,-4.23494,-0.0400187,-1.47431,3.37415,0.01444713,
2,0,0,1,0,29914.2,0.0222725,0.0219803,-0.0375418,16,-0.00169587,10,-8.25181e-07,-4.42549,-0.0402186,-1.46698,2.13447,0.0219803,
2,0,0,1,0,29921.7,0.0297635,0.0294244,-0.022592,16,-0.00183752,10,-6.64756e-07,-4.64605,-0.0282338,-2.0897,1.80264,0.0294244,
2,0,0,1,0,29929.2,0.0372544,0.0369331,-0.00966299,16,-0.00187336,10,-3.56884e-07,-5.01489,-0.0128447,-4.59335,1.54988,0.0369331,
2,0,0,1,0,29936.7,0.0447454,0.0444069,0.00256268,16,-0.00181455,10,1.13801e-07,-5.59131,0.00412195,14.3136,1.40883,0.0444069,
2,1,0,1,0,29944.2,0.0522363,0.051906,0.012907,16,-0.00167282,10,6.69949e-07,-4.88918,0.0200798,2.93827,1.3888,0.051906,
2,1,0,1,0,29951.7,0.0597273,0.0593703,0.0215038,16,-0.00145989,10,1.27669e-06,-4.66749,0.0444568,1.32713,1.11601,0.0593703,
2,1,0,1,0,29959.2,0.0672183,0.0669342,0.0304714,16,-0.00118103,10,2.03957e-06,-4.51611,0.0559481,1.05455,1.2313,0.0669342,
2,1,0,1,0,29966.7,0.0747092,0.0744122,0.0378558,16,-0.000840237,10,2.81693e-06,-4.42187,0.0819763,0.71972,1.05797,0.0744122,
2,1,0,1,0,29974.2,0.0822001,0.0818985,0.0443833,16,-0.000445144,10,3.63492e-06,-4.35278,0.0976296,0.604325,1.06012,0.0818985,
2,1,0,1,0,29981.7,0.0896911,0.089366,0.0530425,16,8.69533e-06,10,4.74019e-06,-4.27538,0.0852565,0.69203,1.44973,0.089366,
2,1,0,1,0,29989.1,0.0971821,0.0968822,0.0638641,16,0.000535393,10,6.18729e-06,-4.19474,0.0860006,0.686042,1.70513,0.0968822,
2,1,0,1,0,29996.6,0.104673,0.10443,0.0756897,16,0.00114453,10,7.90429e-06,-4.12096,0.117206,0.503389,1.46591,0.10443,
2,1,0,1,0,30004.1,0.112164,0.111815,0.085257,16,0.00183367,10,9.53299e-06,-4.06927,0.191953,0.307368,1.01469,0.111815,
2,1,0,1,0,30011.6,0.119655,0.119304,0.0935804,16,0.00259315,10,1.11646e-05,-4.02882,0.223049,0.264516,0.966191,0.119304,
2,1,0,1,0,30019.1,0.127146,0.12676,0.100282,16,0.00341162,10,1.27118e-05,-3.99878,0.314242,0.187753,0.736333,0.12676,
2,1,0,1,0,30026.6,0.134637,0.134277,0.0999009,16,0.00426248,10,1.34144e-05,-4.00043,-0.206444,-0.285792,-1.10641,0.134277,
2,1,0,1,0,30034.1,0.142128,0.141826,0.0848862,16,0.0050499,10,1.20391e-05,-4.07116,-0.0755283,-0.781164,-2.56772,0.141826,
2,1,0,1,0,30041.6,0.149619,0.149301,0.0655304,16,0.00569317,10,9.78377e-06,-4.18356,-0.0789265,-0.747531,-1.92009,0.149301,
2,1,0,1,0,30049.1,0.15711,0.156799,0.0559114,16,0.00622452,10,8.76687e-06,-4.2525,-0.176252,-0.334748,-0.732126,0.156799,
2,1,0,1,0,30056.6,0.164601,0.164288,0.0519743,16,0.00670715,10,8.53875e-06,-4.28421,-0.382672,-0.154179,-0.310594,0.164288,
2,1,0,1,0,30064.1,0.172091,0.171796,0.0505365,16,0.00716907,10,8.68195e-06,-4.29639,3.52798,0.0167234,0.0331926,0.171796,
2,1,0,1,0,30071.5,0.179582,0.179254,0.050671,16,0.00762611,10,9.083e-06,-4.29524,2.6356,0.0223858,0.0440348,0.179254,
2,1,0,1,0,30079,0.187073,0.186763,0.0506958,16,0.00808186,10,9.46812e-06,-4.29503,2.49534,0.0236441,0.0464837,0.186763,
2,1,0,1,0,30086.5,0.194564,0.19424,0.0507015,16,0.00853953,10,9.84826e-06,-4.29498,2.52972,0.0233228,0.0465229,0.19424,
2,1,0,1,0,30094,0.202055,0.201776,0.0516758,16,0.00900073,10,1.0427e-05,-4.28671,1.4479,0.0407488,0.0819659,0.201776,
2,1,0,1,0,30101.5,0.209546,0.209259,0.0520532,16,0.00946608,10,1.08926e-05,-4.28355,11.9735,0.00492754,0.0100797,0.209259,
2,1,0,1,0,30109,0.217037,0.216755,0.052734,16,0.00993622,10,1.14303e-05,-4.27791,0.814759,0.0724141,0.150775,0.216755,
2,1,0,1,0,30116.5,0.224528,0.224203,0.0543934,16,0.0104131,10,1.21952e-05,-4.26445,1.11479,0.0529249,0.111523,0.224203,
2,1,0,1,0,30124,0.232019,0.2317,0.0549264,16,0.0108959,10,1.27264e-05,-4.26022,0.862151,0.0684335,0.146976,0.2317,
2,1,0,1,0,30131.5,0.23951,0.239207,0.0560389,16,0.0113856,10,1.34049e-05,-4.25151,0.617098,0.0956088,0.208752,0.239207,
2,1,0,1,0,30139,0.247001,0.246706,0.056987,16,0.0118826,10,1.4059e-05,-4.24422,0.845604,0.0697726,0.155777,0.246706,
2,1,0,1,0,30146.5,0.254492,0.254134,0.0582443,16,0.0123868,10,1.48019e-05,-4.23475,0.662383,0.0890724,0.201813,0.254134,
2,1,0,1,0,30153.9,0.261983,0.261668,0.0593559,16,0.0128983,10,1.55315e-05,-4.22654,1.53456,0.0384474,0.0888175,0.261668,
2,1,0,1,0,30161.4,0.269474,0.269134,0.0600382,16,0.013416,10,1.61583e-05,-4.22157,0.593364,0.099433,0.231954,0.269134,
2,1,0,1,0,30168.9,0.276965,0.27664,0.0608692,16,0.0139416,10,1.68389e-05,-4.2156,2.24904,0.0262334,0.0627959,0.27664,
2,1,0,1,0,30176.4,0.284456,0.284145,0.0616259,16,0.0144707,10,1.75107e-05,-4.21024,1.3705,0.04305,0.103183,0.284145,
2,1,0,1,0,30183.9,0.291947,0.291643,0.0625278,16,0.0150049,10,1.82358e-05,-4.20393,2.7417,0.0215195,0.0524925,0.291643,
2,1,0,1,0,30191.4,0.299438,0.299114,0.0629811,16,0.0155456,10,1.88385e-05,-4.20079,-0.00470147,-12.5493,-20.288,0.299114,
2,1,0,1,0,30198.2,0.293745,0.293395,0.00953337,16,0.0156378,10,2.79704e-06,-5.02075,0.0151288,3.89984,1.49618,0.293395,
2,1,0,1,0,30205.7,0.286254,0.285973,0.00160111,16,0.0156071,10,4.57874e-07,-5.79558,0.00653091,9.03396,0.792895,0.285973,
2,0,0,1,0,30213.2,0.278763,0.278471,-0.00481501,16,0.0155251,10,-1.34084e-06,-5.3174,-0.0142384,-4.14371,0.72595,0.278471,
2,0,0,1,0,30220.7,0.271272,0.27095,-0.00910178,16,0.0154036,10,-2.46613e-06,-5.04087,-0.0408395,-1.44468,0.51831,0.27095,
2,0,0,1,0,30228.2,0.263781,0.263486,-0.0134069,16,0.0152502,10,-3.53254e-06,-4.87267,-0.0457822,-1.28871,0.67352,0.263486,
2,0,0,1,0,30235.7,0.25629,0.255962,-0.0166238,16,0.0150671,10,-4.25507e-06,-4.77927,-0.14571,-0.404915,0.257098,0.255962,
2,0,0,1,0,30243.2,0.248799,0.248459,-0.0194174,16,0.0148619,10,-4.82442e-06,-4.71181,-0.0961113,-0.613872,0.466725,0.248459,
2,0,0,1,0,30250.7,0.241308,0.241018,-0.0229871,16,0.0146316,10,-5.5403e-06,-4.63852,-0.157906,-0.37364,0.335984,0.241018,
2,0,0,1,0,30258.2,0.233817,0.233507,-0.0259654,16,0.0143767,10,-6.06311e-06,-4.5856,-0.16321,-0.361498,0.366747,0.233507,
2,0,0,1,0,30265.7,0.226326,0.226006,-0.0289886,16,0.0140992,10,-6.5516e-06,-4.53777,-0.143897,-0.410016,0.458523,0.2260057,
2,0,0,1,0,30273.2,0.218835,0.218527,-0.0308958,16,0.0138019,10,-6.75155e-06,-4.5101,-0.200665,-0.294022,0.359057,0.218527,
2,0,0,1,0,30280.6,0.211344,0.211035,-0.0339844,16,0.0134836,10,-7.17189e-06,-4.46872,-0.198768,-0.296828,0.39387,0.211035,
2,0,0,1,0,30288.1,0.203853,0.203487,-0.03677,16,0.0131443,10,-7.48222e-06,-4.43451,-0.244963,-0.240853,0.347606,0.2034869,
2,0,0,1,0,30295.6,0.196362,0.196014,-0.0401165,16,0.0127822,10,-7.8634e-06,-4.39668,-0.174272,-0.338551,0.525657,0.196014,
2,0,0,1,0,30303.1,0.188871,0.188553,-0.0427334,16,0.0123958,10,-8.05751e-06,-4.36923,-0.153448,-0.384494,0.64666,0.188553,
2,0,0,1,0,30310.6,0.18138,0.181066,-0.0465324,16,0.0119829,10,-8.42542e-06,-4.33224,-0.273371,-0.215824,0.389554,0.181066,
2,0,0,1,0,30318.1,0.173889,0.173533,-0.0502169,16,0.0115441,10,-8.71427e-06,-4.29915,-0.171893,-0.343237,0.676481,0.173533,
2,0,0,1,0,30325.6,0.166398,0.166084,-0.0554809,16,0.011066,10,-9.2145e-06,-4.25586,-0.170585,-0.345868,0.760473,0.166084,
2,0,0,1,0,30333.1,0.158907,0.15858,-0.0628814,16,0.010539,10,-9.97171e-06,-4.20148,-0.127879,-0.461375,1.13634,0.15858,
2,0,0,1,0,30340.6,0.151417,0.151073,-0.07347,16,0.00994585,10,-1.10993e-05,-4.13389,-0.100285,-0.588321,1.68585,0.151073,
2,0,0,1,0,30348.1,0.143926,0.143606,-0.0899792,16,0.00925249,10,-1.29215e-05,-4.04586,-0.0698834,-0.844263,2.96081,0.143606,
2,0,0,1,0,30355.6,0.136435,0.136065,-0.113996,16,0.00840155,10,-1.55108e-05,-3.94311,-0.0808352,-0.72988,3.23728,0.136065,
2,0,0,1,0,30363,0.128944,0.128633,-0.135927,16,0.00736927,10,-1.74847e-05,-3.86669,-0.164605,-0.358433,1.88729,0.128633,
2,0,0,1,0,30370.5,0.121453,0.121173,-0.144962,16,0.00621889,10,-1.75655e-05,-3.83874,-0.748386,-0.0788364,0.445191,0.121173,
2,0,0,1,0,30378,0.113962,0.113655,-0.144816,16,0.00503785,10,-1.6459e-05,-3.83918,3.35449,0.0175884,-0.0997037,0.113655,
2,0,0,1,0,30385.5,0.106471,0.106155,-0.143289,16,0.00386245,10,-1.52109e-05,-3.84379,0.841333,0.0701268,-0.394461,0.106155,
2,0,0,1,0,30393,0.0989798,0.0986752,-0.140504,16,0.00270632,10,-1.38643e-05,-3.85231,0.966149,0.0610672,-0.334886,0.0986752,
2,0,0,1,0,30400.5,0.0914889,0.0911665,-0.136032,16,0.00158016,10,-1.24016e-05,-3.86636,0.538065,0.109652,-0.581574,0.0911665,
2,0,0,1,0,30408,0.083998,0.0836685,-0.130739,16,0.000493517,10,-1.09387e-05,-3.8836,0.342702,0.172161,-0.876554,0.0836685,
2,0,0,1,0,30415.5,0.076507,0.0761597,-0.127039,16,-0.000557093,10,-9.67523e-06,-3.89606,0.738442,0.0798979,-0.394051,0.0761597,
2,0,0,1,0,30423,0.069016,0.068688,-0.122925,16,-0.00157887,10,-8.44344e-06,-3.91036,0.486904,0.121174,-0.582121,0.068688,
2,0,0,1,0,30430.5,0.0615251,0.0612059,-0.119732,16,-0.00257446,10,-7.32827e-06,-3.92179,1.00473,0.0587221,-0.274748,0.0612059,
2,0,0,1,0,30438,0.0540342,0.0537375,-0.116536,16,-0.00354532,10,-6.26237e-06,-3.93354,0.951226,0.0620252,-0.282367,0.0537375,
2,0,0,1,0,30445.4,0.0465432,0.0462414,-0.114323,16,-0.00449641,10,-5.28647e-06,-3.94187,0.793013,0.0743998,-0.332223,0.04624141,
2,0,0,1,0,30452.9,0.0390522,0.0386976,-0.111407,16,-0.00542737,10,-4.3112e-06,-3.95309,1.03781,0.0568504,-0.246782,0.0386976,
2,0,0,1,0,30460.4,0.0315613,0.0312059,-0.109164,16,-0.00633937,10,-3.40657e-06,-3.96192,0.441166,0.133736,-0.57047,0.0312059,
2,0,0,1,0,30467.9,0.0240703,0.0237554,-0.106868,16,-0.00723211,10,-2.5387e-06,-3.97115,1.54801,0.0381134,-0.159544,0.0237554,
2,0,0,1,0,30475.4,0.0165794,0.0162616,-0.106091,16,-0.00811392,10,-1.72521e-06,-3.97432,4.34064,0.0135925,-0.0564056,0.0162616,
2,0,0,1,0,30482.9,0.00908843,0.00875171,-0.106689,16,-0.00899291,10,-9.33709e-07,-3.97188,-0.858053,-0.0687604,0.287806,0.00875171,
2,0,0,1,0,30490.4,0.00159744,0.0012016,-0.110084,16,-0.00988742,10,-1.32277e-07,-3.95828, , , ,0.0012016,
2,0,0,1,0,30491.8,0.000199235,-0.000191674,-0.110672,16,-0.010057,10,2.12129e-08,-3.95596, , , ,-0.000191674,