File: Figure_codes/Fig_3-5/rawdata_trumpetplot_data/after 10th/20221101_1-115_003_TrumpetPlot_ParaChange_from10_every3_08_CV_C01_5.csv
mode,ox/red,error,control changes,counter inc.,time/s,control/V,Ewe/V,<I>/mA,cycle number,(Q-Qo)/C,I Range,P/W,log(|I|),Tafel slope mV/dec,alpha_eff,dI/d(E-IR),E-IR/V,
2,0,0,0,0,11025.7,2.44065e-05,-0.0002108,-4.0377,6,0.0000000E+000,10,8.51146e-07,-2.39387, , , ,-0.0002108,
2,1,0,1,0,11025.8,0.0072942,0.00695104,1.70323,6,-1.7237e-05,10,1.18392e-05,-2.76873,0.0121844,4.84228,287.93,0.006951035,
2,1,0,1,0,11025.9,0.0147816,0.0144813,2.86829,6,0.000208171,10,4.15366e-05,-2.54238,0.0696307,0.847328,94.2484,0.0144813,
2,1,0,1,0,11025.9,0.0222707,0.0219973,3.39087,6,0.000504401,10,7.459e-05,-2.46969,0.147043,0.401242,53.0016,0.0219973,
2,1,0,1,0,11026,0.0297581,0.0294509,3.77859,6,0.00084109,10,0.000111283,-2.42267,0.173159,0.340727,50.1728,0.0294509,
2,1,0,1,0,11026.1,0.0372544,0.0369502,4.13101,6,0.00121282,10,0.000152642,-2.38394,0.198569,0.297126,47.9263,0.0369502,
2,1,0,1,0,11026.2,0.0447507,0.0444249,4.48396,6,0.00161789,10,0.0001992,-2.34834,0.236302,0.249681,43.707,0.0444249,
2,1,0,1,0,11026.3,0.0522381,0.0519133,4.82662,6,0.00205487,10,0.000250566,-2.31636,0.238165,0.247728,46.6753,0.0519133,
2,1,0,1,0,11026.4,0.0597273,0.0594231,5.14737,6,0.00252312,10,0.000305873,-2.28841,0.271099,0.217633,43.7375,0.0594231,
2,1,0,1,0,11026.5,0.0672147,0.0669155,5.46132,6,0.00302098,10,0.000365447,-2.2627,0.341166,0.172936,36.8406,0.0669155,
2,1,0,1,0,11026.6,0.0747038,0.0744141,5.74852,6,0.00354648,10,0.000427771,-2.24044,0.3709,0.159073,35.6554,0.0744141,
2,1,0,1,0,11026.7,0.0822055,0.0819206,5.99028,6,0.00409848,10,0.000490727,-2.22255,0.404023,0.146031,34.1649,0.0819206,
2,1,0,1,0,11026.8,0.0896946,0.0893776,6.23691,6,0.00467217,10,0.00055744,-2.20503,0.442382,0.133369,32.4987,0.0893776,
2,1,0,1,0,11026.9,0.097182,0.0968915,6.54446,6,0.00527106,10,0.000634103,-2.18413,0.314969,0.18732,47.8504,0.0968915,
2,1,0,1,0,11027,0.104671,0.104358,6.97342,6,0.00590334,10,0.000727732,-2.15655,0.226253,0.26077,70.9945,0.104358,
2,1,0,1,0,11027.1,0.112159,0.111848,7.52695,6,0.0065827,10,0.000841872,-2.12338,0.228765,0.257907,75.7464,0.111848,
2,1,0,1,0,11027.2,0.119655,0.119334,8.09424,6,0.00731617,10,0.000965918,-2.09182,0.281451,0.209628,66.1547,0.119334,
2,1,0,1,0,11027.3,0.127149,0.126808,8.52735,6,0.00809706,10,0.00108134,-2.06919,0.364904,0.161686,53.8146,0.126808,
2,1,0,1,0,11027.4,0.134639,0.134302,8.87794,6,0.00891408,10,0.00119232,-2.05169,0.508249,0.116085,40.259,0.134302,
2,1,0,1,0,11027.4,0.142126,0.141828,9.14846,6,0.00976035,10,0.00129751,-2.03865,1.21195,0.0486819,17.3443,0.141828,
2,1,0,1,0,11027.5,0.149615,0.14926,9.00311,6,0.0106158,10,0.0013438,-2.04561,-0.300243,-0.196507,-68.7687,0.1492596,
2,1,0,1,0,11027.6,0.157103,0.156775,7.98503,6,0.0114192,10,0.00125185,-2.09772,-0.0948895,-0.621776,-193.078,0.156775,
2,1,0,1,0,11027.7,0.164606,0.164288,6.41644,6,0.0120963,10,0.00105414,-2.19271,-0.0734506,-0.803261,-201.269,0.164288,
2,1,0,1,0,11027.8,0.172095,0.171807,5.2063,6,0.0126365,10,0.000894479,-2.28347,-0.0986909,-0.597826,-121.832,0.171807,
2,1,0,1,0,11027.9,0.179582,0.179274,4.50177,6,0.0130891,10,0.000807052,-2.34662,-0.147914,-0.398881,-70.36,0.179274,
2,1,0,1,0,11028,0.18707,0.18679,4.10422,6,0.0134914,10,0.000766629,-2.38677,-0.216663,-0.272312,-43.5984,0.18679,
2,1,0,1,0,11028.1,0.194559,0.194271,3.84279,6,0.0138629,10,0.000746542,-2.41535,-0.340422,-0.173314,-25.9779,0.194271,
2,1,0,1,0,11028.2,0.202062,0.201766,3.65816,6,0.014215,10,0.000738091,-2.43674,-0.40452,-0.145852,-20.8206,0.201766,
2,1,0,1,0,11028.3,0.20955,0.209313,3.54301,6,0.0145527,10,0.000741598,-2.45063,-0.428092,-0.137821,-19.0435,0.209313,
2,1,0,1,0,11028.4,0.217039,0.216708,3.4501,6,0.0148805,10,0.000747662,-2.46217,-0.864798,-0.068224,-9.18777,0.216708,
2,1,0,1,0,11028.5,0.224526,0.224236,3.37539,6,0.0152012,10,0.000756885,-2.47168,-1.38668,-0.0425476,-5.61648,0.224236,
2,1,0,1,0,11028.6,0.232016,0.231716,3.33188,6,0.0155163,10,0.000772051,-2.47731,-1.16127,-0.0508066,-6.59731,0.231716,
2,1,0,1,0,11028.7,0.23951,0.239205,3.28925,6,0.0158272,10,0.000786804,-2.4829,-1.28985,-0.0457416,-5.86595,0.2392047,
2,1,0,1,0,11028.8,0.247006,0.246709,3.25107,6,0.0161344,10,0.000802068,-2.48797,-1.7632,-0.0334619,-4.24053,0.246709,
2,1,0,1,0,11028.9,0.254494,0.254168,3.21232,6,0.0164378,10,0.000816469,-2.49318,-1.04982,-0.0561999,-7.04744,0.254168,
2,1,0,1,0,11028.9,0.261983,0.261724,3.1838,6,0.0167381,10,0.000833278,-2.49705,-1.21662,-0.0484951,-6.01679,0.261724,
2,1,0,1,0,11029,0.26947,0.269174,3.14854,6,0.0170354,10,0.000847506,-2.50189,-10.2838,-0.00573718,-0.705238,0.269174,
2,1,0,1,0,11029.1,0.276959,0.276632,3.11366,6,0.0173298,10,0.000861337,-2.50673,-1.55874,-0.037851,-4.60533,0.276632,
2,1,0,1,0,11029.2,0.284461,0.284191,3.09002,6,0.0176218,10,0.000878153,-2.51004,-1.80296,-0.032724,-3.93754,0.284191,
2,1,0,1,0,11029.3,0.29195,0.291668,3.05107,6,0.0179102,10,0.000889899,-2.51555,-1.9778,-0.0298312,-3.55565,0.291668,
2,1,0,1,0,11029.4,0.299438,0.299169,3.01388,6,0.0181954,10,0.00090166,-2.52087,-0.0228861,-2.57798,-273.31,0.299169,
2,0,0,1,0,11029.5,0.29424,0.293902,-0.75876,6,0.0182375,10,-0.000223001,-3.1199,-0.0087356,-6.75397,159.573,0.293902,
2,0,0,1,0,11029.6,0.286753,0.286435,-1.28642,6,0.0181354,10,-0.000368475,-2.89062,-0.0719106,-0.820464,41.0064,0.286435,
2,0,0,1,0,11029.7,0.279264,0.278959,-1.52762,6,0.0180017,10,-0.000426142,-2.81599,-0.154029,-0.383045,22.8645,0.278959,
2,0,0,1,0,11029.8,0.271776,0.271468,-1.70155,6,0.0178495,10,-0.000461918,-2.76915,-0.171963,-0.343096,22.7101,0.271468,
2,0,0,1,0,11029.9,0.26428,0.263969,-1.83301,6,0.0176828,10,-0.000483858,-2.73684,-0.226395,-0.260607,18.6354,0.263969,
2,0,0,1,0,11030,0.256786,0.256472,-1.94906,6,0.0175044,10,-0.00049988,-2.71017,-0.331903,-0.177763,13.5082,0.256472,
2,0,0,1,0,11030.1,0.249296,0.248993,-2.05822,6,0.017316,10,-0.000512481,-2.68651,-0.43566,-0.135427,10.8565,0.248993,
2,0,0,1,0,11030.1,0.241809,0.241506,-2.13968,6,0.0171185,10,-0.000516745,-2.66965,-0.402259,-0.146672,12.2839,0.241506,
2,0,0,1,0,11030.2,0.23432,0.233987,-2.2328,6,0.0169125,10,-0.000522447,-2.65115,-0.551506,-0.10698,9.33826,0.233987,
2,0,0,1,0,11030.3,0.226833,0.226523,-2.32249,6,0.0166985,10,-0.000526098,-2.63405,-0.455982,-0.129391,11.7136,0.226523,
2,0,0,1,0,11030.4,0.219329,0.219043,-2.40409,6,0.0164762,10,-0.000526599,-2.61905,-0.397902,-0.148278,13.9007,0.219043,
2,0,0,1,0,11030.5,0.21184,0.211514,-2.48414,6,0.0162465,10,-0.000525431,-2.60482,-0.774235,-0.0762042,7.38451,0.211514,
2,0,0,1,0,11030.6,0.204353,0.204053,-2.58411,6,0.0160086,10,-0.000527295,-2.58769,-0.808497,-0.0729749,7.33511,0.204053,
2,0,0,1,0,11030.7,0.196863,0.196569,-2.66415,6,0.0157625,10,-0.000523689,-2.57444,-0.387045,-0.152437,15.8765,0.196569,
2,0,0,1,0,11030.8,0.189376,0.189029,-2.76747,6,0.015507,10,-0.000523131,-2.55792,-0.462861,-0.127468,13.8131,0.1890287,
2,0,0,1,0,11030.9,0.18188,0.181567,-2.90117,6,0.0152405,10,-0.000526755,-2.53743,-0.38037,-0.155112,17.5466,0.181567,
2,0,0,1,0,11031,0.174385,0.174028,-3.06086,6,0.0149607,10,-0.000532677,-2.51416,-0.263553,-0.223863,26.7353,0.174028,
2,0,0,1,0,11031.1,0.166896,0.166576,-3.27234,6,0.0146641,10,-0.000545093,-2.48514,-0.229707,-0.256849,32.7953,0.166576,
2,0,0,1,0,11031.2,0.159409,0.159087,-3.58028,6,0.0143436,10,-0.000569577,-2.44608,-0.184299,-0.320132,44.6973,0.159087,
2,0,0,1,0,11031.3,0.151919,0.151618,-4.03465,6,0.0139879,10,-0.000611727,-2.39419,-0.119134,-0.495242,78.2275,0.151618,
2,0,0,1,0,11031.4,0.144425,0.144081,-4.75476,6,0.0135769,10,-0.000685069,-2.32287,-0.0912087,-0.646868,120.65,0.144081,
2,0,0,1,0,11031.5,0.136929,0.136607,-5.81327,6,0.0130826,10,-0.000794133,-2.23558,-0.0853564,-0.69122,156.791,0.1366071,
2,0,0,1,0,11031.6,0.129441,0.129087,-7.02275,6,0.0124813,10,-0.000906546,-2.15349,-0.0988212,-0.597038,163.417,0.129087,
2,0,0,1,0,11031.6,0.121952,0.121665,-8.10277,6,0.0117702,10,-0.000985822,-2.09137,-0.153422,-0.384559,121.389,0.121665,
2,0,0,1,0,11031.7,0.114465,0.114119,-8.86572,6,0.0109723,10,-0.00101175,-2.05229,-0.27449,-0.214944,74.2602,0.1141195,
2,0,0,1,0,11031.8,0.106976,0.106694,-9.26498,6,0.0101199,10,-0.000988513,-2.03316,-0.729069,-0.0809251,29.2367,0.106694,
2,0,0,1,0,11031.9,0.0994721,0.0991779,-9.30826,6,0.0092447,10,-0.000923174,-2.03113,1.43754,0.0410423,-14.8997,0.0991779,
2,0,0,1,0,11032,0.0919847,0.0916725,-9.03213,6,0.00838273,10,-0.000827998,-2.04421,0.359758,0.163999,-57.773,0.0916725,
2,0,0,1,0,11032.1,0.0844973,0.0841787,-8.53609,6,0.00755918,10,-0.000718556,-2.06874,0.278497,0.211851,-70.5195,0.0841787,
2,0,0,1,0,11032.2,0.0770082,0.0766889,-8.04819,6,0.0067837,10,-0.000617207,-2.0943,0.334701,0.176277,-55.3712,0.0766889,
2,0,0,1,0,11032.3,0.0695208,0.0692142,-7.69737,6,0.00604696,10,-0.000532768,-2.11366,0.441121,0.13375,-40.2269,0.0692142,
2,0,0,1,0,11032.4,0.0620245,0.0617137,-7.4636,6,0.00533616,10,-0.000460606,-2.12705,0.55192,0.1069,-31.1242,0.0617137,
2,0,0,1,0,11032.5,0.0545282,0.0542146,-7.24547,6,0.00464637,10,-0.000392811,-2.13993,0.695043,0.0848868,-23.9999,0.0542146,
2,0,0,1,0,11032.6,0.0470408,0.0467304,-7.02804,6,0.003977,10,-0.000328423,-2.15317,0.522556,0.112907,-30.9871,0.0467304,
2,0,0,1,0,11032.7,0.0395517,0.0392195,-6.81057,6,0.00332848,10,-0.000267107,-2.16682,0.461825,0.127754,-33.9048,0.03921951,
2,0,0,1,0,11032.8,0.0320643,0.0317213,-6.53332,6,0.00270312,10,-0.000207245,-2.18487,0.403066,0.146378,-37.3236,0.0317213,
2,0,0,1,0,11032.9,0.0245751,0.0242598,-6.2259,6,0.00210464,10,-0.000151039,-2.2058,0.333894,0.176703,-42.9617,0.0242598,
2,0,0,1,0,11033,0.0170735,0.0167449,-5.92741,6,0.00153381,10,-9.92537e-05,-2.22714,0.326725,0.18058,-41.8014,0.0167449,
2,0,0,1,0,11033.1,0.00958429,0.00924799,-5.66854,6,0.000990659,10,-5.24226e-05,-2.24653,0.54456,0.108344,-23.9825,0.00924799,
2,0,0,1,0,11033.1,0.0020969,0.0017177,-5.54045,6,0.000468179,10,-9.51684e-06,-2.25645,1.04446,0.0564887,-12.1282,0.0017177,
2,0,0,1,0,11033.2,0.000199195,-0.000145903,-5.47762,6,0.000337414,10,7.99199e-07,-2.26141, , , ,-0.000145903,