File: Figure_codes/Fig_3-5/rawdata_trumpetplot_data/after 10th/20221101_1-115_003_TrumpetPlot_ParaChange_from10_every3_05_CV_C01_27.csv
mode,ox/red,error,control changes,counter inc.,time/s,control/V,Ewe/V,<I>/mA,cycle number,(Q-Qo)/C,I Range,P/W,log(|I|),Tafel slope mV/dec,alpha_eff,dI/d(E-IR),E-IR/V,
2,0,0,1,0,54313.5,2.44065e-05,-0.00042076,-0.742422,28,0.0000000E+000,10,3.12382e-07,-3.12935, , , ,-0.00042076,
2,1,0,1,0,54313.9,0.00729063,0.00697642,0.645857,28,0.000124737,10,4.50577e-06,-3.18986,0.0420883,1.40181,34.4077,0.00697642,
2,1,0,1,0,54314.3,0.0147802,0.0144108,0.800922,28,0.000405481,10,1.15419e-05,-3.09641,0.115678,0.510035,15.9255,0.0144108,
2,1,0,1,0,54314.7,0.0222725,0.0219197,0.899319,28,0.000731348,10,1.97128e-05,-3.04609,0.164041,0.359667,12.636,0.0219197,
2,1,0,1,0,54315,0.0297644,0.0294391,0.99156,28,0.00109191,10,2.91906e-05,-3.00368,0.19474,0.302967,11.7026,0.0294391,
2,1,0,1,0,54315.4,0.0372544,0.0369401,1.08079,28,0.00148599,10,3.99244e-05,-2.96626,0.218065,0.270561,11.4205,0.0369401,
2,1,0,1,0,54315.8,0.0447449,0.0444018,1.17046,28,0.00191378,10,5.19707e-05,-2.93164,0.245925,0.23991,10.958,0.0444018,
2,1,0,1,0,54316.1,0.0522363,0.0518576,1.25283,28,0.0023743,10,6.49686e-05,-2.90211,0.240424,0.2454,12.0051,0.0518576,
2,1,0,1,0,54316.5,0.0597291,0.0593857,1.33263,28,0.00286543,10,7.91393e-05,-2.87529,0.288781,0.204307,10.6123,0.0593857,
2,1,0,1,0,54316.9,0.0672182,0.0668696,1.40477,28,0.00338385,10,9.39367e-05,-2.85239,0.357075,0.165231,9.03192,0.0668696,
2,1,0,1,0,54317.3,0.0747092,0.0743155,1.45777,28,0.003926,10,0.000108335,-2.83631,0.51609,0.114321,6.50046,0.0743155,
2,1,0,1,0,54317.6,0.0822001,0.0818636,1.50413,28,0.0044881,10,0.000123134,-2.82271,0.543211,0.108613,6.38086,0.08186356,
2,1,0,1,0,54318,0.0896911,0.089329,1.56249,28,0.00506828,10,0.000139576,-2.80618,0.40244,0.146606,8.94838,0.089329,
2,1,0,1,0,54318.4,0.097182,0.0968329,1.64754,28,0.0056747,10,0.000159536,-2.78316,0.243191,0.242607,15.6319,0.0968329,
2,1,0,1,0,54318.8,0.104673,0.104298,1.7864,28,0.00632265,10,0.000186318,-2.74802,0.19514,0.302346,21.0475,0.104298,
2,1,0,1,0,54319.1,0.112164,0.111813,1.93399,28,0.0070264,10,0.000216246,-2.71355,0.241923,0.243879,18.3905,0.111813,
2,1,0,1,0,54319.5,0.119655,0.119339,2.04963,28,0.00778013,10,0.0002446,-2.68832,0.530026,0.111315,8.88332,0.119339,
2,1,0,1,0,54319.9,0.127146,0.126748,2.09768,28,0.00856405,10,0.000265876,-2.67826,1.00772,0.0585478,4.79797,0.126748,
2,1,0,1,0,54320.3,0.134637,0.134261,2.1181,28,0.00936258,10,0.000284379,-2.67405,-1.87515,-0.0314642,-2.59895,0.134261,
2,1,0,1,0,54320.6,0.142128,0.141701,2.02195,28,0.0101505,10,0.000286513,-2.69423,-0.188348,-0.313251,-24.6069,0.141701,
2,1,0,1,0,54321,0.149619,0.149271,1.72707,28,0.0108636,10,0.000257802,-2.76269,-0.0847607,-0.696077,-46.8336,0.149271,
2,1,0,1,0,54321.4,0.157108,0.156724,1.39597,28,0.0114512,10,0.000218781,-2.85512,-0.0854486,-0.690474,-37.6109,0.156724,
2,1,0,1,0,54321.8,0.164601,0.164227,1.18576,28,0.0119362,10,0.000194735,-2.926,-0.135281,-0.436129,-20.1821,0.164227,
2,1,0,1,0,54322.1,0.172092,0.17174,1.07317,28,0.0123633,10,0.000184305,-2.96933,-0.238929,-0.246935,-10.3969,0.17174,
2,1,0,1,0,54322.5,0.179582,0.179239,1.0178,28,0.0127606,10,0.00018243,-2.99234,-0.442158,-0.133436,-5.3262,0.179239,
2,1,0,1,0,54322.9,0.187073,0.186726,0.988008,28,0.0131419,10,0.000184487,-3.00524,-0.605564,-0.0974298,-3.74526,0.186726,
2,1,0,1,0,54323.3,0.194564,0.194204,0.967608,28,0.0135135,10,0.000187913,-3.0143,-0.874359,-0.067478,-2.5446,0.194204,
2,1,0,1,0,54323.6,0.202057,0.201713,0.951807,28,0.0138784,10,0.000191991,-3.02145,-0.907083,-0.0650436,-2.41368,0.201713,
2,1,0,1,0,54324,0.209546,0.209271,0.941035,28,0.0142386,10,0.000196932,-3.02639,-0.955943,-0.0617192,-2.26848,0.209271,
2,1,0,1,0,54324.4,0.217037,0.216713,0.929549,28,0.0145949,10,0.000201446,-3.03173,-2.2301,-0.0264562,-0.962218,0.216713,
2,1,0,1,0,54324.8,0.224528,0.22416,0.922467,28,0.0149483,10,0.00020678,-3.03505,-2.32777,-0.0253461,-0.913434,0.22416,
2,1,0,1,0,54325.1,0.232019,0.231699,0.917784,28,0.0152991,10,0.00021265,-3.03726,-4.67816,-0.0126118,-0.451955,0.231699,
2,1,0,1,0,54325.5,0.23951,0.23917,0.914426,28,0.0156478,10,0.000218704,-3.03885,-2.32228,-0.0254061,-0.903561,0.23917,
2,1,0,1,0,54325.9,0.247001,0.246613,0.908613,28,0.0159946,10,0.000224076,-3.04162,-1.50295,-0.039256,-1.38874,0.246613,
2,1,0,1,0,54326.3,0.254492,0.254141,0.901277,28,0.0163395,10,0.000229051,-3.04514,-2.49666,-0.0236316,-0.833254,0.254141,
2,1,0,1,0,54326.6,0.261983,0.261625,0.89852,28,0.0166822,10,0.000235075,-3.04647,-3.32365,-0.0177515,-0.621492,0.261625,
2,1,0,1,0,54327,0.269474,0.26913,0.889816,28,0.017023,10,0.000239476,-3.0507,-2.41592,-0.0244214,-0.849006,0.26913,
2,1,0,1,0,54327.4,0.276965,0.27659,0.883745,28,0.0173615,10,0.000244436,-3.05367,-3.13705,-0.0188075,-0.649687,0.27659,
2,1,0,1,0,54327.8,0.284456,0.284115,0.877418,28,0.0176974,10,0.000249288,-3.05679,-1.44935,-0.0407079,-1.39346,0.284115,
2,1,0,1,0,54328.1,0.291947,0.291614,0.870672,28,0.0180304,10,0.0002539,-3.06015,-1.05017,-0.0561812,-1.90894,0.291614,
2,1,0,1,0,54328.5,0.299436,0.299108,0.860392,28,0.0183607,10,0.00025735,-3.0653,-0.00404644,-14.5807,-312.249,0.299108,
2,0,0,1,0,54328.9,0.293745,0.2934,-0.167259,28,0.018392,10,-4.90739e-05,-3.77661,-0.0144244,-4.09029,24.0414,0.2934,
2,0,0,1,0,54329.2,0.286254,0.285874,-0.276468,28,0.0182999,10,-7.90351e-05,-3.55835,-0.0590178,-0.999698,10.8748,0.285874,
2,0,0,1,0,54329.6,0.278763,0.278389,-0.343467,28,0.0181766,10,-9.56173e-05,-3.46411,-0.0987569,-0.597427,7.98793,0.278389,
2,0,0,1,0,54330,0.271272,0.270929,-0.39366,28,0.0180322,10,-0.000106654,-3.40488,-0.155847,-0.378577,5.79341,0.2709288,
2,0,0,1,0,54330.3,0.263781,0.263407,-0.43494,28,0.0178712,10,-0.000114566,-3.36157,-0.19874,-0.29687,5.0231,0.263407,
2,0,0,1,0,54330.7,0.25629,0.255916,-0.470312,28,0.0176959,10,-0.00012036,-3.32761,-0.318459,-0.185267,3.38122,0.255916,
2,0,0,1,0,54331.1,0.248799,0.248462,-0.500983,28,0.017508,10,-0.000124475,-3.30018,-0.302673,-0.19493,3.80499,0.2484619,
2,0,0,1,0,54331.5,0.241308,0.240995,-0.529327,28,0.0173088,10,-0.000127565,-3.27628,-0.339622,-0.173722,3.59584,0.240995,
2,0,0,1,0,54331.8,0.233817,0.233424,-0.557865,28,0.0170991,10,-0.000130219,-3.25347,-0.304092,-0.19402,4.21977,0.233424,
2,0,0,1,0,54332.2,0.226326,0.226003,-0.583411,28,0.0168792,10,-0.000131853,-3.23403,-0.460527,-0.128114,2.91649,0.2260035,
2,0,0,1,0,54332.6,0.218835,0.218494,-0.608498,28,0.0166497,10,-0.000132953,-3.21574,-0.391513,-0.150698,3.57691,0.218494,
2,0,0,1,0,54333,0.211344,0.210971,-0.633441,28,0.0164108,10,-0.000133638,-3.19829,-0.631824,-0.0933805,2.31065,0.210971,
2,0,0,1,0,54333.3,0.203855,0.203481,-0.660025,28,0.0161623,10,-0.000134303,-3.18044,-0.56614,-0.104215,2.68671,0.203481,
2,0,0,1,0,54333.7,0.196362,0.196013,-0.682144,28,0.0159047,10,-0.000133709,-3.16612,-0.413517,-0.142679,3.79994,0.196013,
2,0,0,1,0,54334.1,0.188871,0.188524,-0.71315,28,0.0156365,10,-0.000134446,-3.14682,-0.316141,-0.186626,5.18684,0.188524,
2,0,0,1,0,54334.5,0.18138,0.18103,-0.745947,28,0.0153575,10,-0.000135039,-3.12729,-0.381236,-0.15476,4.49809,0.18103,
2,0,0,1,0,54334.8,0.173891,0.173523,-0.781199,28,0.015066,10,-0.000135556,-3.10724,-0.279359,-0.211198,6.4305,0.1735228,
2,0,0,1,0,54335.2,0.166398,0.166019,-0.826017,28,0.0147591,10,-0.000137134,-3.08301,-0.324506,-0.181815,5.85833,0.166019,
2,0,0,1,0,54335.6,0.158906,0.158555,-0.884733,28,0.0144327,10,-0.000140279,-3.05319,-0.195896,-0.301181,10.428,0.158555,
2,0,0,1,0,54336,0.151417,0.151021,-0.979588,28,0.0140784,10,-0.000147939,-3.00896,-0.146991,-0.401385,15.3747,0.151021,
2,0,0,1,0,54336.3,0.143926,0.143543,-1.13518,28,0.0136788,10,-0.000162947,-2.94494,-0.091711,-0.643325,28.544,0.143543,
2,0,0,1,0,54336.7,0.136435,0.136032,-1.37727,28,0.0132037,10,-0.000187352,-2.86098,-0.0888092,-0.664345,35.6939,0.136032,
2,0,0,1,0,54337.1,0.128942,0.128566,-1.66032,28,0.0126278,10,-0.000213461,-2.77981,-0.105593,-0.55875,36.1708,0.1285658,
2,0,0,1,0,54337.5,0.121453,0.121022,-1.9128,28,0.0119499,10,-0.000231492,-2.71833,-0.154344,-0.382264,28.4787,0.121022,
2,0,0,1,0,54337.8,0.113962,0.113584,-2.08186,28,0.0111921,10,-0.000236465,-2.68155,-0.323991,-0.182104,14.7627,0.113584,
2,0,0,1,0,54338.2,0.106471,0.10613,-2.13842,28,0.010392,10,-0.00022695,-2.66991,-4.78389,-0.012333,1.02844,0.10613,
2,0,0,1,0,54338.6,0.0989799,0.0986553,-2.10788,28,0.00958848,10,-0.000207954,-2.67615,0.789993,0.0746842,-6.13789,0.0986553,
2,0,0,1,0,54339,0.0914889,0.0911365,-2.04606,28,0.00880465,10,-0.000186471,-2.68908,0.659304,0.0894883,-7.13487,0.0911365,
2,0,0,1,0,54339.3,0.083998,0.0836312,-1.98838,28,0.00804363,10,-0.00016629,-2.7015,0.65834,0.0896193,-6.95349,0.0836312,
2,0,0,1,0,54339.7,0.076507,0.0761195,-1.94288,28,0.00730088,10,-0.000147891,-2.71155,0.655542,0.0900019,-6.82295,0.07611946,
2,0,0,1,0,54340.1,0.069016,0.0686869,-1.8913,28,0.00657569,10,-0.000129907,-2.72324,0.591093,0.099815,-7.38699,0.0686869,
2,0,0,1,0,54340.5,0.0615251,0.0611899,-1.84366,28,0.0058689,10,-0.000112813,-2.73432,0.65506,0.090068,-6.48751,0.06118989,
2,0,0,1,0,54340.8,0.0540342,0.0537037,-1.78959,28,0.00518161,10,-9.61076e-05,-2.74725,0.581062,0.101538,-7.08623,0.0537037,
2,0,0,1,0,54341.2,0.0465432,0.0461925,-1.73432,28,0.00451483,10,-8.01127e-05,-2.76087,0.52899,0.111533,-7.55153,0.0461925,
2,0,0,1,0,54341.6,0.0390523,0.0386984,-1.67204,28,0.00387056,10,-6.47055e-05,-2.77675,0.408316,0.144496,-9.41458,0.0386984,
2,0,0,1,0,54342,0.0315626,0.0311882,-1.60788,28,0.00325007,10,-5.01468e-05,-2.79375,0.424362,0.139032,-8.72817,0.0311882,
2,0,0,1,0,54342.3,0.0240704,0.0237161,-1.54685,28,0.00265267,10,-3.66851e-05,-2.81055,0.479987,0.12292,-7.42826,0.0237161,
2,0,0,1,0,54342.7,0.0165785,0.0161751,-1.4988,28,0.00207579,10,-2.42432e-05,-2.82426,0.639409,0.0922727,-5.40828,0.0161751,
2,0,0,1,0,54343.1,0.00908846,0.0087219,-1.46378,28,0.0015149,10,-1.27669e-05,-2.83452,1.11128,0.0530919,-3.03629,0.0087219,
2,0,0,1,0,54343.5,0.0015984,0.00119254,-1.46177,28,0.000962687,10,-1.74323e-06,-2.83512, , , ,0.00119254,
2,0,0,1,0,54343.5,0.000199195,-0.000224192,-1.45114,28,0.000859412,10,3.25333e-07,-2.83829, , , ,-0.000224192,