File: Figure_codes/Fig_3-5/rawdata_trumpetplot_data/after 10th/20221101_1-115_003_TrumpetPlot_ParaChange_from10_every3_14_CV_C01_5.csv
mode,ox/red,error,control changes,counter inc.,time/s,control/V,Ewe/V,<I>/mA,cycle number,(Q-Qo)/C,I Range,P/W,log(|I|),Tafel slope mV/dec,alpha_eff,dI/d(E-IR),E-IR/V,
2,1,0,1,0,11049.8,2.44065e-05,-0.000306236,43.9687,6,0.0000000E+000,10,-1.34648e-05,-1.35686, , , ,-0.000306236,
2,1,0,1,0,11049.8,0.0133084,0.0129351,47.7391,6,0.000605287,10,0.000617509,-1.32113,0.516741,0.114177,211.976,0.0129351,
2,1,0,1,0,11049.8,0.0273414,0.0269589,50.215,6,0.00129225,10,0.00135374,-1.29917,0.769829,0.0766404,149.792,0.0269589,
2,1,0,1,0,11049.8,0.0413245,0.0409733,52.0324,6,0.00200853,10,0.00213194,-1.28373,1.01997,0.0578446,117.324,0.0409733,
2,1,0,1,0,11049.8,0.0553076,0.0549409,53.5666,6,0.0027479,10,0.002943,-1.27111,1.0991,0.0536801,112.281,0.0549409,
2,1,0,1,0,11049.8,0.0693407,0.0689786,55.1323,6,0.00350905,10,0.00380295,-1.25859,1.14954,0.0513247,110.374,0.0689786,
2,1,0,1,0,11049.8,0.0833238,0.0829229,56.837,6,0.00429214,10,0.00471309,-1.24537,0.947518,0.0622679,138.169,0.0829229,
2,1,0,1,0,11049.9,0.0973069,0.0969383,58.8723,6,0.00510209,10,0.00570698,-1.23009,0.846862,0.069669,160.292,0.0969383,
2,1,0,1,0,11049.9,0.11134,0.110989,61.2584,6,0.00594309,10,0.00679899,-1.21283,0.787846,0.0748878,179.13,0.110989,
2,1,0,1,0,11049.9,0.125323,0.12501,63.8937,6,0.0068191,10,0.00798739,-1.19454,0.749174,0.0787534,196.422,0.12501,
2,1,0,1,0,11049.9,0.139306,0.138962,66.7719,6,0.00773368,10,0.00927877,-1.17541,0.692575,0.0851893,222.27,0.138962,
2,1,0,1,0,11049.9,0.153339,0.152976,70.0511,6,0.00869159,10,0.0107161,-1.15458,0.661728,0.0891605,243.938,0.152976,
2,1,0,1,0,11049.9,0.167322,0.16696,73.6239,6,0.00969749,10,0.0122923,-1.13298,0.656217,0.0899092,258.261,0.16696,
2,1,0,1,0,11049.9,0.181305,0.180908,77.1879,6,0.0107537,10,0.0139639,-1.11245,0.724207,0.0814684,245.203,0.180908,
2,1,0,1,0,11050,0.195338,0.194945,80.3471,6,0.0118577,10,0.0156633,-1.09503,0.973895,0.0605815,189.561,0.194945,
2,1,0,1,0,11050,0.209322,0.208972,82.3847,6,0.0129987,10,0.0172161,-1.08415,2.45767,0.0240064,76.844,0.208972,
2,1,0,1,0,11050,0.223305,0.223009,82.2585,6,0.0141543,10,0.0183444,-1.08482,-1.67232,-0.0352802,-112.563,0.223009,
2,1,0,1,0,11050,0.237338,0.237019,79.0303,6,0.0152871,10,0.0187317,-1.10221,-0.521262,-0.113187,-346.857,0.237019,
2,1,0,1,0,11050,0.251321,0.251051,72.7984,6,0.0163522,10,0.0182761,-1.13788,-0.324359,-0.181897,-514.506,0.251051,
2,1,0,1,0,11050,0.265304,0.265052,65.0859,6,0.0173172,10,0.0172512,-1.18651,-0.272484,-0.216526,-549.67,0.265052,
2,1,0,1,0,11050,0.279337,0.279062,57.6675,6,0.0181747,10,0.0160928,-1.23907,-0.270597,-0.218036,-491.821,0.279062,
2,1,0,1,0,11050.1,0.29332,0.293015,51.4454,6,0.0189363,10,0.0150743,-1.28865,-0.299828,-0.19678,-398.417,0.293015,
2,1,0,1,0,11050.1,0.298714,0.298661,45.347,6,0.0193324,10,0.0135434,-1.34345,0.0344245,1.71389,2539.11,0.298661,
2,1,0,1,0,11050.1,0.28473,0.284528,19.566,6,0.019763,10,0.00556707,-1.7085,0.0328691,1.795,1349.4,0.284528,
2,1,0,1,0,11050.1,0.270747,0.270524,5.06056,6,0.0199261,10,0.001369,-2.2958,0.0130887,4.50769,821.791,0.2705237,
2,0,0,1,0,11050.1,0.256714,0.256471,-4.20901,6,0.0199263,10,-0.00107949,-2.37582,-0.0138687,-4.25419,538.193,0.256471,
2,0,0,1,0,11050.1,0.242731,0.242445,-10.4446,6,0.0198206,10,-0.00253225,-1.98111,-0.0609861,-0.967433,371.467,0.242445,
2,0,0,1,0,11050.1,0.228748,0.228433,-14.8523,6,0.0196416,10,-0.00339275,-1.82821,-0.122365,-0.482165,274.423,0.228433,
2,0,0,1,0,11050.1,0.214715,0.214412,-18.2091,6,0.0194085,10,-0.00390426,-1.73971,-0.197724,-0.298396,210.39,0.214412,
2,0,0,1,0,11050.2,0.200732,0.200446,-20.8769,6,0.019134,10,-0.00418468,-1.68033,-0.271699,-0.217152,176.139,0.200446,
2,0,0,1,0,11050.2,0.186735,0.186424,-23.2058,6,0.018825,10,-0.00432612,-1.6344,-0.328588,-0.179556,162.348,0.186424,
2,0,0,1,0,11050.2,0.172716,0.172441,-25.4375,6,0.0184841,10,-0.00438648,-1.59453,-0.361133,-0.163375,162.342,0.172441,
2,0,0,1,0,11050.2,0.158733,0.158414,-27.8654,6,0.0181111,10,-0.00441428,-1.55493,-0.333692,-0.17681,192.848,0.158414,
2,0,0,1,0,11050.2,0.144719,0.144442,-30.9823,6,0.0177001,10,-0.00447516,-1.50889,-0.277623,-0.212518,258.017,0.144442,
2,0,0,1,0,11050.2,0.130717,0.130432,-35.1977,6,0.0172378,10,-0.00459092,-1.45349,-0.231168,-0.255226,352.372,0.130432,
2,0,0,1,0,11050.2,0.116733,0.11644,-40.8701,6,0.0167064,10,-0.00475893,-1.38859,-0.209148,-0.282097,450.653,0.11644,
2,0,0,1,0,11050.3,0.102703,0.102447,-47.6867,6,0.0160872,10,-0.00488537,-1.3216,-0.219593,-0.268679,498.496,0.102447,
2,0,0,1,0,11050.3,0.0887173,0.0884381,-54.5298,6,0.0153707,10,-0.00482252,-1.26337,-0.268103,-0.220065,466.215,0.0884381,
2,0,0,1,0,11050.3,0.0747341,0.0745192,-60.683,6,0.014563,10,-0.00452205,-1.21693,-0.338596,-0.174249,411.345,0.0745192,
2,0,0,1,0,11050.3,0.0607011,0.0605282,-65.9706,6,0.0136748,10,-0.00399308,-1.18065,-0.459209,-0.128482,329.32,0.0605282,
2,0,0,1,0,11050.3,0.046718,0.0464312,-69.9049,6,0.0127221,10,-0.00324577,-1.15549,-0.694956,-0.0848975,230.689,0.0464312,
2,0,0,1,0,11050.3,0.0327349,0.0324624,-72.3523,6,0.0117242,10,-0.00234873,-1.14055,-1.34347,-0.043916,123.632,0.0324624,
2,0,0,1,0,11050.3,0.0187018,0.0184121,-73.5354,6,0.0107019,10,-0.00135394,-1.1335,-3.49765,-0.0168685,48.2975,0.0184121,
2,0,0,1,0,11050.4,0.00471873,0.0043903,-73.7751,6,0.00966991,10,-0.000323895,-1.13209,92.8452,0.000635466,-1.82794,0.004390304,
2,0,0,1,0,11050.4,-0.00926438,-0.00959222,-73.4992,6,0.00863819,10,0.00070502,-1.13372,4.08035,0.0144596,-41.4291,-0.00959222,
2,0,0,1,0,11050.4,-0.0232974,-0.0236532,-72.7007,6,0.00761447,10,0.00171961,-1.13846,2.09901,0.0281086,-79.5908,-0.0236532,
2,0,0,1,0,11050.4,-0.0372805,-0.0376326,-71.1995,6,0.00660664,10,0.00267942,-1.14752,1.24991,0.0472034,-130.942,-0.0376326,
2,0,0,1,0,11050.4,-0.0512636,-0.0516416,-69.0861,6,0.00562447,10,0.00356771,-1.16061,0.974744,0.0605287,-163.061,-0.0516416,
2,0,0,1,0,11050.4,-0.0652967,-0.0656421,-66.8092,6,0.00467377,10,0.0043855,-1.17516,0.982885,0.0600274,-156.531,-0.0656421,
2,0,0,1,0,11050.4,-0.0792798,-0.0796151,-64.7498,6,0.00375359,10,0.00515506,-1.18876,1.17192,0.0503446,-127.411,-0.0796151,
2,0,0,1,0,11050.5,-0.0932629,-0.0935892,-63.2973,6,0.00285818,10,0.00592394,-1.19861,1.79397,0.0328879,-81.3579,-0.0935892,
2,0,0,1,0,11050.5,-0.107296,-0.107659,-62.5052,6,0.00197852,10,0.00672923,-1.20408,3.99961,0.0147514,-36.0207,-0.107659,
2,0,0,1,0,11050.5,-0.121279,-0.121631,-62.1996,6,0.00110612,10,0.00756537,-1.20621,28.9993,0.00203453,-4.94543,-0.121631,
2,0,0,1,0,11050.5,-0.135262,-0.135631,-62.367,6,0.000234591,10,0.00845891,-1.20504,-6.02985,-0.00978466,23.8347,-0.135631,
2,0,0,1,0,11050.5,-0.149295,-0.149623,-62.9252,6,-0.000641976,10,0.00941508,-1.20118,-2.95431,-0.0199708,49.0453,-0.149623,
2,0,0,1,0,11050.5,-0.163278,-0.163588,-63.6447,6,-0.00152785,10,0.0104115,-1.19624,-2.43971,-0.0241832,60.1093,-0.1635877,
2,0,0,1,0,11050.5,-0.177261,-0.177555,-64.5724,6,-0.00242535,10,0.0114652,-1.18995,-2.13265,-0.0276651,69.7288,-0.1775554,
2,0,0,1,0,11050.6,-0.191295,-0.19162,-65.6689,6,-0.00333677,10,0.0125835,-1.18264,-1.84376,-0.0319998,81.9663,-0.19162,
2,0,0,0,1,11050.6,-0.199984,-0.200628,-66.0247,6,-0.00395074,10,0.0132464,-1.18029,-0.0368761,-1.59995,3610.8,-0.200628,
2,0,0,1,1,11050.6,-0.186686,-0.187116,-40.8372,6,-0.00462631,10,0.00764129,-1.38894,-0.0650208,-0.907402,1455.8,-0.187116,
2,0,0,1,1,11050.6,-0.172667,-0.173123,-23.9663,6,-0.00507184,10,0.00414912,-1.6204,-0.0523656,-1.12669,1039.01,-0.173123,
2,0,0,1,1,11050.6,-0.158684,-0.159134,-11.1031,6,-0.00531287,10,0.00176688,-1.95456,-0.0280789,-2.10122,827.629,-0.159134,
2,0,0,1,1,11050.6,-0.14467,-0.145104,-0.596842,6,-0.00539171,10,8.6604e-05,-3.22414,-0.11541,-0.511219,689.201,-0.145104,
2,1,0,1,1,11050.6,-0.130668,-0.131104,8.22029,6,-0.00533564,10,-0.00107772,-2.08511,0.0277687,2.1247,582.638,-0.131104,
2,1,0,1,1,11050.6,-0.116685,-0.117176,15.8338,6,-0.00516551,10,-0.00185533,-1.80042,0.069381,0.850377,507.599,-0.1171758,
2,1,0,1,1,11050.7,-0.102654,-0.103097,22.527,6,-0.00489569,10,-0.00232247,-1.6473,0.114686,0.514448,445.036,-0.1030968,
2,1,0,1,1,11050.7,-0.0886685,-0.0890909,28.2958,6,-0.00453834,10,-0.0025209,-1.54828,0.167272,0.352719,386.545,-0.0890909,
2,1,0,1,1,11050.7,-0.0746854,-0.0750787,33.3899,6,-0.00410529,10,-0.00250687,-1.47639,0.223244,0.264284,342.49,-0.0750787,
2,1,0,1,1,11050.7,-0.0606523,-0.0610559,37.9286,6,-0.00360535,10,-0.00231577,-1.42103,0.288523,0.20449,301.196,-0.0610559,
2,1,0,1,1,11050.7,-0.0466692,-0.047049,41.8055,6,-0.00304625,10,-0.00196691,-1.37877,0.369968,0.159473,259.456,-0.047049,
2,1,0,1,1,11050.7,-0.0326861,-0.0330983,45.1808,6,-0.00243643,10,-0.00149541,-1.34505,0.466741,0.126409,222.324,-0.0330983,
2,1,0,1,1,11050.7,-0.018653,-0.0190532,48.0897,6,-0.00178299,10,-0.000916261,-1.31795,0.587466,0.100431,187.95,-0.0190532,
2,1,0,1,1,11050.8,-0.00466992,-0.00507171,50.417,6,-0.00109267,10,-0.0002557,-1.29742, , , ,-0.00507171,
2,1,0,0,1,11050.8,-0.000175352,-0.000573459,51.0796,6,-0.000864304,10,-2.9292e-05,-1.29175, , , ,-0.000573459,