File: Figure_codes/Fig_3-5/rawdata_trumpetplot_data/after 10th/20221101_1-115_003_TrumpetPlot_ParaChange_from10_every3_08_CV_C01_4.csv
mode,ox/red,error,control changes,counter inc.,time/s,control/V,Ewe/V,<I>/mA,cycle number,(Q-Qo)/C,I Range,P/W,log(|I|),Tafel slope mV/dec,alpha_eff,dI/d(E-IR),E-IR/V,
2,0,0,0,0,9055.54,2.44065e-05,-0.000248974,-3.99318,5,0.0000000E+000,10,9.94199e-07,-2.39868, , , ,-0.000248974,
2,1,0,1,0,9055.63,0.0072942,0.00701886,1.84242,5,-1.20331e-06,10,1.29317e-05,-2.73461,0.0145239,4.06227,266.886,0.00701886,
2,1,0,1,0,9055.72,0.0147816,0.0144769,2.894,5,0.000231336,10,4.18962e-05,-2.5385,0.0812758,0.725923,81.6243,0.0144769,
2,1,0,1,0,9055.82,0.0222707,0.021983,3.37998,5,0.000527764,10,7.43021e-05,-2.47109,0.147123,0.401025,52.7652,0.021983,
2,1,0,1,0,9055.91,0.0297581,0.0294475,3.75669,5,0.000862493,10,0.000110625,-2.4252,0.17224,0.342546,50.0414,0.0294475,
2,1,0,1,0,9056.01,0.0372544,0.0369492,4.10747,5,0.0012318,10,0.000151768,-2.38643,0.195053,0.302481,48.4991,0.0369492,
2,1,0,1,0,9056.1,0.0447507,0.0444859,4.46421,5,0.00163462,10,0.000198594,-2.35026,0.229894,0.25664,44.723,0.0444859,
2,1,0,1,0,9056.19,0.0522381,0.0519027,4.8083,5,0.00206967,10,0.000249564,-2.31801,0.226503,0.260482,48.9085,0.0519027,
2,1,0,1,0,9056.29,0.0597273,0.0594446,5.1317,5,0.00253647,10,0.000305051,-2.28974,0.277734,0.212433,42.5771,0.0594446,
2,1,0,1,0,9056.38,0.0672147,0.0669145,5.4544,5,0.00303331,10,0.000364978,-2.26325,0.316623,0.186341,39.5951,0.0669145,
2,1,0,1,0,9056.47,0.0747038,0.0744019,5.74597,5,0.00355831,10,0.000427511,-2.24064,0.348791,0.169156,37.8853,0.0744019,
2,1,0,1,0,9056.57,0.0822055,0.0818851,5.99908,5,0.00411041,10,0.000491235,-2.22192,0.405159,0.145622,34.1076,0.0818851,
2,1,0,1,0,9056.66,0.0896946,0.0894001,6.25593,5,0.00468515,10,0.00055928,-2.20371,0.421783,0.139882,34.2032,0.0894001,
2,1,0,1,0,9056.75,0.097182,0.0969143,6.57927,5,0.00528636,10,0.000637626,-2.18182,0.300271,0.196489,50.4411,0.0969143,
2,1,0,1,0,9056.85,0.104671,0.104351,7.03231,5,0.00592262,10,0.000733827,-2.1529,0.222581,0.265073,72.7149,0.104351,
2,1,0,1,0,9056.94,0.112159,0.111886,7.59975,5,0.00660786,10,0.000850308,-2.1192,0.22462,0.262666,77.8832,0.111886,
2,1,0,1,0,9057.04,0.119655,0.119292,8.18159,5,0.00734853,10,0.000976,-2.08716,0.270699,0.217954,69.4795,0.119292,
2,1,0,1,0,9057.13,0.127149,0.12683,8.61499,5,0.00813746,10,0.00109264,-2.06475,0.363022,0.162525,54.6313,0.12683,
2,1,0,1,0,9057.22,0.134639,0.134331,8.9672,5,0.00896247,10,0.00120457,-2.04734,0.511634,0.115317,40.392,0.134331,
2,1,0,1,0,9057.32,0.142126,0.141829,9.2347,5,0.00981693,10,0.00130974,-2.03458,1.25256,0.0471035,16.9326,0.141829,
2,1,0,1,0,9057.41,0.149615,0.149277,9.03618,5,0.0106786,10,0.00134889,-2.04402,-0.269484,-0.218937,-76.9131,0.149277,
2,1,0,1,0,9057.5,0.157103,0.156778,7.94837,5,0.0114817,10,0.00124613,-2.09972,-0.0905757,-0.651389,-201.305,0.156778,
2,1,0,1,0,9057.6,0.164606,0.164315,6.39095,5,0.0121543,10,0.00105013,-2.19443,-0.0756189,-0.780228,-194.671,0.164315,
2,1,0,1,0,9057.69,0.172095,0.171829,5.22955,5,0.0126943,10,0.00089859,-2.28154,-0.107009,-0.551356,-113.046,0.171829,
2,1,0,1,0,9057.78,0.179582,0.179251,4.55991,5,0.0131515,10,0.000817366,-2.34104,-0.152957,-0.38573,-68.9686,0.179251,
2,1,0,1,0,9057.88,0.18707,0.186787,4.16535,5,0.0135597,10,0.000778034,-2.38035,-0.222089,-0.265659,-43.1544,0.186787,
2,1,0,1,0,9057.97,0.194559,0.194216,3.8869,5,0.0139364,10,0.000754896,-2.4104,-0.323256,-0.182518,-27.707,0.194216,
2,1,0,1,0,9058.07,0.202062,0.201773,3.69374,5,0.0142923,10,0.000745297,-2.43253,-0.374943,-0.157357,-22.6706,0.201773,
2,1,0,1,0,9058.16,0.20955,0.209275,3.55695,5,0.0146323,10,0.00074438,-2.44892,-0.391678,-0.150634,-20.9305,0.209275,
2,1,0,1,0,9058.25,0.217039,0.216742,3.45325,5,0.014961,10,0.000748465,-2.46177,-0.978525,-0.0602948,-8.12674,0.216742,
2,1,0,1,0,9058.35,0.224526,0.224232,3.37218,5,0.0152818,10,0.000756149,-2.47209,-0.777382,-0.0758958,-10.0109,0.224232,
2,1,0,1,0,9058.44,0.232016,0.231717,3.32325,5,0.0155963,10,0.000770056,-2.47844,-1.09116,-0.0540709,-7.0107,0.231717,
2,1,0,1,0,9058.53,0.23951,0.239251,3.27953,5,0.0159063,10,0.00078463,-2.48419,-1.96713,-0.0299929,-3.82914,0.239251,
2,1,0,1,0,9058.63,0.247006,0.246729,3.22914,5,0.0162122,10,0.000796723,-2.49091,-1.23033,-0.0479546,-6.04815,0.246729,
2,1,0,1,0,9058.72,0.254494,0.254218,3.20224,5,0.0165144,10,0.000814068,-2.49455,-0.964038,-0.0612009,-7.64904,0.254218,
2,1,0,1,0,9058.81,0.261983,0.261684,3.1666,5,0.0168133,10,0.00082865,-2.49941,-2.13229,-0.0276698,-3.41843,0.261684,
2,1,0,1,0,9058.91,0.26947,0.269187,3.13072,5,0.0171093,10,0.000842749,-2.50436,-4.96696,-0.0118785,-1.45324,0.269187,
2,1,0,1,0,9059,0.276959,0.27668,3.10796,5,0.0174025,10,0.000859911,-2.50752,-1.31829,-0.0447549,-5.42538,0.27668,
2,1,0,1,0,9059.1,0.284461,0.284191,3.08325,5,0.0176934,10,0.000876231,-2.51099,-5.69618,-0.0103578,-1.24172,0.284191,
2,1,0,1,0,9059.19,0.29195,0.291675,3.03691,5,0.0179807,10,0.000885792,-2.51757,-1.8409,-0.0320495,-3.8033,0.291675,
2,1,0,1,0,9059.28,0.299438,0.299148,3.01234,5,0.0182651,10,0.000901134,-2.5211,-0.0218987,-2.69422,-281.945,0.299148,
2,0,0,1,0,9059.36,0.29424,0.293918,-0.803305,5,0.0183004,10,-0.000236106,-3.09512,-0.0108561,-5.43475,142.865,0.293918,
2,0,0,1,0,9059.46,0.286753,0.286447,-1.28081,5,0.0181971,10,-0.000366885,-2.89251,-0.0795525,-0.741648,37.0768,0.286447,
2,0,0,1,0,9059.55,0.279264,0.278966,-1.52162,5,0.0180641,10,-0.00042448,-2.81769,-0.149652,-0.394247,23.3685,0.2789661,
2,0,0,1,0,9059.64,0.271776,0.271474,-1.68309,5,0.017913,10,-0.000456914,-2.77389,-0.148334,-0.397752,26.1371,0.271474,
2,0,0,1,0,9059.74,0.26428,0.263973,-1.81905,5,0.0177475,10,-0.000480181,-2.74015,-0.265647,-0.222099,15.7888,0.263973,
2,0,0,1,0,9059.83,0.256786,0.256479,-1.94222,5,0.0175705,10,-0.000498139,-2.7117,-0.349814,-0.168661,12.7034,0.256479,
2,0,0,1,0,9059.92,0.249296,0.248996,-2.03919,5,0.0173837,10,-0.00050775,-2.69054,-0.332432,-0.17748,14.1089,0.248996,
2,0,0,1,0,9060.02,0.241809,0.24154,-2.11658,5,0.0171876,10,-0.000511238,-2.67437,-0.434098,-0.135914,11.3152,0.24154,
2,0,0,1,0,9060.11,0.23432,0.233988,-2.21953,5,0.0169832,10,-0.000519344,-2.65374,-0.577211,-0.102216,8.85906,0.233988,
2,0,0,1,0,9060.2,0.226833,0.226501,-2.30516,5,0.0167706,10,-0.00052212,-2.6373,-0.332129,-0.177642,15.9573,0.226501,
2,0,0,1,0,9060.3,0.219329,0.218997,-2.38582,5,0.0165498,10,-0.000522488,-2.62236,-0.405192,-0.14561,13.5601,0.218997,
2,0,0,1,0,9060.39,0.21184,0.211511,-2.47801,5,0.0163214,10,-0.000524125,-2.6059,-0.919977,-0.064132,6.1809,0.211511,
2,0,0,1,0,9060.49,0.204353,0.204022,-2.57264,5,0.0160847,10,-0.000524875,-2.58962,-0.567333,-0.103995,10.4209,0.204022,
2,0,0,1,0,9060.58,0.196863,0.196532,-2.65147,5,0.0158395,10,-0.000521098,-2.57651,-0.416205,-0.141757,14.7206,0.196532,
2,0,0,1,0,9060.67,0.189376,0.189093,-2.76799,5,0.0155846,10,-0.000523406,-2.55784,-0.506978,-0.116376,12.5814,0.189093,
2,0,0,1,0,9060.77,0.18188,0.181636,-2.90384,5,0.0153183,10,-0.000527442,-2.53703,-0.292118,-0.201973,22.9031,0.181636,
2,0,0,1,0,9060.86,0.174385,0.174083,-3.06461,5,0.015038,10,-0.000533497,-2.51362,-0.267607,-0.220472,26.4175,0.174083,
2,0,0,1,0,9060.95,0.166896,0.166565,-3.29963,5,0.0147397,10,-0.000549604,-2.48153,-0.236028,-0.249971,32.1275,0.166565,
2,0,0,1,0,9061.05,0.159409,0.159102,-3.63261,5,0.0144159,10,-0.000577955,-2.43978,-0.158986,-0.371102,52.5347,0.159102,
2,0,0,1,0,9061.14,0.151919,0.151627,-4.12372,5,0.0140538,10,-0.000625266,-2.38471,-0.111245,-0.530359,85.728,0.151627,
2,0,0,1,0,9061.23,0.144425,0.144076,-4.90853,5,0.0136316,10,-0.000707202,-2.30905,-0.0896602,-0.65804,126.491,0.144076,
2,0,0,1,0,9061.33,0.136929,0.136625,-6.03505,5,0.0131201,10,-0.00082454,-2.21932,-0.0824318,-0.715743,168.451,0.136625,
2,0,0,1,0,9061.42,0.129441,0.129151,-7.2786,5,0.0124966,10,-0.000940042,-2.13795,-0.100165,-0.589029,166.99,0.129151,
2,0,0,1,0,9061.52,0.121952,0.121676,-8.34863,5,0.0117617,10,-0.00101583,-2.07838,-0.163452,-0.360962,117.408,0.1216757,
2,0,0,1,0,9061.61,0.114465,0.114163,-9.07819,5,0.0109425,10,-0.0010364,-2.042,-0.302395,-0.195109,68.9479,0.114163,
2,0,0,1,0,9061.7,0.106976,0.106711,-9.39569,5,0.0100742,10,-0.00100262,-2.02707,-1.09336,-0.053962,19.7645,0.1067109,
2,0,0,1,0,9061.8,0.0994721,0.0991397,-9.36477,5,0.00919002,10,-0.00092842,-2.0285,0.736337,0.0801263,-29.2717,0.09913972,
2,0,0,1,0,9061.89,0.0919847,0.0916987,-9.01086,5,0.00832669,10,-0.000826284,-2.04523,0.319426,0.184706,-64.8937,0.0916987,
2,0,0,1,0,9061.98,0.0844973,0.084208,-8.47661,5,0.00750713,10,-0.000713798,-2.07178,0.286028,0.206274,-68.2208,0.084208,
2,0,0,1,0,9062.08,0.0770082,0.0766531,-7.99432,5,0.00673668,10,-0.000612789,-2.09722,0.32671,0.180588,-56.382,0.0766531,
2,0,0,1,0,9062.17,0.0695208,0.0692404,-7.67249,5,0.00600348,10,-0.000531247,-2.11506,0.472035,0.124991,-37.4512,0.0692404,
2,0,0,1,0,9062.26,0.0620245,0.0616959,-7.43009,5,0.00529526,10,-0.000458407,-2.12901,0.596139,0.0989702,-28.7237,0.0616959,
2,0,0,1,0,9062.36,0.0545282,0.0542078,-7.21329,5,0.004608,10,-0.000391017,-2.14187,0.660248,0.0893604,-25.1875,0.0542078,
2,0,0,1,0,9062.45,0.0470408,0.0467365,-7.00054,5,0.00394143,10,-0.000327181,-2.15487,0.522143,0.112996,-30.8737,0.0467365,
2,0,0,1,0,9062.55,0.0395517,0.0392389,-6.76928,5,0.00329643,10,-0.000265619,-2.16946,0.526055,0.112156,-29.5697,0.0392389,
2,0,0,1,0,9062.64,0.0320643,0.0317639,-6.47895,5,0.00267538,10,-0.000205796,-2.1885,0.360881,0.163489,-41.3209,0.0317639,
2,0,0,1,0,9062.73,0.0245751,0.0242837,-6.16584,5,0.00208231,10,-0.000149729,-2.21001,0.308924,0.190986,-45.9391,0.0242837,
2,0,0,1,0,9062.83,0.0170735,0.0167718,-5.85906,5,0.00151764,10,-9.8267e-05,-2.23217,0.389704,0.151397,-34.6555,0.0167718,
2,0,0,1,0,9062.92,0.00958429,0.00926708,-5.60696,5,0.000980405,10,-5.19601e-05,-2.25127,0.474822,0.124257,-27.2313,0.00926708,
2,0,0,1,0,9063.01,0.0020969,0.00178519,-5.49634,5,0.000462792,10,-9.812e-06,-2.25993,1.25386,0.0470548,-10.0258,0.00178519,
2,0,0,1,0,9063.04,0.000199195,-0.000206982,-5.43952,5,0.000332989,10,1.12588e-06,-2.26444, , , ,-0.000206982,