File: Figure_codes/Fig_3-5/rawdata_trumpetplot_data/after 10th/20221101_1-115_003_TrumpetPlot_ParaChange_from10_every3_11_CV_C01_21.csv
mode,ox/red,error,control changes,counter inc.,time/s,control/V,Ewe/V,<I>/mA,cycle number,(Q-Qo)/C,I Range,P/W,log(|I|),Tafel slope mV/dec,alpha_eff,dI/d(E-IR),E-IR/V,
2,1,0,1,0,42567.3,2.44065e-05,-0.000325324,9.63826,22,0.0000000E+000,10,-3.13555e-06,-2.016, , , ,-0.000325324,
2,1,0,1,0,42567.3,0.0101427,0.00981216,12.9841,22,0.000292232,10,0.000127402,-1.88659,0.134638,0.438213,220.998,0.00981216,
2,1,0,1,0,42567.3,0.0205441,0.0202254,14.8597,22,0.000655933,10,0.000300542,-1.82799,0.223259,0.264267,153.093,0.0202254,
2,1,0,1,0,42567.3,0.0309482,0.0305993,16.278,22,0.00106157,10,0.000498094,-1.7884,0.312922,0.188545,119.577,0.0305993,
2,1,0,1,0,42567.4,0.0413439,0.0409733,17.4315,22,0.00150006,10,0.000714226,-1.75866,0.385307,0.153124,104.069,0.0409733,
2,1,0,1,0,42567.4,0.0517425,0.0513833,18.4809,22,0.00196718,10,0.000949609,-1.73328,0.424382,0.139026,100.38,0.0513833,
2,1,0,1,0,42567.4,0.0621438,0.0617795,19.5351,22,0.00246151,10,0.00120687,-1.70919,0.441298,0.133697,101.89,0.0617795,
2,1,0,1,0,42567.4,0.0725479,0.0721821,20.598,22,0.00298318,10,0.00148681,-1.68617,0.461957,0.127718,102.6,0.0721821,
2,1,0,1,0,42567.5,0.0829437,0.0825762,21.6725,22,0.00353267,10,0.00178963,-1.66409,0.475781,0.124007,104.927,0.0825762,
2,1,0,1,0,42567.5,0.0933422,0.0929724,22.7708,22,0.00411077,10,0.00211705,-1.64262,0.500543,0.117872,104.762,0.09297242,
2,1,0,1,0,42567.5,0.103749,0.103362,23.8661,22,0.00471697,10,0.00246686,-1.62222,0.500461,0.117891,109.747,0.103362,
2,1,0,1,0,42567.5,0.114148,0.113826,24.9865,22,0.00535206,10,0.00284412,-1.60229,0.522439,0.112932,110.112,0.113826,
2,1,0,1,0,42567.6,0.124543,0.124176,26.1951,22,0.00601723,10,0.0032528,-1.58178,0.488579,0.120758,123.512,0.124176,
2,1,0,1,0,42567.6,0.134942,0.134556,27.5765,22,0.00671624,10,0.00371059,-1.55946,0.454211,0.129896,139.836,0.134556,
2,1,0,1,0,42567.6,0.145349,0.145037,29.0439,22,0.00745235,10,0.00421245,-1.53694,0.492192,0.119872,135.734,0.145037,
2,1,0,1,0,42567.6,0.155747,0.155391,30.3628,22,0.0082249,10,0.0047181,-1.51766,0.586146,0.100658,119.206,0.155391,
2,1,0,1,0,42567.7,0.166143,0.165795,31.4183,22,0.00902908,10,0.00520899,-1.50282,0.906796,0.0650643,79.7342,0.165795,
2,1,0,1,0,42567.7,0.176542,0.176222,31.9137,22,0.00985419,10,0.00562388,-1.49602,12.9644,0.00455092,5.65878,0.176222,
2,1,0,1,0,42567.7,0.186949,0.186614,31.4616,22,0.0106802,10,0.00587116,-1.50222,-0.758595,-0.0777754,-95.3328,0.186614,
2,1,0,1,0,42567.8,0.197347,0.196974,29.9447,22,0.0114805,10,0.00589832,-1.52368,-0.364546,-0.161845,-188.888,0.1969739,
2,1,0,1,0,42567.8,0.207743,0.207433,27.6467,22,0.0122301,10,0.00573482,-1.55836,-0.263623,-0.223805,-241.175,0.207433,
2,1,0,1,0,42567.8,0.218141,0.217803,25.0641,22,0.012915,10,0.00545906,-1.60095,-0.240082,-0.245749,-240.517,0.217803,
2,1,0,1,0,42567.8,0.228548,0.228274,22.7314,22,0.0135354,10,0.00518899,-1.64337,-0.256283,-0.230215,-204.333,0.228274,
2,1,0,1,0,42567.9,0.238947,0.238609,20.8108,22,0.0141003,10,0.00496563,-1.68171,-0.293817,-0.200805,-163.126,0.238609,
2,1,0,1,0,42567.9,0.249343,0.24903,19.298,22,0.0146207,10,0.00480578,-1.71449,-0.343609,-0.171707,-129.413,0.24903,
2,1,0,1,0,42567.9,0.259741,0.259439,18.1117,22,0.0151063,10,0.00469888,-1.74204,-0.412933,-0.14288,-101.073,0.259439,
2,1,0,1,0,42567.9,0.270148,0.269823,17.1862,22,0.0155645,10,0.00463722,-1.76482,-0.507818,-0.116183,-77.9489,0.269823,
2,1,0,1,0,42568,0.280547,0.280212,16.4378,22,0.0160012,10,0.00460605,-1.78416,-0.573629,-0.102854,-65.996,0.2802116,
2,1,0,1,0,42568,0.290942,0.290605,15.8206,22,0.0164203,10,0.00459753,-1.80078,-0.685823,-0.086028,-53.1236,0.290605,
2,1,0,0,0,42568,0.300012,0.299708,15.3594,22,0.0167741,10,0.00460333,-1.81363,0.00200332,29.4511,15670.8,0.299708,
2,1,0,1,0,42568,0.290704,0.29041,5.6644,22,0.0169971,10,0.00164499,-2.24685,0.0198455,2.97297,652.838,0.29041,
2,1,0,1,0,42568.1,0.280305,0.279978,0.60116,22,0.0170718,10,0.000168312,-3.22101,0.0109943,5.36643,367.809,0.279978,
2,0,0,1,0,42568.1,0.269909,0.269618,-2.44073,22,0.0170447,10,-0.000658066,-2.61248,-0.0223938,-2.63465,237.601,0.269618,
2,0,0,1,0,42568.1,0.2595,0.25923,-4.47035,22,0.016953,10,-0.00115885,-2.34966,-0.0620982,-0.950108,163.895,0.25923,
2,0,0,1,0,42568.1,0.249104,0.248773,-5.91545,22,0.0168169,10,-0.0014716,-2.22801,-0.114411,-0.515685,118.724,0.248773,
2,0,0,1,0,42568.2,0.238705,0.238382,-7.02504,22,0.0166479,10,-0.00167464,-2.15335,-0.169488,-0.348108,95.2606,0.238382,
2,0,0,1,0,42568.2,0.22831,0.227989,-7.91011,22,0.0164533,10,-0.00180342,-2.10182,-0.233252,-0.252945,78.0044,0.227989,
2,0,0,1,0,42568.2,0.2179,0.217594,-8.65946,22,0.0162376,10,-0.00188424,-2.06251,-0.307362,-0.191956,64.7599,0.217594,
2,0,0,1,0,42568.2,0.207504,0.207196,-9.29719,22,0.0160039,10,-0.00192634,-2.03165,-0.364809,-0.161729,58.765,0.207196,
2,0,0,1,0,42568.3,0.197106,0.196763,-9.89927,22,0.015754,10,-0.00194781,-2.0044,-0.400564,-0.147292,56.9296,0.1967629,
2,0,0,1,0,42568.3,0.18671,0.186344,-10.4767,22,0.015489,10,-0.00195227,-1.97978,-0.438297,-0.134612,54.989,0.186344,
2,0,0,1,0,42568.3,0.1763,0.175983,-11.0524,22,0.0152092,10,-0.00194504,-1.95654,-0.436842,-0.13506,58.2915,0.175983,
2,0,0,1,0,42568.3,0.165905,0.165545,-11.6934,22,0.0149136,10,-0.00193577,-1.93206,-0.413458,-0.142699,65.126,0.165545,
2,0,0,1,0,42568.4,0.155506,0.155121,-12.475,22,0.0146,10,-0.00193513,-1.90396,-0.332117,-0.177648,86.4499,0.155121,
2,0,0,1,0,42568.4,0.145105,0.144782,-13.5061,22,0.014263,10,-0.00195543,-1.86947,-0.256417,-0.230094,121.562,0.144782,
2,0,0,1,0,42568.4,0.134701,0.134355,-15.0726,22,0.0138927,10,-0.00202508,-1.82181,-0.189212,-0.31182,183.657,0.134355,
2,0,0,1,0,42568.4,0.124305,0.123985,-17.2816,22,0.0134731,10,-0.00214266,-1.76242,-0.167622,-0.351982,237.552,0.123985,
2,0,0,1,0,42568.5,0.113906,0.113608,-19.9195,22,0.0129896,10,-0.00226302,-1.70072,-0.176905,-0.333513,259.129,0.113608,
2,0,0,1,0,42568.5,0.103505,0.103219,-22.5438,22,0.0124374,10,-0.00232695,-1.64697,-0.210551,-0.280218,246.213,0.103219,
2,0,0,1,0,42568.5,0.0931008,0.0928208,-24.9266,22,0.0118192,10,-0.0023137,-1.60334,-0.271564,-0.21726,211.085,0.0928208,
2,0,0,1,0,42568.6,0.0827051,0.0824108,-26.8598,22,0.0111448,10,-0.00221354,-1.5709,-0.387096,-0.152417,159.519,0.0824108,
2,0,0,1,0,42568.6,0.0723065,0.0719796,-28.2464,22,0.0104271,10,-0.00203316,-1.54904,-0.615582,-0.0958442,105.563,0.0719796,
2,0,0,1,0,42568.6,0.0618997,0.061613,-29.0604,22,0.00968085,10,-0.0017905,-1.5367,-1.27682,-0.0462086,52.3612,0.061613,
2,0,0,1,0,42568.6,0.0515011,0.0511977,-29.3863,22,0.00892033,10,-0.00150451,-1.53186,-4.48587,-0.0131524,15.067,0.0511977,
2,0,0,1,0,42568.7,0.0411053,0.0407135,-29.3906,22,0.00815574,10,-0.00119659,-1.53179,8.14196,0.00724641,-8.31224,0.0407135,
2,0,0,1,0,42568.7,0.0307068,0.0303681,-29.2335,22,0.00739314,10,-0.000887768,-1.53412,3.40301,0.0173376,-19.7897,0.0303681,
2,0,0,1,0,42568.7,0.0202999,0.019955,-28.9735,22,0.00663619,10,-0.000578165,-1.538,2.05923,0.0286515,-32.37,0.019955,
2,0,0,1,0,42568.7,0.00990136,0.00958842,-28.5339,22,0.00588833,10,-0.000273595,-1.54464,1.30639,0.0451625,-50.2843,0.00958842,
2,0,0,1,0,42568.8,-0.000494411,-0.000911729,-27.9586,22,0.00515357,10,2.54907e-05,-1.55348,0.990322,0.0595766,-64.9554,-0.000911729,
2,0,0,1,0,42568.8,-0.010893,-0.0112677,-27.164,22,0.00443686,10,0.000306075,-1.56601,0.770944,0.0765296,-81.0968,-0.0112677,
2,0,0,1,0,42568.8,-0.0212998,-0.0216989,-26.3064,22,0.00374195,10,0.00057082,-1.57994,0.761686,0.0774597,-79.515,-0.0216989,
2,0,0,1,0,42568.8,-0.0316984,-0.0320463,-25.5175,22,0.00306865,10,0.000817743,-1.59316,0.878451,0.0671636,-66.914,-0.0320463,
2,0,0,1,0,42568.9,-0.0420942,-0.0424977,-24.9136,22,0.00241348,10,0.00105877,-1.60356,1.21423,0.0485903,-47.2759,-0.0424977,
2,0,0,1,0,42568.9,-0.0524927,-0.0528971,-24.5215,22,0.00177117,10,0.00129711,-1.61045,2.14728,0.0274766,-26.3099,-0.0528971,
2,0,0,1,0,42568.9,-0.0628996,-0.0632785,-24.3552,22,0.00113621,10,0.00154116,-1.61341,7.40731,0.0079651,-7.57074,-0.0632785,
2,0,0,1,0,42568.9,-0.0732982,-0.0736641,-24.3468,22,0.000503486,10,0.00179348,-1.61356,-6.49099,-0.00908952,8.63943,-0.0736641,
2,0,0,1,0,42569,-0.0836939,-0.0840826,-24.5137,22,-0.000131412,10,0.00206117,-1.61059,-2.49232,-0.0236727,22.6519,-0.0840826,
2,0,0,1,0,42569,-0.0940925,-0.0944725,-24.8144,22,-0.00077242,10,0.00234428,-1.6053,-1.56093,-0.037798,36.6155,-0.0944725,
2,0,0,1,1,42569,-0.0978574,-0.0982645,-20.9364,22,-0.00126887,10,0.00205731,-1.6791,-0.0319459,-1.84687,1490.04,-0.0982645,
2,0,0,1,1,42569,-0.0874588,-0.0878439,-10.307,22,-0.0016596,10,0.000905404,-1.98687,-0.0308282,-1.91383,766.515,-0.0878439,
2,0,0,1,1,42569.1,-0.077052,-0.0774572,-3.55676,22,-0.00183413,10,0.000275497,-2.44895,-0.0138709,-4.25351,551.402,-0.0774572,
2,1,0,1,1,42569.1,-0.0666562,-0.0670482,1.4438,22,-0.00185801,10,-9.6804e-05,-2.84049,0.00375125,15.7281,421.954,-0.0670482,
2,1,0,1,1,42569.1,-0.0562576,-0.0566669,5.31977,22,-0.00176764,10,-0.000301455,-2.27411,0.0359289,1.64213,334.281,-0.0566669,
2,1,0,1,1,42569.1,-0.0458563,-0.0462802,8.40259,22,-0.00158739,10,-0.000388873,-2.07559,0.0735879,0.801762,260.938,-0.0462802,
2,1,0,1,1,42569.2,-0.0354522,-0.0358235,10.8463,22,-0.0013358,10,-0.000388552,-1.96472,0.119982,0.491741,207.213,-0.0358235,
2,1,0,1,1,42569.2,-0.0250564,-0.0254771,12.7539,22,-0.00102788,10,-0.000324932,-1.89436,0.181053,0.325872,161.926,-0.0254771,
2,1,0,1,1,42569.2,-0.0146579,-0.0150332,14.2589,22,-0.000675742,10,-0.000214357,-1.84591,0.260881,0.226156,125.62,-0.01503317,
2,1,0,1,1,42569.2,-0.00425653,-0.00461043,15.4162,22,-0.000289282,10,-7.10752e-05,-1.81202,0.367662,0.160473,96.4776,-0.00461043,
2,1,0,0,1,42569.3,-7.54729e-05,-0.000478022,15.7982,22,-0.000125313,10,-7.5519e-06,-1.80139, , , ,-0.000478022,