File: Figure_codes/Fig_3-5/rawdata_trumpetplot_data/after 10th/20221101_1-115_003_TrumpetPlot_ParaChange_from10_every3_02_CV_C01_17.csv
mode,ox/red,error,control changes,counter inc.,time/s,control/V,Ewe/V,<I>/mA,cycle number,(Q-Qo)/C,I Range,P/W,log(|I|),Tafel slope mV/dec,alpha_eff,dI/d(E-IR),E-IR/V,
2,0,0,1,0,33832.2,2.44065e-05,-0.000344411,-0.381792,18,0.0000000E+000,10,1.31493e-07,-3.41817, , , ,-0.000344411,
2,0,0,1,0,33839.5,0.00729061,0.0069734,-0.0952459,18,-0.000957517,10,-6.64188e-07,-4.02115,-0.0300583,-1.96285,7.41289,0.0069734,
2,0,0,1,0,33847,0.0147815,0.0144418,-0.0589738,18,-0.00143844,10,-8.51689e-07,-4.22934,-0.0389548,-1.51458,3.49291,0.0144418,
2,0,0,1,0,33854.5,0.0222725,0.0219347,-0.0378705,18,-0.00171519,10,-8.30681e-07,-4.4217,-0.0361245,-1.63324,2.42636,0.0219347,
2,0,0,1,0,33862,0.0297635,0.0294424,-0.0229962,18,-0.00186008,10,-6.77065e-07,-4.63834,-0.0286033,-2.0627,1.80783,0.0294424,
2,0,0,1,0,33869.5,0.0372544,0.0369013,-0.00969524,18,-0.00189468,10,-3.57767e-07,-5.01344,-0.0127049,-4.64389,1.56972,0.0369013,
2,1,0,1,0,33877,0.0447454,0.0444302,0.00205795,18,-0.00183784,10,9.14354e-08,-5.68656,0.0063262,9.3263,1.49876,0.0444302,
2,1,0,1,0,33884.5,0.0522363,0.0519113,0.0124379,18,-0.00169681,10,6.45669e-07,-4.90525,0.0221617,2.66225,1.25513,0.0519113,
2,1,0,1,0,33891.9,0.0597273,0.0593766,0.0217722,18,-0.00148375,10,1.29276e-06,-4.6621,0.0461045,1.2797,1.05154,0.0593766,
2,1,0,1,0,33899.4,0.0672183,0.0668822,0.0302019,18,-0.00120419,10,2.01997e-06,-4.51997,0.0665671,0.886324,1.01999,0.06688223,
2,1,0,1,0,33906.9,0.0747092,0.0743899,0.0370066,18,-0.000866516,10,2.75292e-06,-4.43172,0.0971451,0.607339,0.883923,0.0743899,
2,1,0,1,0,33914.4,0.0822001,0.0818752,0.0438763,18,-0.000472783,10,3.59238e-06,-4.35777,0.122606,0.481215,0.827883,0.0818752,
2,1,0,1,0,33921.9,0.0896911,0.0893469,0.0525256,18,-2.34365e-05,10,4.693e-06,-4.27963,0.088391,0.667489,1.37895,0.0893469,
2,1,0,1,0,33929.4,0.0971821,0.0968058,0.0632722,18,0.000499948,10,6.12511e-06,-4.19879,0.09642,0.611906,1.50223,0.0968058,
2,1,0,1,0,33936.9,0.104673,0.104338,0.0741998,18,0.00110192,10,7.74185e-06,-4.1296,0.128315,0.459806,1.31065,0.104338,
2,1,0,1,0,33944.4,0.112164,0.111812,0.0828888,18,0.00178032,10,9.26793e-06,-4.0815,0.264688,0.222904,0.716727,0.111812,
2,1,0,1,0,33951.9,0.119655,0.119304,0.0906792,18,0.002522,10,1.08184e-05,-4.04249,0.222016,0.265747,0.941407,0.119304,
2,1,0,1,0,33959.4,0.127146,0.126796,0.0971626,18,0.00332374,10,1.23199e-05,-4.0125,0.348839,0.169132,0.645464,0.126796,
2,1,0,1,0,33966.9,0.134637,0.134331,0.0965584,18,0.00415484,10,1.29708e-05,-4.01521,-0.213484,-0.276368,-1.04438,0.134331,
2,1,0,1,0,33974.3,0.142128,0.141815,0.0825157,18,0.00492377,10,1.17019e-05,-4.08346,-0.0728933,-0.809402,-2.57019,0.141815,
2,1,0,1,0,33981.8,0.149619,0.149304,0.0634392,18,0.0055503,10,9.47175e-06,-4.19764,-0.0814782,-0.72412,-1.80064,0.149304,
2,1,0,1,0,33989.3,0.15711,0.15675,0.054532,18,0.00607045,10,8.54787e-06,-4.26335,-0.143891,-0.410032,-0.865275,0.15675,
2,1,0,1,0,33996.8,0.164601,0.164275,0.0512151,18,0.00654237,10,8.41338e-06,-4.2906,-1.24245,-0.0474869,-0.0949445,0.164275,
2,1,0,1,0,34004.3,0.172091,0.17179,0.0503483,18,0.0070024,10,8.64934e-06,-4.29802,-1.31817,-0.044759,-0.0882423,0.17179,
2,1,0,1,0,34011.8,0.179582,0.179248,0.0500273,18,0.00745847,10,8.96729e-06,-4.30079,-3.74052,-0.0157732,-0.0306748,0.179248,
2,1,0,1,0,34019.3,0.187073,0.186751,0.0506182,18,0.00791394,10,9.45299e-06,-4.29569,-1.46677,-0.0402245,-0.0790603,0.186751,
2,1,0,1,0,34026.8,0.194564,0.194216,0.0509698,18,0.00837225,10,9.89914e-06,-4.29269,1.68724,0.0349684,0.0699951,0.194216,
2,1,0,1,0,34034.3,0.202055,0.201739,0.0524761,18,0.00883514,10,1.05865e-05,-4.28004,2.08405,0.0283103,0.0568681,0.201739,
2,1,0,1,0,34041.8,0.209546,0.209278,0.0523873,18,0.00930089,10,1.09635e-05,-4.28077,0.955707,0.0617344,0.126481,0.209278,
2,1,0,1,0,34049.3,0.217037,0.216755,0.0535447,18,0.00977327,10,1.16061e-05,-4.27128,1.05201,0.056083,0.117494,0.216755,
2,1,0,1,0,34056.8,0.224528,0.224203,0.0539849,18,0.0102516,10,1.21036e-05,-4.26773,2.03398,0.0290071,0.061416,0.224203,
2,1,0,1,0,34064.2,0.232019,0.231699,0.0550096,18,0.0107366,10,1.27457e-05,-4.25956,4.31608,0.0136698,0.0295265,0.231699,
2,1,0,1,0,34071.7,0.23951,0.239213,0.0561796,18,0.0112274,10,1.34389e-05,-4.25042,0.551061,0.107066,0.234504,0.239213,
2,1,0,1,0,34079.2,0.247001,0.246637,0.0574184,18,0.0117257,10,1.41615e-05,-4.24095,1.86498,0.0316357,0.070702,0.246637,
2,1,0,1,0,34086.7,0.254492,0.254175,0.0578196,18,0.0122291,10,1.46963e-05,-4.23792,0.98508,0.0598936,0.135761,0.254175,
2,1,0,1,0,34094.2,0.261983,0.261666,0.0592792,18,0.0127404,10,1.55114e-05,-4.2271,-79.9509,-0.000737953,-0.00170435,0.261666,
2,1,0,1,0,34101.7,0.269474,0.269166,0.0600682,18,0.0132577,10,1.61683e-05,-4.22136,0.573099,0.102949,0.240792,0.269166,
2,1,0,1,0,34109.2,0.276965,0.276682,0.0613335,18,0.0137826,10,1.69699e-05,-4.2123,-3.41238,-0.01729,-0.0415157,0.2766825,
2,1,0,1,0,34116.7,0.284456,0.284114,0.0615538,18,0.0143122,10,1.74883e-05,-4.21075,1.03605,0.0569471,0.136963,0.284114,
2,1,0,1,0,34124.2,0.291947,0.291632,0.0624688,18,0.0148467,10,1.82179e-05,-4.20434,-2.28814,-0.0257852,-0.0629151,0.291632,
2,1,0,1,0,34131.7,0.299438,0.299164,0.0632747,18,0.0153842,10,1.89295e-05,-4.19877,-0.00461509,-12.7842,-20.6406,0.299164,
2,1,0,1,0,34138.5,0.293745,0.293424,0.00939676,18,0.0154785,10,2.75724e-06,-5.02702,0.0148672,3.96847,1.51009,0.293424,
2,1,0,1,0,34146,0.286254,0.285954,0.00149419,18,0.0154483,10,4.2727e-07,-5.82559,0.00321145,18.3717,0.816977,0.285954,
2,1,0,1,0,34153.5,0.278763,0.278448,-0.00463408,18,0.0153682,10,-1.29035e-06,-5.33404,-0.0139271,-4.23635,0.706464,0.2784481,
2,0,0,1,0,34161,0.271272,0.270926,-0.00874433,18,0.0152486,10,-2.36906e-06,-5.05827,-0.0356586,-1.65458,0.585891,0.270926,
2,0,0,1,0,34168.5,0.263781,0.263458,-0.0130638,18,0.0150974,10,-3.44177e-06,-4.88393,-0.0455338,-1.29574,0.647517,0.263458,
2,0,0,1,0,34176,0.25629,0.256003,-0.0165006,18,0.0149173,10,-4.22421e-06,-4.7825,-0.10613,-0.555921,0.354513,0.2560035,
2,0,0,1,0,34183.4,0.248799,0.24845,-0.019575,18,0.0147136,10,-4.86341e-06,-4.7083,-0.0944716,-0.624527,0.472057,0.24845,
2,0,0,1,0,34190.9,0.241308,0.240995,-0.0223943,18,0.0144852,10,-5.3969e-06,-4.64986,-0.189028,-0.312122,0.271555,0.240995,
2,0,0,1,0,34198.4,0.233817,0.233507,-0.0252126,18,0.014235,10,-5.88731e-06,-4.59838,-0.208938,-0.282381,0.275214,0.233507,
2,0,0,1,0,34205.9,0.226326,0.226033,-0.0275403,18,0.0139646,10,-6.22503e-06,-4.56003,-0.157519,-0.374559,0.407223,0.226033,
2,0,0,1,0,34213.4,0.218835,0.218508,-0.0312998,18,0.0136717,10,-6.83925e-06,-4.50446,-0.194405,-0.303489,0.366454,0.218508,
2,0,0,1,0,34220.9,0.211344,0.211024,-0.0333262,18,0.0133571,10,-7.03264e-06,-4.47721,-0.192267,-0.306866,0.402096,0.211024,
2,0,0,1,0,34228.4,0.203853,0.203487,-0.0362496,18,0.0130198,10,-7.37631e-06,-4.4407,-0.17858,-0.330384,0.471156,0.2034869,
2,0,0,1,0,34235.9,0.196362,0.196051,-0.0393716,18,0.0126598,10,-7.71885e-06,-4.40482,-0.227341,-0.259522,0.399178,0.1960513,
2,0,0,1,0,34243.4,0.188871,0.188514,-0.0425205,18,0.0122762,10,-8.0157e-06,-4.3714,-0.165719,-0.356025,0.589663,0.188514,
2,0,0,1,0,34250.9,0.18138,0.181075,-0.0463733,18,0.0118663,10,-8.39705e-06,-4.33373,-0.196643,-0.300036,0.541239,0.181075,
2,0,0,1,0,34258.4,0.173889,0.173551,-0.0508188,18,0.0114243,10,-8.81964e-06,-4.29398,-0.22549,-0.261652,0.517822,0.173551,
2,0,0,1,0,34265.8,0.166398,0.166077,-0.0554355,18,0.0109474,10,-9.20654e-06,-4.25621,-0.184124,-0.320437,0.69558,0.166077,
2,0,0,1,0,34273.3,0.158907,0.158578,-0.0617724,18,0.0104268,10,-9.79572e-06,-4.20921,-0.125134,-0.471493,1.14773,0.158578,
2,0,0,1,0,34280.8,0.151417,0.151073,-0.0723272,18,0.00984251,10,-1.09267e-05,-4.1407,-0.0998445,-0.590919,1.65828,0.151073,
2,0,0,1,0,34288.3,0.143926,0.14359,-0.0875349,18,0.00916271,10,-1.25691e-05,-4.05782,-0.0724101,-0.814803,2.78147,0.14359,
2,0,0,1,0,34295.8,0.136435,0.136137,-0.110633,18,0.00833486,10,-1.50613e-05,-3.95612,-0.0793042,-0.743971,3.19791,0.136137,
2,0,0,1,0,34303.3,0.128944,0.128662,-0.132079,18,0.00732973,10,-1.69936e-05,-3.87917,-0.150619,-0.391717,2.01094,0.128662,
2,0,0,1,0,34310.8,0.121453,0.121135,-0.142307,18,0.00620362,10,-1.72383e-05,-3.84677,-0.571964,-0.103153,0.571395,0.121135,
2,0,0,1,0,34318.3,0.113962,0.113671,-0.142314,18,0.00503916,10,-1.61769e-05,-3.84675,1.22633,0.0481112,-0.268476,0.113671,
2,0,0,1,0,34325.8,0.106471,0.106104,-0.142075,18,0.00388053,10,-1.50748e-05,-3.84748,4.27203,0.0138108,-0.0767205,0.106104,
2,0,0,1,0,34333.3,0.0989798,0.0986604,-0.139506,18,0.0027336,10,-1.37638e-05,-3.85541,0.791983,0.0744966,-0.404079,0.0986604,
2,0,0,1,0,34340.8,0.0914889,0.0911326,-0.135062,18,0.00161396,10,-1.23085e-05,-3.86947,0.565102,0.104406,-0.549864,0.0911326,
2,0,0,1,0,34348.2,0.083998,0.0836303,-0.129889,18,0.000532727,10,-1.08626e-05,-3.88643,0.38056,0.155035,-0.784879,0.0836303,
2,0,0,1,0,34355.7,0.076507,0.0761565,-0.12588,18,-0.000514041,10,-9.58655e-06,-3.90004,0.451502,0.130675,-0.640101,0.0761565,
2,0,0,1,0,34363.2,0.069016,0.0687092,-0.121825,18,-0.00152946,10,-8.37049e-06,-3.91426,0.913911,0.0645577,-0.30845,0.06870921,
2,0,0,1,0,34370.7,0.0615251,0.06119,-0.119211,18,-0.00252144,10,-7.29455e-06,-3.92368,0.814059,0.0724763,-0.336049,0.06119,
2,0,0,1,0,34378.2,0.0540342,0.0537364,-0.116178,18,-0.00349173,10,-6.243e-06,-3.93488,0.867,0.0680507,-0.308173,0.0537364,
2,0,0,1,0,34385.7,0.0465432,0.0461756,-0.11345,18,-0.00444154,10,-5.23863e-06,-3.9452,0.62808,0.0939371,-0.416422,0.0461756,
2,0,0,1,0,34393.2,0.0390522,0.0387167,-0.111037,18,-0.00536969,10,-4.29899e-06,-3.95453,0.852893,0.0691763,-0.299194,0.0387167,
2,0,0,1,0,34400.7,0.0315613,0.0312568,-0.108271,18,-0.00627596,10,-3.38421e-06,-3.96549,0.679867,0.0867817,-0.36757,0.03125678,
2,0,0,1,0,34408.2,0.0240703,0.0237618,-0.106573,18,-0.00716452,10,-2.53237e-06,-3.97235,1.74095,0.0338895,-0.140867,0.0237618,
2,0,0,1,0,34415.7,0.0165794,0.0162414,-0.105981,18,-0.00804354,10,-1.72128e-06,-3.97477,12.1987,0.0048366,-0.0199532,0.0162414,
2,0,0,1,0,34423.2,0.00908843,0.00872521,-0.106906,18,-0.00892086,10,-9.32775e-07,-3.971,-0.995434,-0.0592706,0.24703,0.008725212,
2,0,0,1,0,34430.6,0.00159744,0.00121009,-0.10936,18,-0.00981389,10,-1.32336e-07,-3.96114, , , ,0.00121009,
2,0,0,1,0,34432,0.000199235,-0.000214582,-0.11021,18,-0.00998297,10,2.36492e-08,-3.95778, , , ,-0.000214582,