File: Figure_codes/Fig_3-5/rawdata_trumpetplot_data/after 10th/20221101_1-115_003_TrumpetPlot_ParaChange_from10_every3_06_CV_C01_25.csv
mode,ox/red,error,control changes,counter inc.,time/s,control/V,Ewe/V,<I>/mA,cycle number,(Q-Qo)/C,I Range,P/W,log(|I|),Tafel slope mV/dec,alpha_eff,dI/d(E-IR),E-IR/V,
2,0,0,0,0,50403.3,2.44065e-05,-0.000363498,-1.42107,26,0.0000000E+000,10,5.16556e-07,-2.84739, , , ,-0.000363498,
2,1,0,1,0,50403.5,0.00729063,0.00697506,1.03461,26,5.54688e-05,10,7.21649e-06,-2.98522,0.0216595,2.72398,104.214,0.00697506,
2,1,0,1,0,50403.6,0.014778,0.0144426,1.47209,26,0.000300106,10,2.12609e-05,-2.83206,0.0885213,0.666507,38.1186,0.0144426,
2,1,0,1,0,50403.8,0.0222743,0.021967,1.68584,26,0.000600576,10,3.70327e-05,-2.77318,0.157511,0.374578,24.6945,0.021967,
2,1,0,1,0,50404,0.0297626,0.0294417,1.86665,26,0.000935947,10,5.49574e-05,-2.72894,0.195428,0.301902,21.9014,0.02944169,
2,1,0,1,0,50404.2,0.0372544,0.0368782,2.02747,26,0.00130305,10,7.47696e-05,-2.69304,0.220217,0.267917,21.1756,0.0368782,
2,1,0,1,0,50404.4,0.0447472,0.04439,2.1891,26,0.00170106,10,9.71742e-05,-2.65973,0.229969,0.256556,21.9786,0.04439,
2,1,0,1,0,50404.6,0.0522345,0.0518882,2.35308,26,0.00212944,10,0.000122097,-2.62836,0.260963,0.226086,20.7414,0.0518882,
2,1,0,1,0,50404.8,0.0597309,0.0593548,2.50036,26,0.00258763,10,0.000148408,-2.602,0.303882,0.194154,18.9578,0.0593548,
2,1,0,1,0,50405,0.0672182,0.0668874,2.64267,26,0.00307225,10,0.000176761,-2.57796,0.327703,0.180041,18.5482,0.0668874,
2,1,0,1,0,50405.1,0.0747074,0.0743649,2.76386,26,0.00358129,10,0.000205534,-2.55848,0.483944,0.121915,13.1276,0.0743649,
2,1,0,1,0,50405.3,0.0822019,0.0818713,2.85854,26,0.00411147,10,0.000234032,-2.54386,0.568721,0.103741,11.5968,0.0818713,
2,1,0,1,0,50405.5,0.0896911,0.0893948,2.95763,26,0.00465902,10,0.000264397,-2.52906,0.533269,0.110638,12.7891,0.0893948,
2,1,0,1,0,50405.7,0.097182,0.096809,3.09074,26,0.00522738,10,0.000299211,-2.50994,0.315971,0.186726,22.5036,0.09680903,
2,1,0,1,0,50405.9,0.104675,0.104322,3.29935,26,0.00582731,10,0.000344194,-2.48157,0.223064,0.264498,34.0955,0.104322,
2,1,0,1,0,50406.1,0.112162,0.111833,3.56673,26,0.00647276,10,0.000398878,-2.44773,0.233481,0.252697,35.1697,0.111833,
2,1,0,1,0,50406.3,0.119655,0.119292,3.81753,26,0.00716805,10,0.000455401,-2.41822,0.323707,0.182263,27.1059,0.119292,
2,1,0,1,0,50406.5,0.127146,0.126837,3.9661,26,0.00790136,10,0.00050305,-2.40164,0.55523,0.106262,16.4733,0.126837,
2,1,0,1,0,50406.6,0.134635,0.134251,4.06049,26,0.00865677,10,0.000545124,-2.39142,1.44495,0.0408318,6.46288,0.134251,
2,1,0,1,0,50406.8,0.14213,0.141837,4.03833,26,0.00942124,10,0.000572783,-2.3938,-0.55397,-0.106504,-16.7376,0.141837,
2,1,0,1,0,50407,0.149619,0.149272,3.71673,26,0.0101557,10,0.000554803,-2.42984,-0.127603,-0.46237,-66.8454,0.1492717,
2,1,0,1,0,50407.2,0.157106,0.156793,3.11367,26,0.0107992,10,0.000488202,-2.50673,-0.0840384,-0.70206,-85.0074,0.156793,
2,1,0,1,0,50407.4,0.164602,0.164208,2.56338,26,0.0113301,10,0.000420927,-2.59119,-0.102334,-0.576544,-57.8268,0.1642077,
2,1,0,1,0,50407.6,0.172091,0.171763,2.22687,26,0.0117786,10,0.000382495,-2.6523,-0.145102,-0.40661,-35.432,0.171763,
2,1,0,1,0,50407.8,0.179582,0.17921,2.03421,26,0.0121786,10,0.00036455,-2.6916,-0.238249,-0.24764,-19.6729,0.17921,
2,1,0,1,0,50408,0.187074,0.186721,1.91573,26,0.0125504,10,0.000357707,-2.71767,-0.43725,-0.134934,-10.1154,0.186721,
2,1,0,1,0,50408.1,0.194563,0.194232,1.84892,26,0.0129051,10,0.000359118,-2.73308,-0.587178,-0.100481,-7.24135,0.194232,
2,1,0,1,0,50408.3,0.202059,0.20172,1.79972,26,0.0132492,10,0.000363039,-2.7448,-0.66774,-0.0883578,-6.20109,0.20172,
2,1,0,1,0,50408.5,0.209546,0.209223,1.76588,26,0.0135857,10,0.000369464,-2.75304,-0.765822,-0.0770414,-5.32615,0.209223,
2,1,0,1,0,50408.7,0.217035,0.216736,1.73892,26,0.0139167,10,0.000376885,-2.75972,-1.23242,-0.0478734,-3.25284,0.2167358,
2,1,0,1,0,50408.9,0.22453,0.224169,1.71896,26,0.014244,10,0.000385338,-2.76473,-1.16791,-0.0505177,-3.39661,0.224169,
2,1,0,1,0,50409.1,0.232019,0.23166,1.70185,26,0.0145673,10,0.00039425,-2.76908,-3.54615,-0.0166378,-1.10834,0.23166,
2,1,0,1,0,50409.3,0.23951,0.239206,1.69524,26,0.0148881,10,0.000405511,-2.77077,-2.37605,-0.0248311,-1.63333,0.239206,
2,1,0,1,0,50409.5,0.247003,0.24669,1.67962,26,0.0152064,10,0.000414344,-2.77479,-1.27851,-0.0461474,-3.02051,0.2466896,
2,1,0,1,0,50409.6,0.25449,0.254186,1.6636,26,0.0155222,10,0.000422864,-2.77895,-2.18971,-0.0269443,-1.75371,0.254186,
2,1,0,1,0,50409.8,0.261983,0.261638,1.65646,26,0.0158362,10,0.000433393,-2.78082,-2.22987,-0.0264589,-1.70801,0.261638,
2,1,0,1,0,50410,0.269474,0.269149,1.64175,26,0.0161479,10,0.000441875,-2.78469,-3.29212,-0.0179216,-1.15189,0.269149,
2,1,0,1,0,50410.2,0.276963,0.276669,1.63257,26,0.0164574,10,0.00045168,-2.78713,-2.05036,-0.0287754,-1.83467,0.276669,
2,1,0,1,0,50410.4,0.284458,0.284141,1.62446,26,0.0167648,10,0.000461576,-2.78929,-2.41973,-0.0243829,-1.53955,0.284141,
2,1,0,1,0,50410.6,0.291947,0.291587,1.60376,26,0.0170693,10,0.000467637,-2.79486,-1.80896,-0.0326154,-2.04482,0.291587,
2,1,0,1,0,50410.8,0.299434,0.299129,1.59396,26,0.0173714,10,0.000476801,-2.79752,-0.0189286,-3.11698,-169.367,0.299129,
2,0,0,1,0,50410.9,0.294196,0.293837,-0.263292,26,0.0174261,10,-7.73648e-05,-3.57956,-0.00509646,-11.5767,79.5708,0.293837,
2,0,0,1,0,50411.1,0.286701,0.286345,-0.554546,26,0.0173405,10,-0.000158791,-3.25606,-0.054729,-1.07804,23.3678,0.286345,
2,0,0,1,0,50411.3,0.279212,0.278894,-0.696664,26,0.0172189,10,-0.000194296,-3.15698,-0.11585,-0.509278,13.7564,0.278894,
2,0,0,1,0,50411.5,0.271725,0.2714,-0.786995,26,0.0170763,10,-0.000213591,-3.10403,-0.143799,-0.410296,12.6665,0.2714,
2,0,0,1,0,50411.7,0.264228,0.263873,-0.865987,26,0.0169176,10,-0.00022851,-3.06249,-0.209458,-0.281679,9.49787,0.263873,
2,0,0,1,0,50411.9,0.256741,0.256401,-0.930491,26,0.0167464,10,-0.000238579,-3.03129,-0.272442,-0.21656,7.83888,0.256401,
2,0,0,1,0,50412,0.249248,0.248947,-0.986846,26,0.0165638,10,-0.000245672,-3.00575,-0.351476,-0.167863,6.4627,0.248947,
2,0,0,1,0,50412.2,0.241756,0.241395,-1.03561,26,0.0163711,10,-0.000249991,-2.9848,-0.365821,-0.161281,6.52077,0.241395,
2,0,0,1,0,50412.4,0.234268,0.233941,-1.08245,26,0.0161692,10,-0.000253231,-2.96559,-0.404244,-0.145951,6.18195,0.233941,
2,0,0,1,0,50412.6,0.226772,0.226445,-1.12979,26,0.0159583,10,-0.000255836,-2.947,-0.36451,-0.161861,7.16171,0.2264446,
2,0,0,1,0,50412.8,0.219285,0.218958,-1.17883,26,0.0157393,10,-0.000258113,-2.92855,-0.561691,-0.10504,4.81113,0.218958,
2,0,0,1,0,50413,0.211796,0.211451,-1.21998,26,0.015512,10,-0.000257966,-2.91365,-0.567372,-0.103988,4.93478,0.211451,
2,0,0,1,0,50413.2,0.204301,0.20396,-1.26245,26,0.015276,10,-0.000257489,-2.89879,-0.671067,-0.0879197,4.33902,0.20396,
2,0,0,1,0,50413.4,0.196812,0.196455,-1.30864,26,0.0150321,10,-0.000257088,-2.88318,-0.478372,-0.123335,6.28913,0.196455,
2,0,0,1,0,50413.5,0.189321,0.188961,-1.35608,26,0.0147792,10,-0.000256246,-2.86771,-0.452885,-0.130276,6.91836,0.188961,
2,0,0,1,0,50413.7,0.181828,0.181543,-1.40807,26,0.0145169,10,-0.000255624,-2.85138,-0.387631,-0.152207,8.37462,0.181543,
2,0,0,1,0,50413.9,0.174341,0.173996,-1.47752,26,0.0142437,10,-0.000257082,-2.83047,-0.335611,-0.175799,10.1092,0.173996,
2,0,0,1,0,50414.1,0.166848,0.16654,-1.55026,26,0.0139574,10,-0.00025818,-2.80959,-0.2971,-0.198587,12.0381,0.16654,
2,0,0,1,0,50414.3,0.159357,0.159009,-1.65817,26,0.0136541,10,-0.000263664,-2.78037,-0.251031,-0.23503,15.1917,0.159009,
2,0,0,1,0,50414.5,0.151868,0.151483,-1.81562,26,0.013327,10,-0.000275036,-2.74097,-0.162965,-0.36204,25.655,0.1514831,
2,0,0,1,0,50414.7,0.144373,0.144062,-2.07135,26,0.0129617,10,-0.000298403,-2.68375,-0.109158,-0.540501,43.8521,0.1440617,
2,0,0,1,0,50414.9,0.136884,0.136506,-2.4789,26,0.012535,10,-0.000338384,-2.60574,-0.0905479,-0.651589,62.9285,0.136506,
2,0,0,1,0,50415,0.129393,0.129073,-2.97714,26,0.0120216,10,-0.000384267,-2.5262,-0.100796,-0.585341,67.872,0.129073,
2,0,0,1,0,50415.2,0.1219,0.121544,-3.44445,26,0.0114154,10,-0.000418653,-2.46288,-0.144381,-0.408642,54.8839,0.121544,
2,0,0,1,0,50415.4,0.114413,0.114062,-3.81853,26,0.0107305,10,-0.00043555,-2.4181,-0.225561,-0.26157,38.8425,0.114062,
2,0,0,1,0,50415.6,0.10692,0.106613,-4.0317,26,0.00998985,10,-0.000429831,-2.39451,-0.564949,-0.104434,16.4126,0.1066127,
2,0,0,1,0,50415.8,0.0994284,0.0990613,-4.07221,26,0.00922452,10,-0.000403399,-2.39017,2.33462,0.0252718,-4.01631,0.0990613,
2,0,0,1,0,50416,0.0919401,0.0915953,-3.98522,26,0.00846586,10,-0.000365027,-2.39955,0.54807,0.107651,-16.7044,0.0915953,
2,0,0,1,0,50416.2,0.0844447,0.0841209,-3.84903,26,0.00772889,10,-0.000323784,-2.41465,0.529639,0.111397,-16.7453,0.0841209,
2,0,0,1,0,50416.4,0.0769565,0.0766335,-3.74511,26,0.00701527,10,-0.000287001,-2.42653,0.704969,0.0836916,-12.2375,0.07663355,
2,0,0,1,0,50416.5,0.0694682,0.0691048,-3.66254,26,0.00631898,10,-0.000253099,-2.43622,0.820043,0.0719475,-10.2711,0.0691048,
2,0,0,1,0,50416.7,0.0619728,0.0616265,-3.57198,26,0.0056376,10,-0.000220128,-2.44709,0.682784,0.0864109,-12.0681,0.0616265,
2,0,0,1,0,50416.9,0.0544836,0.0541591,-3.478,26,0.00497393,10,-0.000188365,-2.45867,0.708053,0.0833271,-11.3192,0.0541591,
2,0,0,1,0,50417.1,0.0469927,0.0466745,-3.37837,26,0.0043282,10,-0.000157684,-2.47129,0.580644,0.101611,-13.3822,0.0466745,
2,0,0,1,0,50417.3,0.0394999,0.0391115,-3.26813,26,0.00370242,10,-0.000127821,-2.4857,0.520554,0.113341,-14.4653,0.0391115,
2,0,0,1,0,50417.5,0.0320125,0.031647,-3.14563,26,0.00309899,10,-9.95497e-05,-2.50229,0.386523,0.152643,-18.7145,0.031647,
2,0,0,1,0,50417.7,0.0245198,0.0241945,-3.01629,26,0.0025189,10,-7.29777e-05,-2.52053,0.431287,0.1368,-16.1054,0.0241945,
2,0,0,1,0,50417.9,0.0170289,0.0166677,-2.90465,26,0.00196133,10,-4.84137e-05,-2.53691,0.506888,0.116397,-13.2178,0.0166677,
2,0,0,1,0,50418,0.0095397,0.00915511,-2.82146,26,0.00142267,10,-2.58308e-05,-2.54953,0.727787,0.0810677,-8.91006,0.00915511,
2,0,0,1,0,50418.2,0.00204518,0.00160948,-2.79664,26,0.000896494,10,-4.50115e-06,-2.55336,2.50946,0.0235111,-2.53989,0.00160948,
2,0,0,1,0,50418.3,0.000177222,-0.000242103,-2.76309,26,0.000765868,10,6.68951e-07,-2.55861, , , ,-0.000242103,