File: Figure_codes/Fig_3-5/rawdata_trumpetplot_data/after 10th/20221101_1-115_003_TrumpetPlot_ParaChange_from10_every3_02_CV_C01_13.csv
mode,ox/red,error,control changes,counter inc.,time/s,control/V,Ewe/V,<I>/mA,cycle number,(Q-Qo)/C,I Range,P/W,log(|I|),Tafel slope mV/dec,alpha_eff,dI/d(E-IR),E-IR/V,
2,0,0,1,0,25951.7,2.44065e-05,-0.000268062,-0.378612,14,0.0000000E+000,10,1.01491e-07,-3.42181, , , ,-0.000268062,
2,0,0,1,0,25959,0.00729061,0.00699569,-0.0939187,14,-0.000917331,10,-6.57026e-07,-4.02725,-0.0313397,-1.8826,7.01223,0.00699569,
2,0,0,1,0,25966.5,0.0147815,0.0144503,-0.0589414,14,-0.00137962,10,-8.5172e-07,-4.22958,-0.0407846,-1.44663,3.32096,0.0144503,
2,0,0,1,0,25974,0.0222725,0.0220047,-0.0381573,14,-0.00164577,10,-8.3964e-07,-4.41842,-0.0369729,-1.59577,2.38585,0.0220047,
2,0,0,1,0,25981.5,0.0297635,0.0294191,-0.0228533,14,-0.00177916,10,-6.72323e-07,-4.64105,-0.029321,-2.01221,1.77291,0.0294191,
2,0,0,1,0,25989,0.0372544,0.0369395,-0.00989875,14,-0.00180661,10,-3.65655e-07,-5.00442,-0.0134107,-4.39947,1.68049,0.0369395,
2,0,0,1,0,25996.4,0.0447454,0.0444302,0.00170072,14,-0.00174029,10,7.55635e-08,-5.76937,0.00922606,6.39493,1.27879,0.0444302,
2,1,0,1,0,26003.9,0.0522363,0.0518859,0.0117726,14,-0.00159164,10,6.10829e-07,-4.92913,0.0180049,3.27688,1.44391,0.0518859,
2,1,0,1,0,26011.4,0.0597273,0.0593915,0.0205106,14,-0.0013695,10,1.21816e-06,-4.68802,0.0420976,1.4015,1.11414,0.0593915,
2,1,0,1,0,26018.9,0.0672183,0.0669002,0.0299003,14,-0.00108162,10,2.00034e-06,-4.52432,0.0617679,0.955188,1.06685,0.0669002,
2,1,0,1,0,26026.4,0.0747092,0.0743602,0.0368387,14,-0.000734672,10,2.73934e-06,-4.4337,0.0874341,0.674794,0.961433,0.0743602,
2,1,0,1,0,26033.9,0.0822001,0.0819144,0.0434952,14,-0.000331719,10,3.56288e-06,-4.36156,0.101021,0.584035,1.00409,0.0819144,
2,1,0,1,0,26041.4,0.0896911,0.089349,0.0528302,14,0.000131639,10,4.72032e-06,-4.27712,0.0791481,0.745438,1.55187,0.089349,
2,1,0,1,0,26048.9,0.0971821,0.0968197,0.0635054,14,0.0006707,10,6.14857e-06,-4.19719,0.0756169,0.780249,1.93582,0.0968197,
2,1,0,1,0,26056.4,0.104673,0.104328,0.0758331,14,0.00129308,10,7.91154e-06,-4.12014,0.128229,0.460114,1.33432,0.104328,
2,1,0,1,0,26063.9,0.112164,0.111809,0.0843904,14,0.00199607,10,9.43564e-06,-4.07371,0.234668,0.251419,0.829746,0.111809,
2,1,0,1,0,26071.4,0.119655,0.119356,0.0928489,14,0.0027667,10,1.10821e-05,-4.03222,0.251449,0.23464,0.854683,0.119356,
2,1,0,1,0,26078.8,0.127146,0.126849,0.100443,14,0.00360132,10,1.27411e-05,-3.99808,0.307462,0.191894,0.749619,0.126849,
2,1,0,1,0,26086.3,0.134637,0.134275,0.100165,14,0.00446902,10,1.34497e-05,-3.99928,-0.204275,-0.288827,-1.1264,0.134275,
2,1,0,1,0,26093.8,0.142128,0.14184,0.0848734,14,0.00527342,10,1.20384e-05,-4.07123,-0.071938,-0.82015,-2.68171,0.14184,
2,1,0,1,0,26101.3,0.149619,0.149286,0.0646507,14,0.00592806,10,9.65146e-06,-4.18943,-0.0779025,-0.757357,-1.9358,0.149286,
2,1,0,1,0,26108.8,0.15711,0.156803,0.0546125,14,0.00646771,10,8.56337e-06,-4.26271,-0.124505,-0.473877,-1.02024,0.156803,
2,1,0,1,0,26116.3,0.164601,0.164269,0.0509044,14,0.00695385,10,8.36201e-06,-4.29324,-0.881656,-0.0669195,-0.132478,0.164269,
2,1,0,1,0,26123.8,0.172091,0.171745,0.0497093,14,0.00742318,10,8.5373e-06,-4.30356,-0.458618,-0.128647,-0.249925,0.171745,
2,1,0,1,0,26131.3,0.179582,0.17926,0.0490924,14,0.00788378,10,8.8003e-06,-4.30899,-6.34746,-0.00929505,-0.017773,0.17926,
2,1,0,1,0,26138.8,0.187073,0.18678,0.0492802,14,0.00834115,10,9.20456e-06,-4.30733,0.867485,0.0680127,0.130174,0.18678,
2,1,0,1,0,26146.3,0.194564,0.194245,0.0495849,14,0.00879958,10,9.63165e-06,-4.30465,1.00147,0.0589135,0.113443,0.194245,
2,1,0,1,0,26153.8,0.202055,0.201749,0.0500495,14,0.0092607,10,1.00974e-05,-4.3006,1.29364,0.0456077,0.089283,0.201749,
2,1,0,1,0,26161.2,0.209546,0.209227,0.0509602,14,0.00972721,10,1.06622e-05,-4.29277,0.501999,0.11753,0.233926,0.209227,
2,1,0,1,0,26168.7,0.217037,0.216774,0.0523189,14,0.0101995,10,1.13414e-05,-4.28134,5.7341,0.0102893,0.0208836,0.216774,
2,1,0,1,0,26176.2,0.224528,0.224255,0.0529885,14,0.0106775,10,1.18829e-05,-4.27582,0.721767,0.0817438,0.168543,0.224255,
2,1,0,1,0,26183.7,0.232019,0.231694,0.0540965,14,0.0111631,10,1.25338e-05,-4.26683,1.66743,0.0353839,0.0752918,0.231694,
2,1,0,1,0,26191.2,0.23951,0.239198,0.0551741,14,0.0116559,10,1.31975e-05,-4.25827,0.500705,0.117834,0.253606,0.239198,
2,1,0,1,0,26198.7,0.247001,0.246649,0.0565548,14,0.0121549,10,1.39492e-05,-4.24753,0.640564,0.0921063,0.203675,0.246649,
2,1,0,1,0,26206.2,0.254492,0.254206,0.0569193,14,0.0126611,10,1.44692e-05,-4.24474,0.862526,0.0684037,0.152127,0.254206,
2,1,0,1,0,26213.7,0.261983,0.261671,0.0580941,14,0.0131728,10,1.52016e-05,-4.23587,0.7119,0.0828768,0.188317,0.261671,
2,1,0,1,0,26221.2,0.269474,0.2692,0.0587909,14,0.0136903,10,1.58265e-05,-4.23069,1.25458,0.0470276,0.10774,0.2692,
2,1,0,1,0,26228.7,0.276965,0.276679,0.0597658,14,0.0142142,10,1.6536e-05,-4.22355,6.17007,0.00956229,0.0224837,0.276679,
2,1,0,1,0,26236.2,0.284456,0.284154,0.0606779,14,0.0147434,10,1.72419e-05,-4.21697,1.92709,0.0306161,0.0724821,0.284154,
2,1,0,1,0,26243.6,0.291947,0.291652,0.0613356,14,0.0152778,10,1.78887e-05,-4.21229,0.909691,0.0648572,0.156623,0.291652,
2,1,0,1,0,26251.1,0.299438,0.299149,0.0623152,14,0.0158191,10,1.86416e-05,-4.20541,-0.00467881,-12.61,-20.3321,0.299149,
2,1,0,1,0,26258,0.293745,0.293432,0.00965479,14,0.0159081,10,2.83302e-06,-5.01526,0.0146844,4.01788,1.56772,0.293432,
2,1,0,1,0,26265.5,0.286254,0.285939,0.00210878,14,0.0158734,10,6.02983e-07,-5.67597,0.00281129,20.9868,0.832271,0.2859388,
2,0,0,1,0,26273,0.278763,0.278432,-0.00389556,14,0.0157885,10,-1.08465e-06,-5.40943,-0.0125227,-4.71145,0.604565,0.278432,
2,0,0,1,0,26280.5,0.271272,0.270995,-0.00881711,14,0.0156646,10,-2.38939e-06,-5.05467,-0.0304972,-1.9346,0.648184,0.270995,
2,1,0,1,0,26287.9,0.263781,0.263475,-0.0126844,14,0.0155056,10,-3.34204e-06,-4.89673,-0.0712015,-0.828634,0.40728,0.263475,
2,0,0,1,0,26295.4,0.25629,0.255959,-0.0158421,14,0.0153191,10,-4.05492e-06,-4.80019,-0.0881735,-0.669136,0.403143,0.255959,
2,0,0,1,0,26302.9,0.248799,0.248456,-0.019284,14,0.0151094,10,-4.79121e-06,-4.7148,-0.118983,-0.495871,0.372485,0.248456,
2,0,0,1,0,26310.4,0.241308,0.241011,-0.0216065,14,0.0148767,10,-5.2074e-06,-4.66541,-0.120379,-0.490117,0.413833,0.241011,
2,0,0,1,0,26317.9,0.233817,0.233489,-0.0245085,14,0.0146238,10,-5.72247e-06,-4.61068,-0.123136,-0.479144,0.455161,0.233489,
2,0,0,1,0,26325.4,0.226326,0.226023,-0.0276243,14,0.0143466,10,-6.24372e-06,-4.55871,-0.150172,-0.392883,0.42247,0.226023,
2,0,0,1,0,26332.9,0.218835,0.21854,-0.0303106,14,0.014047,10,-6.62408e-06,-4.51841,-0.190499,-0.309713,0.366234,0.21854,
2,0,0,1,0,26340.4,0.211344,0.211058,-0.0331822,14,0.0137253,10,-7.00337e-06,-4.4791,-0.219615,-0.268652,0.347908,0.211058,
2,0,0,1,0,26347.9,0.203853,0.203528,-0.0351279,14,0.0133841,10,-7.14953e-06,-4.45435,-0.216763,-0.272187,0.379706,0.203528,
2,0,0,1,0,26355.4,0.196362,0.196078,-0.0383656,14,0.0130212,10,-7.52265e-06,-4.41606,-0.29207,-0.202006,0.302525,0.196078,
2,0,0,1,0,26362.9,0.188871,0.188591,-0.0420576,14,0.0126353,10,-7.93171e-06,-4.37616,-0.150484,-0.392069,0.63591,0.188591,
2,0,0,1,0,26370.3,0.18138,0.181097,-0.0458643,14,0.0122212,10,-8.3059e-06,-4.33853,-0.216512,-0.272502,0.484062,0.181097,
2,0,0,1,0,26377.8,0.173889,0.173586,-0.0495062,14,0.0117779,10,-8.59357e-06,-4.30534,-0.157424,-0.374784,0.723651,0.173586,
2,0,0,1,0,26385.3,0.166398,0.16607,-0.0546851,14,0.0112965,10,-9.08158e-06,-4.26213,-0.142977,-0.412653,0.891722,0.16607,
2,0,0,1,0,26392.8,0.158907,0.158624,-0.0624042,14,0.0107646,10,-9.89882e-06,-4.20479,-0.125781,-0.469071,1.14568,0.158624,
2,0,0,1,0,26400.3,0.151417,0.151086,-0.0732943,14,0.0101645,10,-1.10737e-05,-4.13493,-0.0895264,-0.659024,1.88561,0.151086,
2,0,0,1,0,26407.8,0.143926,0.143577,-0.0904707,14,0.00945718,10,-1.29895e-05,-4.04349,-0.0672531,-0.877283,3.0978,0.143577,
2,0,0,1,0,26415.3,0.136435,0.13608,-0.115566,14,0.00858619,10,-1.57262e-05,-3.93717,-0.0783858,-0.752688,3.38184,0.13608,
2,0,0,1,0,26422.8,0.128944,0.1286,-0.137298,14,0.00752865,10,-1.76565e-05,-3.86234,-0.169602,-0.347873,1.85679,0.1285999,
2,0,0,1,0,26430.3,0.121453,0.121108,-0.146612,14,0.00635298,10,-1.7756e-05,-3.83383,-1.17085,-0.0503909,0.287493,0.121108,
2,0,0,1,0,26437.8,0.113962,0.113617,-0.145583,14,0.00515013,10,-1.65408e-05,-3.83689,1.63585,0.0360669,-0.205891,0.113617,
2,0,0,1,0,26445.3,0.106471,0.106202,-0.143911,14,0.003959,10,-1.52836e-05,-3.84191,1.44611,0.0407992,-0.230339,0.106202,
2,0,0,1,0,26452.7,0.0989798,0.098654,-0.140618,14,0.00279026,10,-1.38725e-05,-3.85196,0.67817,0.0869989,-0.475649,0.098654,
2,0,0,1,0,26460.2,0.0914889,0.0911962,-0.135634,14,0.00165627,10,-1.23693e-05,-3.86763,0.432786,0.136326,-0.719146,0.0911962,
2,0,0,1,0,26467.7,0.083998,0.0837067,-0.130026,14,0.000561268,10,-1.0884e-05,-3.88597,0.351565,0.167821,-0.849235,0.0837067,
2,0,0,1,0,26475.2,0.076507,0.076183,-0.125805,14,-0.000494024,10,-9.58419e-06,-3.9003,0.48747,0.121033,-0.590037,0.076183,
2,0,0,1,0,26482.7,0.069016,0.0686795,-0.121429,14,-0.00151811,10,-8.33968e-06,-3.91568,0.617727,0.0955114,-0.456836,0.0686795,
2,0,0,1,0,26490.2,0.0615251,0.0611878,-0.118415,14,-0.00251885,10,-7.24558e-06,-3.92659,0.660327,0.0893496,-0.414203,0.0611878,
2,0,0,1,0,26497.7,0.0540342,0.0536812,-0.116155,14,-0.00349479,10,-6.23533e-06,-3.93496,0.882523,0.0668538,-0.301996,0.0536812,
2,0,0,1,0,26505.2,0.0465432,0.0462297,-0.112736,14,-0.00445051,10,-5.21177e-06,-3.94794,1.18222,0.049906,-0.21992,0.0462297,
2,0,0,1,0,26512.7,0.0390522,0.0386732,-0.110761,14,-0.00538608,10,-4.2835e-06,-3.95561,0.527065,0.111941,-0.483036,0.0386732,
2,0,0,1,0,26520.2,0.0315613,0.0312409,-0.107611,14,-0.00630035,10,-3.36186e-06,-3.96814,0.515854,0.114373,-0.481208,0.0312409,
2,0,0,1,0,26527.7,0.0240703,0.0237172,-0.105419,14,-0.00719456,10,-2.50024e-06,-3.97708,1.11071,0.0531191,-0.220032,0.0237172,
2,0,0,1,0,26535.1,0.0165794,0.01625,-0.105307,14,-0.00807895,10,-1.71123e-06,-3.97754,-36.5476,-0.00161433,0.00662509,0.01625,
2,0,0,1,0,26542.6,0.00908843,0.00876659,-0.106115,14,-0.00896264,10,-9.30266e-07,-3.97422,-1.05874,-0.0557267,0.230478,0.00876659,
2,0,0,1,0,26550.1,0.00159744,0.00124613,-0.108999,14,-0.00986183,10,-1.35826e-07,-3.96258, , , ,0.00124613,
2,0,0,1,0,26551.5,0.000199235,-0.000136292,-0.109422,14,-0.0100318,10,1.49133e-08,-3.9609, , , ,-0.000136292,