File: Figure_codes/Fig_3-5/rawdata_trumpetplot_data/after 10th/20221101_1-115_003_TrumpetPlot_ParaChange_from10_every3_11_CV_C01_23.csv
mode,ox/red,error,control changes,counter inc.,time/s,control/V,Ewe/V,<I>/mA,cycle number,(Q-Qo)/C,I Range,P/W,log(|I|),Tafel slope mV/dec,alpha_eff,dI/d(E-IR),E-IR/V,
2,1,0,1,0,46507.5,2.44065e-05,-0.000363498,9.53903,24,0.0000000E+000,10,-3.46742e-06,-2.0205, , , ,-0.000363498,
2,1,0,1,0,46507.5,0.0101427,0.00979838,12.8242,24,0.000288993,10,0.000125657,-1.89197,0.136039,0.433701,216.109,0.00979838,
2,1,0,1,0,46507.6,0.0205441,0.0202116,14.6791,24,0.00064822,10,0.000296687,-1.8333,0.222801,0.26481,151.498,0.0202116,
2,1,0,1,0,46507.6,0.0309482,0.0306089,16.0693,24,0.00104873,10,0.000491864,-1.794,0.308191,0.19144,119.859,0.0306089,
2,1,0,1,0,46507.6,0.0413439,0.0409743,17.2062,24,0.00148162,10,0.000705013,-1.76431,0.390055,0.151261,101.469,0.0409743,
2,1,0,1,0,46507.6,0.0517425,0.0514151,18.2334,24,0.00194264,10,0.000937474,-1.73913,0.421556,0.139958,99.6842,0.0514151,
2,1,0,1,0,46507.7,0.0621438,0.0618336,19.2719,24,0.0024304,10,0.00119165,-1.71507,0.440646,0.133894,100.659,0.06183359,
2,1,0,1,0,46507.7,0.0725479,0.0721641,20.3152,24,0.00294504,10,0.00146603,-1.69218,0.455583,0.129504,102.622,0.0721641,
2,1,0,1,0,46507.7,0.0829437,0.0826218,21.3688,24,0.00348703,10,0.00176553,-1.67022,0.468886,0.12583,105.02,0.0826218,
2,1,0,1,0,46507.8,0.0933422,0.0929523,22.4638,24,0.00405725,10,0.00208806,-1.64852,0.498253,0.118414,103.831,0.0929523,
2,1,0,1,0,46507.8,0.103749,0.103415,23.53,24,0.00465519,10,0.00243337,-1.62838,0.517352,0.114042,104.7,0.1034153,
2,1,0,1,0,46507.8,0.114148,0.113803,24.6359,24,0.00528139,10,0.00280364,-1.60843,0.519731,0.11352,109.123,0.113803,
2,1,0,1,0,46507.8,0.124543,0.124194,25.8208,24,0.00593709,10,0.00320678,-1.58803,0.484544,0.121764,122.747,0.124194,
2,1,0,1,0,46507.9,0.134942,0.134585,27.1767,24,0.00662595,10,0.00365757,-1.5658,0.460259,0.128189,135.989,0.134585,
2,1,0,1,0,46507.9,0.145349,0.145016,28.5969,24,0.00735106,10,0.00414702,-1.54368,0.499164,0.118198,131.798,0.145016,
2,1,0,1,0,46507.9,0.155747,0.155388,29.8851,24,0.00811166,10,0.00464379,-1.52454,0.5896,0.100068,116.686,0.155388,
2,1,0,1,0,46507.9,0.166143,0.165783,30.9268,24,0.0089033,10,0.00512715,-1.50966,0.900019,0.0655542,79.0768,0.165783,
2,1,0,1,0,46508,0.176542,0.176176,31.3949,24,0.00971532,10,0.00553104,-1.50314,16.7944,0.00351307,4.29715,0.176176,
2,1,0,1,0,46508,0.186949,0.186621,30.9275,24,0.0105277,10,0.00577173,-1.50965,-0.751712,-0.0784875,-94.5885,0.186621,
2,1,0,1,0,46508,0.197347,0.197021,29.4578,24,0.0113145,10,0.0058038,-1.5308,-0.368218,-0.160231,-183.95,0.197021,
2,1,0,1,0,46508,0.207743,0.207433,27.2499,24,0.0120525,10,0.00565252,-1.56464,-0.266226,-0.221616,-235.353,0.207433,
2,1,0,1,0,46508.1,0.218141,0.217827,24.7612,24,0.0127283,10,0.00539365,-1.60623,-0.2427,-0.243098,-235.022,0.217827,
2,1,0,1,0,46508.1,0.228548,0.228234,22.484,24,0.0133415,10,0.00513162,-1.64813,-0.258213,-0.228494,-200.596,0.228234,
2,1,0,1,0,46508.1,0.238947,0.238653,20.5927,24,0.0139004,10,0.00491451,-1.68629,-0.290916,-0.202808,-162.995,0.2386532,
2,1,0,1,0,46508.1,0.249343,0.248987,19.0844,24,0.0144152,10,0.00475177,-1.71932,-0.340928,-0.173057,-129.005,0.248987,
2,1,0,1,0,46508.2,0.259741,0.259448,17.9123,24,0.0148955,10,0.00464729,-1.74685,-0.40904,-0.14424,-100.898,0.259448,
2,1,0,1,0,46508.2,0.270148,0.269812,16.9827,24,0.0153485,10,0.00458214,-1.76999,-0.498431,-0.118371,-78.4802,0.2698122,
2,1,0,1,0,46508.2,0.280547,0.280223,16.234,24,0.0157799,10,0.00454916,-1.78957,-0.573516,-0.102874,-65.2035,0.280223,
2,1,0,1,0,46508.2,0.290942,0.290646,15.6186,24,0.0161938,10,0.0045395,-1.80636,-0.665867,-0.0886063,-54.0349,0.290646,
2,1,0,0,0,46508.3,0.300012,0.299727,15.1596,24,0.0165431,10,0.00454376,-1.81931,0.00167447,35.2349,18530.6,0.299727,
2,1,0,1,0,46508.3,0.290704,0.290421,5.68648,24,0.0167647,10,0.00165147,-2.24516,0.020043,2.94367,648.641,0.290421,
2,1,0,1,0,46508.3,0.280305,0.280052,0.690981,24,0.0168409,10,0.000193511,-3.16053,0.00935756,6.30506,367.132,0.280052,
2,0,0,1,0,46508.3,0.269909,0.269606,-2.35293,24,0.0168161,10,-0.000634364,-2.62839,-0.021601,-2.73135,236.014,0.269606,
2,0,0,1,0,46508.4,0.2595,0.25919,-4.37805,24,0.016727,10,-0.00113475,-2.35872,-0.0611856,-0.964279,162.748,0.25919,
2,0,0,1,0,46508.4,0.249104,0.248762,-5.82255,24,0.0165932,10,-0.00144843,-2.23489,-0.111374,-0.529746,120.006,0.248762,
2,0,0,1,0,46508.4,0.238705,0.238389,-6.9285,24,0.0164267,10,-0.00165168,-2.15936,-0.165899,-0.355639,96.0813,0.238389,
2,0,0,1,0,46508.4,0.22831,0.228009,-7.81068,24,0.0162345,10,-0.0017809,-2.10731,-0.23092,-0.2555,77.8691,0.228009,
2,0,0,1,0,46508.5,0.2179,0.21756,-8.56996,24,0.0160212,10,-0.00186448,-2.06702,-0.299534,-0.196973,65.727,0.21756,
2,0,0,1,0,46508.5,0.207504,0.207239,-9.1984,24,0.01579,10,-0.00190626,-2.03629,-0.367038,-0.160746,57.8171,0.207239,
2,0,0,1,0,46508.5,0.197106,0.196799,-9.80256,24,0.0155426,10,-0.00192913,-2.00866,-0.409065,-0.144232,55.1904,0.196799,
2,0,0,1,0,46508.6,0.18671,0.186363,-10.3708,24,0.0152804,10,-0.00193273,-1.98419,-0.442324,-0.133386,53.9479,0.186363,
2,0,0,1,0,46508.6,0.1763,0.175966,-10.9362,24,0.0150034,10,-0.0019244,-1.96113,-0.439347,-0.13429,57.3663,0.175966,
2,0,0,1,0,46508.6,0.165905,0.165574,-11.5658,24,0.014711,10,-0.00191501,-1.93682,-0.413831,-0.14257,64.3622,0.165574,
2,0,0,1,0,46508.6,0.155506,0.155155,-12.3199,24,0.0144008,10,-0.00191149,-1.90939,-0.342585,-0.17222,82.8188,0.155155,
2,0,0,1,0,46508.7,0.145105,0.144782,-13.324,24,0.0140681,10,-0.00192907,-1.87536,-0.262051,-0.225147,117.302,0.144782,
2,0,0,1,0,46508.7,0.134701,0.134388,-14.836,24,0.0137032,10,-0.00199378,-1.82868,-0.194682,-0.303058,175.756,0.134388,
2,0,0,1,0,46508.7,0.124305,0.123991,-16.9939,24,0.0132905,10,-0.0021071,-1.76971,-0.168624,-0.349892,232.145,0.123991,
2,0,0,1,0,46508.7,0.113906,0.113625,-19.5699,24,0.0128154,10,-0.00222363,-1.70841,-0.176904,-0.333514,254.654,0.113625,
2,0,0,1,0,46508.8,0.103505,0.103246,-22.1532,24,0.0122727,10,-0.00228722,-1.65456,-0.208642,-0.282781,244.159,0.103246,
2,0,0,1,0,46508.8,0.0931008,0.0927932,-24.5012,24,0.0116653,10,-0.00227354,-1.61081,-0.270231,-0.218331,208.473,0.0927932,
2,0,0,1,0,46508.8,0.0827051,0.0824108,-26.4049,24,0.0110023,10,-0.00217605,-1.57831,-0.387863,-0.152115,156.556,0.0824108,
2,0,0,1,0,46508.8,0.0723065,0.0720008,-27.7887,24,0.0102965,10,-0.00200081,-1.55613,-0.604066,-0.0976714,105.835,0.0720008,
2,0,0,1,0,46508.9,0.0618997,0.061612,-28.6044,24,0.00956221,10,-0.00176237,-1.54357,-1.197,-0.0492901,54.977,0.061612,
2,0,0,1,0,46508.9,0.0515011,0.0511839,-28.9638,24,0.0088132,10,-0.00148248,-1.53814,-3.61509,-0.0163205,18.4242,0.05118392,
2,0,0,1,0,46508.9,0.0411053,0.0407771,-28.9929,24,0.00805934,10,-0.00118224,-1.53771,9.94994,0.00592968,-6.70983,0.0407771,
2,0,0,1,0,46508.9,0.0307068,0.030383,-28.854,24,0.0073068,10,-0.000876672,-1.53979,3.52231,0.0167504,-18.8708,0.030383,
2,0,0,1,0,46509,0.0202999,0.0199295,-28.609,24,0.00655955,10,-0.000570164,-1.5435,2.02613,0.0291196,-32.4829,0.0199295,
2,0,0,1,0,46509,0.00990136,0.00965416,-28.1742,24,0.00582116,10,-0.000271999,-1.55015,1.28426,0.0459407,-50.4926,0.00965416,
2,0,0,1,0,46509,-0.000494411,-0.000879916,-27.5841,24,0.00509602,10,2.42717e-05,-1.55934,0.96285,0.0612764,-65.9163,-0.000879916,
2,0,0,1,0,46509,-0.010893,-0.0112359,-26.796,24,0.00438897,10,0.000301075,-1.57193,0.772351,0.0763901,-79.8397,-0.0112359,
2,0,0,1,0,46509.1,-0.0212998,-0.0216522,-25.9464,24,0.00370353,10,0.000561798,-1.58592,0.745988,0.0790897,-80.0832,-0.0216522,
2,0,0,1,0,46509.1,-0.0316984,-0.0320368,-25.1905,24,0.00303924,10,0.000807024,-1.59876,0.889659,0.0663176,-65.1974,-0.0320368,
2,0,0,1,0,46509.1,-0.0420942,-0.0424171,-24.6,24,0.00239253,10,0.00104346,-1.60907,1.21275,0.0486496,-46.7363,-0.04241712,
2,0,0,1,0,46509.2,-0.0524927,-0.0528876,-24.2276,24,0.0017582,10,0.00128134,-1.61569,2.1624,0.0272845,-25.8141,-0.0528876,
2,0,0,1,0,46509.2,-0.0628996,-0.0632838,-24.0643,24,0.0011309,10,0.00152288,-1.61863,7.75464,0.00760835,-7.14566,-0.0632838,
2,0,0,1,0,46509.2,-0.0732982,-0.0736981,-24.0551,24,0.000505756,10,0.00177281,-1.61879,-5.61159,-0.010514,9.87655,-0.0736981,
2,0,0,1,0,46509.2,-0.0836939,-0.0840688,-24.2183,24,-0.000121521,10,0.002036,-1.61586,-2.4867,-0.0237262,22.4275,-0.0840688,
2,0,0,1,0,46509.3,-0.0940925,-0.0944587,-24.5113,24,-0.000754743,10,0.0023153,-1.61063,-1.63152,-0.0361627,34.6051,-0.0944587,
2,0,0,1,1,46509.3,-0.0978574,-0.0982921,-20.6788,24,-0.00124502,10,0.00203257,-1.68447,-0.0317762,-1.85674,1480.45,-0.0982921,
2,0,0,1,1,46509.3,-0.0874588,-0.0878662,-10.2362,24,-0.00163169,10,0.000899418,-1.98986,-0.030674,-1.92345,765.079,-0.0878662,
2,0,0,1,1,46509.3,-0.077052,-0.0774265,-3.58329,24,-0.00180576,10,0.000277442,-2.44572,-0.0142188,-4.14943,544.343,-0.0774265,
2,1,0,1,1,46509.4,-0.0666562,-0.067044,1.35238,24,-0.00183138,10,-9.06692e-05,-2.8689,0.00318684,18.5136,414.418,-0.067044,
2,1,0,1,1,46509.4,-0.0562576,-0.0566913,5.17896,24,-0.00174406,10,-0.000293602,-2.28576,0.035635,1.65568,327.904,-0.0566913,
2,1,0,1,1,46509.4,-0.0458563,-0.0462632,8.24125,24,-0.00156776,10,-0.000381266,-2.08401,0.0723235,0.815779,260.364,-0.0462632,
2,1,0,1,1,46509.4,-0.0354522,-0.0358097,10.6655,24,-0.00132056,10,-0.000381929,-1.97202,0.118356,0.498498,206.672,-0.0358097,
2,1,0,1,1,46509.5,-0.0250564,-0.0254411,12.5803,24,-0.00101721,10,-0.000320056,-1.90031,0.179693,0.328338,160.836,-0.0254411,
2,1,0,1,1,46509.5,-0.0146579,-0.0150332,14.0749,24,-0.000669787,10,-0.000211591,-1.85155,0.254201,0.2321,127.3,-0.0150332,
2,1,0,1,1,46509.5,-0.00425653,-0.00462952,15.2344,24,-0.000287984,10,-7.0528e-05,-1.81717,0.363332,0.162386,96.5011,-0.004629516,
2,1,0,0,1,46509.5,-7.54729e-05,-0.000382585,15.6348,24,-0.000125869,10,-5.98163e-06,-1.80591, , , ,-0.000382585,