File: Figure_codes/Fig_3-5/rawdata_trumpetplot_data/after 10th/20221101_1-115_003_TrumpetPlot_ParaChange_from10_every3_04_CV_C01_12.csv
mode,ox/red,error,control changes,counter inc.,time/s,control/V,Ewe/V,<I>/mA,cycle number,(Q-Qo)/C,I Range,P/W,log(|I|),Tafel slope mV/dec,alpha_eff,dI/d(E-IR),E-IR/V,
2,0,0,1,0,24701.6,2.44065e-05,-0.000268062,-0.398329,13,0.0000000E+000,10,1.06777e-07,-3.39976, , , ,-0.000268062,
2,1,0,1,0,24702.3,0.00729063,0.006983,0.369114,13,0.000196297,10,2.57752e-06,-3.43284,0.0645809,0.913583,12.9687,0.006982998,
2,1,0,1,0,24703.1,0.0147814,0.0144946,0.440921,13,0.000514635,10,6.39098e-06,-3.35564,0.119456,0.493907,8.50726,0.0144946,
2,1,0,1,0,24703.8,0.0222725,0.0219687,0.49685,13,0.000880302,10,1.09151e-05,-3.30377,0.165432,0.356641,6.91161,0.0219687,
2,1,0,1,0,24704.6,0.0297635,0.0294413,0.552905,13,0.00128651,10,1.62782e-05,-3.25735,0.185973,0.317251,6.82344,0.0294413,
2,1,0,1,0,24705.3,0.0372544,0.0369172,0.603875,13,0.00173233,10,2.22934e-05,-3.21905,0.203414,0.290049,6.8425,0.0369172,
2,1,0,1,0,24706.1,0.0447458,0.0444392,0.657232,13,0.00221796,10,2.92068e-05,-3.18228,0.23042,0.256054,6.56831,0.0444392,
2,1,0,1,0,24706.8,0.0522363,0.0519071,0.701232,13,0.00274081,10,3.63989e-05,-3.15414,0.233339,0.252851,6.93438,0.0519071,
2,1,0,1,0,24707.6,0.0597282,0.0594189,0.747918,13,0.00329757,10,4.44405e-05,-3.12615,0.28869,0.204371,5.95185,0.0594189,
2,1,0,1,0,24708.3,0.0672182,0.066896,0.789154,13,0.0038856,10,5.27912e-05,-3.10284,0.397005,0.148613,4.5623,0.066896,
2,1,0,1,0,24709,0.0747092,0.0743591,0.818148,13,0.0045003,10,6.08367e-05,-3.08717,0.486193,0.121351,3.88035,0.0743591,
2,1,0,1,0,24709.8,0.0822001,0.0818636,0.84504,13,0.00513795,10,6.9178e-05,-3.07312,0.521984,0.11303,3.7453,0.0818636,
2,1,0,1,0,24710.5,0.0896911,0.0893766,0.884318,13,0.00579906,10,7.90373e-05,-3.05339,0.296237,0.199165,6.89143,0.0893766,
2,1,0,1,0,24711.3,0.097182,0.0968631,0.945321,13,0.00649712,10,9.15667e-05,-3.02442,0.190937,0.309002,11.3972,0.0968631,
2,1,0,1,0,24712,0.104673,0.104372,1.03466,13,0.00725006,10,0.000107989,-2.9852,0.194348,0.303579,12.2096,0.1043718,
2,1,0,1,0,24712.8,0.112164,0.111844,1.11241,13,0.00806773,10,0.000124416,-2.95374,0.308446,0.191282,8.28018,0.111844,
2,1,0,1,0,24713.5,0.119655,0.119328,1.16662,13,0.00893629,10,0.000139211,-2.93307,0.590857,0.099855,4.55033,0.119328,
2,1,0,1,0,24714.3,0.127146,0.126816,1.20306,13,0.00983974,10,0.000152567,-2.91971,0.538794,0.109504,5.16685,0.126816,
2,1,0,1,0,24715,0.134637,0.134299,1.22497,13,0.010769,10,0.000164512,-2.91187,-0.76178,-0.0774502,-3.69733,0.134299,
2,1,0,1,0,24715.8,0.142127,0.141852,1.12898,13,0.0116742,10,0.000160148,-2.94731,-0.120519,-0.48955,-21.4593,0.141852,
2,1,0,1,0,24716.5,0.149619,0.149319,0.918472,13,0.0124575,10,0.000137146,-3.03693,-0.0719748,-0.819731,-29.3794,0.149319,
2,1,0,1,0,24717.3,0.157109,0.156758,0.735945,13,0.0130836,10,0.000115365,-3.13315,-0.0935787,-0.630485,-18.1455,0.156758,
2,1,0,1,0,24718,0.164601,0.164277,0.644725,13,0.0136089,10,0.000105914,-3.19063,-0.164524,-0.358611,-9.02899,0.164277,
2,1,0,1,0,24718.8,0.172091,0.171766,0.594623,13,0.0140844,10,0.000102136,-3.22576,-0.291402,-0.202469,-4.72126,0.171766,
2,1,0,1,0,24719.5,0.179582,0.179303,0.569941,13,0.0145331,10,0.000102192,-3.24417,-0.423491,-0.139318,-3.10734,0.179303,
2,1,0,1,0,24720.3,0.187074,0.186776,0.554177,13,0.0149667,10,0.000103507,-3.25635,-0.896971,-0.0657769,-1.42173,0.186776,
2,1,0,1,0,24721,0.194564,0.194224,0.543251,13,0.0153903,10,0.000105513,-3.265,-1.12371,-0.0525045,-1.11416,0.194224,
2,1,0,1,0,24721.8,0.202056,0.201759,0.535852,13,0.0158065,10,0.000108113,-3.27096,-0.999869,-0.0590077,-1.2312,0.201759,
2,1,0,1,0,24722.5,0.209546,0.209275,0.527033,13,0.0162172,10,0.000110295,-3.27816,-0.692305,-0.0852226,-1.75665,0.209275,
2,1,0,1,0,24723.3,0.217038,0.21672,0.522487,13,0.0166227,10,0.000113234,-3.28192,-11.3104,-0.00521642,-0.10657,0.21672,
2,1,0,1,0,24724,0.224528,0.224218,0.516358,13,0.0170242,10,0.000115777,-3.28705,-2.16157,-0.027295,-0.550338,0.224218,
2,1,0,1,0,24724.8,0.232019,0.231718,0.51305,13,0.0174218,10,0.000118883,-3.28984,-2.16295,-0.0272775,-0.544859,0.231718,
2,1,0,1,0,24725.5,0.23951,0.239217,0.507533,13,0.0178163,10,0.000121411,-3.29454,-2.35912,-0.0250093,-0.49504,0.239217,
2,1,0,1,0,24726.3,0.247001,0.246705,0.502722,13,0.0182073,10,0.000124024,-3.29867,-1.28147,-0.0460408,-0.903023,0.246705,
2,1,0,1,0,24727,0.254492,0.254191,0.499035,13,0.0185951,10,0.00012685,-3.30187,-2.13123,-0.0276835,-0.540112,0.254191,
2,1,0,1,0,24727.8,0.261983,0.261681,0.495175,13,0.0189796,10,0.000129578,-3.30524,-1.78513,-0.0330509,-0.638718,0.261681,
2,1,0,1,0,24728.5,0.269474,0.269192,0.491771,13,0.0193613,10,0.000132381,-3.30824,-9.36568,-0.0062996,-0.120602,0.269192,
2,1,0,1,0,24729.3,0.276965,0.27666,0.485255,13,0.0197399,10,0.000134251,-3.31403,-0.985594,-0.0598624,-1.13616,0.27666,
2,1,0,1,0,24730,0.284456,0.284175,0.483179,13,0.0201151,10,0.000137308,-3.31589,-7.04526,-0.00837442,-0.157847,0.2841754,
2,1,0,1,0,24730.8,0.291947,0.291616,0.477019,13,0.0204869,10,0.000139106,-3.32146,-1.18669,-0.0497179,-0.926786,0.291616,
2,1,0,1,0,24731.5,0.299437,0.299115,0.471347,13,0.0208556,10,0.000140987,-3.32666,-0.0022262,-26.5025,-223.467,0.299115,
2,0,0,1,0,24732.2,0.293745,0.293401,-0.077451,13,0.0208692,10,-2.27242e-05,-4.11097,-0.0154988,-3.80676,10.5484,0.293401,
2,0,0,1,0,24733,0.286253,0.285942,-0.133642,13,0.020776,10,-3.82139e-05,-3.87406,-0.0577861,-1.02101,5.2692,0.285942,
2,0,0,1,0,24733.7,0.278763,0.278428,-0.167968,13,0.0206503,10,-4.67669e-05,-3.77477,-0.0941014,-0.626983,4.08767,0.278428,
2,0,0,1,0,24734.5,0.271272,0.270926,-0.19565,13,0.0205014,10,-5.30065e-05,-3.70852,-0.152571,-0.386706,2.94967,0.270926,
2,0,0,1,0,24735.2,0.263781,0.263449,-0.218338,13,0.0203333,10,-5.75208e-05,-3.66087,-0.137639,-0.428658,3.66485,0.263449,
2,0,0,1,0,24736,0.25629,0.255987,-0.239477,13,0.0201489,10,-6.13029e-05,-3.62074,-0.249623,-0.236357,2.19916,0.2559866,
2,0,0,1,0,24736.7,0.248799,0.24847,-0.256977,13,0.0199505,10,-6.38512e-05,-3.59011,-0.322856,-0.182744,1.83241,0.24847,
2,0,0,1,0,24737.5,0.241308,0.241067,-0.273031,13,0.0197394,10,-6.58186e-05,-3.56379,-0.314253,-0.187747,1.99986,0.241067,
2,0,0,1,0,24738.2,0.233817,0.233561,-0.288048,13,0.0195161,10,-6.72769e-05,-3.54053,-0.283341,-0.20823,2.34773,0.233561,
2,0,0,1,0,24738.9,0.226326,0.22601,-0.303122,13,0.0192814,10,-6.85085e-05,-3.51838,-0.394231,-0.149658,1.77495,0.22601,
2,0,0,1,0,24739.7,0.218835,0.218536,-0.321216,13,0.0190355,10,-7.01973e-05,-3.4932,-0.309931,-0.190365,2.37189,0.218536,
2,0,0,1,0,24740.4,0.211344,0.21102,-0.333825,13,0.0187784,10,-7.04437e-05,-3.47648,-0.504224,-0.117011,1.5195,0.21102,
2,0,0,1,0,24741.2,0.203854,0.203568,-0.348083,13,0.0185096,10,-7.08586e-05,-3.45832,-0.507462,-0.116265,1.58336,0.203568,
2,0,0,1,0,24741.9,0.196362,0.196017,-0.364443,13,0.0182293,10,-7.14371e-05,-3.43837,-0.390729,-0.151,2.15129,0.196017,
2,0,0,1,0,24742.7,0.188872,0.188562,-0.382676,13,0.0179362,10,-7.21582e-05,-3.41717,-0.286584,-0.205873,3.0804,0.188562,
2,0,0,1,0,24743.4,0.18138,0.181071,-0.405823,13,0.0176286,10,-7.34828e-05,-3.39166,-0.332043,-0.177688,2.80642,0.181071,
2,0,0,1,0,24744.2,0.17389,0.173536,-0.430313,13,0.0173041,10,-7.46747e-05,-3.36622,-0.289972,-0.203468,3.40134,0.173536,
2,0,0,1,0,24744.9,0.166398,0.166087,-0.462551,13,0.0169578,10,-7.68239e-05,-3.33484,-0.237141,-0.248797,4.4966,0.166087,
2,0,0,1,0,24745.7,0.158907,0.158559,-0.508691,13,0.0165817,10,-8.06577e-05,-3.29355,-0.154261,-0.382468,7.63817,0.158559,
2,0,0,1,0,24746.4,0.151417,0.151083,-0.587631,13,0.0161599,10,-8.87809e-05,-3.2309,-0.108734,-0.542609,12.4637,0.151083,
2,0,0,1,0,24747.2,0.143925,0.143619,-0.715805,13,0.0156626,10,-0.000102803,-3.14521,-0.0709039,-0.832112,23.2657,0.143619,
2,0,0,1,0,24747.9,0.136435,0.136091,-0.903895,13,0.0150447,10,-0.000123012,-3.04388,-0.0784469,-0.752101,26.4818,0.136091,
2,0,0,1,0,24748.7,0.128943,0.128621,-1.09181,13,0.0142815,10,-0.000140429,-2.96185,-0.11887,-0.496339,21.0415,0.128621,
2,0,0,1,0,24749.4,0.121453,0.121146,-1.21282,13,0.0133999,10,-0.000146929,-2.9162,-0.28714,-0.205474,9.69097,0.121146,
2,0,0,1,0,24750.2,0.113962,0.113668,-1.24578,13,0.0124597,10,-0.000141605,-2.90456,4.87849,0.0120939,-0.587714,0.113668,
2,0,0,1,0,24750.9,0.106471,0.106144,-1.22534,13,0.0115164,10,-0.000130063,-2.91174,0.614175,0.0960639,-4.60771,0.106144,
2,0,0,1,0,24751.7,0.0989799,0.0986774,-1.18468,13,0.0105988,10,-0.000116901,-2.9264,0.534955,0.11029,-5.09458,0.0986774,
2,0,0,1,0,24752.4,0.0914889,0.0911729,-1.1411,13,0.00971516,10,-0.000104038,-2.94268,0.497444,0.118606,-5.27754,0.0911729,
2,0,0,1,0,24753.2,0.083998,0.083661,-1.09744,13,0.00886404,10,-9.18129e-05,-2.95962,0.39306,0.150104,-6.42518,0.083661,
2,0,0,1,0,24753.9,0.076507,0.0761438,-1.06035,13,0.00804231,10,-8.07388e-05,-2.97455,0.452953,0.130256,-5.38456,0.0761438,
2,0,0,1,0,24754.7,0.0690161,0.0687209,-1.02431,13,0.0072475,10,-7.03912e-05,-2.98957,0.512731,0.11507,-4.61249,0.0687209,
2,0,0,1,0,24755.4,0.0615251,0.0612345,-0.993334,13,0.00647681,10,-6.08263e-05,-3.0029,0.56894,0.103702,-4.03003,0.0612345,
2,0,0,1,0,24756.2,0.0540342,0.0537427,-0.963767,13,0.00573005,10,-5.17954e-05,-3.01603,0.604569,0.0975902,-3.66626,0.0537427,
2,0,0,1,0,24756.9,0.0465441,0.0461964,-0.928628,13,0.00500824,10,-4.28993e-05,-3.03216,0.513564,0.114883,-4.16526,0.0461964,
2,0,0,1,0,24757.7,0.0390523,0.038722,-0.893495,13,0.00431283,10,-3.45979e-05,-3.04891,0.331827,0.177804,-6.19112,0.038722,
2,0,0,1,0,24758.4,0.0315618,0.0312529,-0.857566,13,0.00364417,10,-2.68014e-05,-3.06673,0.427756,0.137929,-4.6188,0.0312529,
2,0,0,1,0,24759.2,0.0240704,0.0237533,-0.822819,13,0.0030009,10,-1.95447e-05,-3.0847,0.439565,0.134223,-4.32282,0.0237533,
2,0,0,1,0,24759.9,0.0165796,0.0162478,-0.79927,13,0.00238025,10,-1.29864e-05,-3.09731,0.864102,0.068279,-2.13119,0.0162478,
2,0,0,1,0,24760.7,0.00908846,0.00881326,-0.781547,13,0.00177554,10,-6.88798e-06,-3.10704,1.50293,0.0392567,-1.19986,0.00881326,
2,0,0,1,0,24761.4,0.00159728,0.00122599,-0.785296,13,0.00117776,10,-9.62764e-07,-3.10497, , , ,0.00122599,
2,0,0,1,0,24761.6,0.000199195,-0.000193621,-0.777234,13,0.00106604,10,1.50489e-07,-3.10945, , , ,-0.000193621,