File: Figure_codes/Fig_3-5/rawdata_trumpetplot_data/after 10th/20221101_1-115_003_TrumpetPlot_ParaChange_from10_every3_12_CV_C01_1.csv
mode,ox/red,error,control changes,counter inc.,time/s,control/V,Ewe/V,<I>/mA,cycle number,(Q-Qo)/C,I Range,P/W,log(|I|),Tafel slope mV/dec,alpha_eff,dI/d(E-IR),E-IR/V,
2,1,0,1,0,3166.65,2.44065e-05,-0.000344411,19.7696,2,0.0000000E+000,10,-6.80887e-06,-1.704, , , ,-0.000344411,
2,1,0,1,0,3166.67,0.0104008,0.0100794,23.7095,2,0.000377551,10,0.000238977,-1.62508,0.202299,0.291648,267.922,0.0100794,
2,1,0,1,0,3166.69,0.0212099,0.0208849,25.9851,2,0.000826412,10,0.000542697,-1.58528,0.356126,0.165672,167.395,0.0208849,
2,1,0,1,0,3166.71,0.0320052,0.0316428,27.5241,2,0.00130866,10,0.00087094,-1.56029,0.491037,0.120154,128.873,0.0316428,
2,1,0,1,0,3166.72,0.0428033,0.0424833,28.8366,2,0.00181606,10,0.00122507,-1.54006,0.550232,0.107228,120.61,0.0424833,
2,1,0,1,0,3166.74,0.0535986,0.0532708,30.156,2,0.00234684,10,0.00160643,-1.52063,0.531951,0.110912,130.581,0.0532708,
2,1,0,1,0,3166.76,0.0644077,0.0640424,31.675,2,0.0029032,10,0.00202854,-1.49928,0.481286,0.122588,151.619,0.0640424,
2,1,0,1,0,3166.78,0.075203,0.0748225,33.4438,2,0.00348909,10,0.00250235,-1.47568,0.431341,0.136783,178.704,0.0748225,
2,1,0,1,0,3166.8,0.0860011,0.0856047,35.4288,2,0.00410917,10,0.00303287,-1.45064,0.433194,0.136198,188.416,0.0856047,
2,1,0,1,0,3166.81,0.0968075,0.0964241,37.5752,2,0.00476611,10,0.00362315,-1.4251,0.413592,0.142653,209.235,0.0964241,
2,1,0,1,0,3166.83,0.107606,0.107256,39.8502,2,0.00546336,10,0.00427418,-1.39957,0.435574,0.135453,210.697,0.1072561,
2,1,0,1,0,3166.85,0.118401,0.118074,42.1721,2,0.00620166,10,0.00497945,-1.37497,0.442015,0.13348,219.744,0.118074,
2,1,0,1,0,3166.87,0.129207,0.128865,44.6874,2,0.00698315,10,0.00575865,-1.34981,0.421713,0.139906,244.029,0.128865,
2,1,0,1,0,3166.89,0.140005,0.139676,47.5255,2,0.00781262,10,0.00663816,-1.32307,0.388895,0.151712,281.408,0.1396759,
2,1,0,1,0,3166.9,0.150803,0.150444,50.6712,2,0.00869633,10,0.00762319,-1.29524,0.393693,0.149863,296.276,0.150444,
2,1,0,1,0,3166.92,0.161604,0.161286,53.8452,2,0.00963743,10,0.00868447,-1.26885,0.438431,0.134571,282.551,0.161286,
2,1,0,1,0,3166.94,0.172405,0.172096,56.6957,2,0.0106334,10,0.00975709,-1.24645,0.546737,0.107913,238.455,0.1720957,
2,1,0,1,0,3166.96,0.183203,0.18285,58.7666,2,0.0116746,10,0.0107455,-1.23087,1.05567,0.0558885,127.839,0.18285,
2,1,0,1,0,3166.98,0.194001,0.193663,59.0808,2,0.0127391,10,0.0114418,-1.22855,-1.34472,-0.0438751,-100.656,0.193663,
2,1,0,1,0,3166.99,0.204808,0.204497,56.2919,2,0.0137828,10,0.0115115,-1.24955,-0.299656,-0.196893,-429.608,0.2044975,
2,1,0,1,0,3167.01,0.215603,0.215344,50.0089,2,0.0147432,10,0.0107691,-1.30095,-0.166987,-0.353322,-686.171,0.215344,
2,1,0,1,0,3167.03,0.226401,0.226111,42.0771,2,0.0155714,10,0.00951409,-1.37595,-0.134346,-0.439165,-721.527,0.226111,
2,1,0,1,0,3167.05,0.237207,0.236893,35.1149,2,0.0162627,10,0.00831847,-1.45451,-0.146834,-0.401813,-552.959,0.236893,
2,1,0,1,0,3167.07,0.248005,0.247706,30.2361,2,0.0168473,10,0.00748967,-1.51947,-0.192548,-0.306418,-363.227,0.247706,
2,1,0,1,0,3167.08,0.258801,0.258558,27.1114,2,0.0173609,10,0.00700987,-1.56685,-0.275388,-0.214243,-227.554,0.258558,
2,1,0,1,0,3167.1,0.26961,0.269298,25.1625,2,0.0178299,10,0.00677621,-1.59925,-0.395073,-0.14934,-146.944,0.2692979,
2,1,0,1,0,3167.12,0.280405,0.280099,23.8628,2,0.0182702,10,0.00668395,-1.62228,-0.546182,-0.108023,-100.688,0.280099,
2,1,0,1,0,3167.14,0.291203,0.290875,22.9396,2,0.0186908,10,0.00667255,-1.63941,-0.700083,-0.0842757,-75.5052,0.290875,
2,1,0,0,0,3167.15,0.300012,0.29967,22.3328,2,0.0190234,10,0.00669248,-1.65106,0.00121364,48.6142,34560.3,0.29967,
2,1,0,1,0,3167.17,0.290843,0.290584,5.12501,2,0.0192117,10,0.00148925,-2.29031,0.00635605,9.28249,1228.99,0.290584,
2,0,0,1,0,3167.19,0.280047,0.279763,-3.63308,2,0.019214,10,-0.0010164,-2.43972,-0.00946332,-6.2346,555.179,0.279763,
2,0,0,1,0,3167.2,0.269244,0.268969,-7.92319,2,0.0191055,10,-0.00213109,-2.1011,-0.0604101,-0.976658,292.357,0.268969,
2,0,0,1,0,3167.22,0.258443,0.258143,-10.3376,2,0.018939,10,-0.00266858,-1.98558,-0.133566,-0.441729,176.589,0.258143,
2,0,0,1,0,3167.24,0.247645,0.24736,-11.915,2,0.0187376,10,-0.00294729,-1.92391,-0.218185,-0.270413,125.451,0.24736,
2,0,0,1,0,3167.26,0.236849,0.236502,-13.0941,2,0.0185118,10,-0.00309677,-1.88293,-0.310239,-0.190176,97.0197,0.2365016,
2,0,0,1,0,3167.28,0.22604,0.225741,-14.0825,2,0.018267,10,-0.003179,-1.85132,-0.389734,-0.151385,83.0061,0.225741,
2,0,0,1,0,3167.29,0.215245,0.214929,-14.9526,2,0.0180057,10,-0.00321374,-1.82528,-0.419774,-0.140552,81.9244,0.214929,
2,0,0,1,0,3167.31,0.204447,0.204101,-15.8199,2,0.0177288,10,-0.00322887,-1.8008,-0.447799,-0.131755,81.2592,0.204101,
2,0,0,1,0,3167.33,0.19364,0.193304,-16.7152,2,0.0174362,10,-0.00323111,-1.77689,-0.441346,-0.133682,87.1805,0.193304,
2,0,0,1,0,3167.35,0.182842,0.182531,-17.7139,2,0.0171266,10,-0.00323335,-1.75168,-0.383336,-0.153912,106.57,0.182531,
2,0,0,1,0,3167.37,0.172047,0.17172,-18.9841,2,0.0167965,10,-0.00325995,-1.72161,-0.319049,-0.184925,137.352,0.17172,
2,0,0,1,0,3167.38,0.161241,0.16096,-20.6865,2,0.01644,10,-0.0033297,-1.68431,-0.258234,-0.228475,185.07,0.16096,
2,0,0,1,0,3167.4,0.150443,0.150154,-23.0729,2,0.0160471,10,-0.00346449,-1.6369,-0.203577,-0.289817,261.811,0.150154,
2,0,0,1,0,3167.42,0.139645,0.139354,-26.4138,2,0.0156029,10,-0.00368086,-1.57817,-0.170357,-0.346332,358.011,0.139354,
2,0,0,1,0,3167.44,0.128849,0.12858,-30.8567,2,0.0150887,10,-0.00396755,-1.51065,-0.157169,-0.375393,452.284,0.1285798,
2,0,0,1,0,3167.46,0.118043,0.117794,-36.082,2,0.0144866,10,-0.00425026,-1.44271,-0.16675,-0.353824,497.495,0.117794,
2,0,0,1,0,3167.47,0.107245,0.106972,-41.3439,2,0.0137887,10,-0.00442264,-1.38359,-0.197245,-0.299121,482.183,0.1069719,
2,0,0,1,0,3167.49,0.0964468,0.096213,-46.3049,2,0.0129981,10,-0.00445514,-1.33437,-0.2521,-0.234034,421.835,0.09621302,
2,0,0,1,0,3167.51,0.0856404,0.0853916,-50.3991,2,0.0121262,10,-0.00430366,-1.29758,-0.342429,-0.172299,338.163,0.0853916,
2,0,0,1,0,3167.53,0.0748451,0.0746306,-53.5004,2,0.0111888,10,-0.00399277,-1.27164,-0.539994,-0.109261,227.605,0.0746306,
2,0,0,1,0,3167.55,0.0640471,0.0637815,-55.268,2,0.0102075,10,-0.00352508,-1.25753,-1.31676,-0.0448069,96.407,0.0637815,
2,0,0,1,0,3167.56,0.0532407,0.0529145,-55.5994,2,0.00920761,10,-0.00294202,-1.25493,3.89165,0.0151607,-32.8229,0.0529145,
2,0,0,1,0,3167.58,0.0424426,0.0421365,-54.7358,2,0.0082134,10,-0.00230638,-1.26173,1.12612,0.0523921,-111.813,0.0421365,
2,0,0,1,0,3167.6,0.0316473,0.0313395,-53.313,2,0.00724061,10,-0.0016708,-1.27317,0.854742,0.0690267,-143.571,0.0313395,
2,0,0,1,0,3167.62,0.0208437,0.0205403,-51.6832,2,0.0062957,10,-0.00106159,-1.28665,0.741949,0.0795203,-160.299,0.0205403,
2,0,0,1,0,3167.64,0.0100429,0.00969764,-49.8486,2,0.00538176,10,-0.000483413,-1.30235,0.608118,0.0970207,-188.498,0.00969764,
2,0,0,1,0,3167.65,-0.000755207,-0.00116517,-47.653,2,0.004504,10,5.55236e-05,-1.32191,0.490906,0.120186,-223.083,-0.00116517,
2,0,0,1,0,3167.67,-0.0115505,-0.0118859,-44.9048,2,0.00367073,10,0.000533733,-1.34771,0.391429,0.15073,-264.035,-0.0118859,
2,0,0,1,0,3167.69,-0.0223597,-0.0227296,-42.0727,2,0.00288852,10,0.000956296,-1.376,0.393404,0.149973,-246.448,-0.0227296,
2,0,0,1,0,3167.71,-0.033155,-0.0335256,-39.7263,2,0.00215359,10,0.00133185,-1.40092,0.51437,0.114703,-178.194,-0.0335256,
2,0,0,1,0,3167.73,-0.043953,-0.0443068,-38.1569,2,0.00145387,10,0.00169061,-1.41843,0.795882,0.0741316,-110.635,-0.0443068,
2,0,0,1,0,3167.74,-0.0547594,-0.0551197,-37.3219,2,0.000775584,10,0.00205717,-1.42804,1.66458,0.0354444,-51.7039,-0.0551197,
2,0,0,1,0,3167.76,-0.0655575,-0.0659433,-37.0472,2,0.000106993,10,0.00244301,-1.43125,29.6309,0.00199117,-2.88246,-0.0659433,
2,0,0,1,0,3167.78,-0.0763528,-0.0767139,-37.2115,2,-0.000560836,10,0.00285464,-1.42932,-2.73311,-0.0215872,31.3794,-0.07671386,
2,0,0,1,0,3167.8,-0.0871592,-0.0874865,-37.7187,2,-0.00123465,10,0.00329988,-1.42344,-1.51652,-0.0389049,57.2792,-0.0874865,
2,0,0,1,0,3167.82,-0.0979573,-0.098309,-38.4705,2,-0.0019199,10,0.003782,-1.41487,-1.30195,-0.0453168,67.7828,-0.09830904,
2,0,0,1,1,3167.83,-0.0955546,-0.0960313,-27.4201,2,-0.00229864,10,0.00263319,-1.56193,-0.0291896,-2.02127,2149.94,-0.0960313,
2,0,0,1,1,3167.84,-0.0847538,-0.0852024,-9.68461,2,-0.00261836,10,0.000825152,-2.01392,-0.0154803,-3.81129,1310.53,-0.0852024,
2,1,0,1,1,3167.86,-0.0739557,-0.0743852,2.00919,2,-0.00267994,10,-0.000149454,-2.69698,0.0271308,2.17465,905.38,-0.0743852,
2,1,0,1,1,3167.88,-0.0631604,-0.0636465,10.2597,2,-0.00256458,10,-0.000652991,-1.98887,0.0343022,1.72001,653.48,-0.0636465,
2,1,0,1,1,3167.9,-0.0523512,-0.052824,16.3404,2,-0.00232167,10,-0.000863165,-1.78674,0.0779722,0.75668,474.289,-0.05282395,
2,1,0,1,1,3167.92,-0.0415559,-0.0419505,20.7128,2,-0.00198552,10,-0.000868913,-1.68376,0.137922,0.427778,343.171,-0.0419505,
2,1,0,1,1,3167.93,-0.0307579,-0.0311503,23.8107,2,-0.00158273,10,-0.00074171,-1.62323,0.227594,0.259233,239.893,-0.0311503,
2,1,0,1,1,3167.95,-0.0199515,-0.0203522,25.9793,2,-0.0011331,10,-0.000528734,-1.58537,0.362156,0.162913,164.664,-0.02035217,
2,1,0,1,1,3167.97,-0.0091534,-0.00955617,27.4161,2,-0.000651531,10,-0.000261993,-1.56199,0.598945,0.0985066,105.152,-0.009556165,
2,1,0,0,1,3167.99,-7.54729e-05,-0.00042076,28.101,2,-0.000231396,10,-1.18238e-05,-1.55128, , , ,-0.00042076,