File: Figure_codes/Fig_3-5/rawdata_trumpetplot_data/after 10th/20221101_1-115_003_TrumpetPlot_ParaChange_from10_every3_05_CV_C01_32.csv
mode,ox/red,error,control changes,counter inc.,time/s,control/V,Ewe/V,<I>/mA,cycle number,(Q-Qo)/C,I Range,P/W,log(|I|),Tafel slope mV/dec,alpha_eff,dI/d(E-IR),E-IR/V,
2,0,0,1,0,64164.2,2.44065e-05,-0.000306236,-0.735426,33,0.0000000E+000,10,2.25214e-07,-3.13346, , , ,-0.000306236,
2,1,0,1,0,64164.6,0.00729063,0.00694069,0.614857,33,0.000109446,10,4.26754e-06,-3.21123,0.0368297,1.60197,37.4649,0.00694069,
2,1,0,1,0,64164.9,0.0147802,0.01448,0.782823,33,0.000381785,10,1.13353e-05,-3.10634,0.107422,0.549234,16.7772,0.01448,
2,1,0,1,0,64165.3,0.0222725,0.0219485,0.88411,33,0.000700744,10,1.94049e-05,-3.05349,0.15987,0.36905,12.7074,0.0219485,
2,1,0,1,0,64165.7,0.0297644,0.0294828,0.974068,33,0.00105428,10,2.87182e-05,-3.01141,0.198992,0.296495,11.2271,0.0294828,
2,1,0,1,0,64166.1,0.0372544,0.0369347,1.05961,33,0.00144069,10,3.91363e-05,-2.97485,0.229105,0.257524,10.6553,0.0369347,
2,1,0,1,0,64166.4,0.0447449,0.04439,1.14608,33,0.00185977,10,5.08744e-05,-2.94079,0.240646,0.245173,10.9656,0.04439,
2,1,0,1,0,64166.8,0.0522363,0.0519147,1.22809,33,0.00231071,10,6.37561e-05,-2.91077,0.244733,0.241079,11.5511,0.0519147,
2,1,0,1,0,64167.2,0.0597291,0.0594147,1.30546,33,0.00279173,10,7.75632e-05,-2.88424,0.313579,0.18815,9.58435,0.0594147,
2,1,0,1,0,64167.5,0.0672182,0.0669033,1.37619,33,0.00329939,10,9.2072e-05,-2.86132,0.35302,0.167129,8.94589,0.0669033,
2,1,0,1,0,64167.9,0.0747092,0.0743656,1.42991,33,0.00383048,10,0.000106336,-2.84469,0.542901,0.108675,6.05774,0.0743656,
2,1,0,1,0,64168.3,0.0822001,0.0818744,1.47797,33,0.00438107,10,0.000121008,-2.83033,0.683298,0.086346,4.98171,0.0818744,
2,1,0,1,0,64168.7,0.0896911,0.0893933,1.52909,33,0.00494953,10,0.00013669,-2.81557,0.406163,0.145262,8.69211,0.0893933,
2,1,0,1,0,64169,0.097182,0.0968651,1.61354,33,0.00554269,10,0.000156296,-2.79222,0.239932,0.245903,15.4762,0.0968651,
2,1,0,1,0,64169.4,0.104673,0.10434,1.74392,33,0.00617539,10,0.00018196,-2.75847,0.198628,0.297038,20.1745,0.10434,
2,1,0,1,0,64169.8,0.112164,0.111812,1.88647,33,0.00686147,10,0.000210931,-2.72435,0.243044,0.242755,17.8716,0.1118125,
2,1,0,1,0,64170.2,0.119655,0.119337,2.00112,33,0.0075966,10,0.000238808,-2.69873,0.499805,0.118046,9.19423,0.119337,
2,1,0,1,0,64170.5,0.127146,0.126783,2.04669,33,0.00836172,10,0.000259486,-2.68895,1.10204,0.053537,4.28328,0.126783,
2,1,0,1,0,64170.9,0.134637,0.134285,2.06671,33,0.00914013,10,0.000277528,-2.68472,-1.74976,-0.0337188,-2.7178,0.134285,
2,1,0,1,0,64171.3,0.142128,0.14182,1.97667,33,0.00990872,10,0.000280332,-2.70406,-0.192249,-0.306894,-23.5738,0.14182,
2,1,0,1,0,64171.7,0.149619,0.149311,1.70089,33,0.0106077,10,0.00025396,-2.76932,-0.0862086,-0.684386,-45.3443,0.149311,
2,1,0,1,0,64172,0.157108,0.15675,1.38416,33,0.0111886,10,0.000216967,-2.85881,-0.0893039,-0.660665,-35.7564,0.15675,
2,1,0,1,0,64172.4,0.164601,0.164248,1.17986,33,0.0116709,10,0.000193791,-2.92817,-0.134587,-0.438377,-20.2379,0.164248,
2,1,0,1,0,64172.8,0.172092,0.171761,1.07107,33,0.0120962,10,0.000183968,-2.97018,-0.232171,-0.254123,-10.6639,0.171761,
2,1,0,1,0,64173.2,0.179582,0.179228,1.01465,33,0.0124914,10,0.000181855,-2.99368,-0.404097,-0.146004,-5.79456,0.179228,
2,1,0,1,0,64173.5,0.187073,0.186728,0.983092,33,0.0128705,10,0.000183571,-3.00741,-0.751047,-0.078557,-3.00337,0.186728,
2,1,0,1,0,64173.9,0.194564,0.194239,0.963174,33,0.0132396,10,0.000187086,-3.0163,-0.819707,-0.071977,-2.70279,0.1942392,
2,1,0,1,0,64174.3,0.202057,0.201739,0.948187,33,0.0136022,10,0.000191287,-3.02311,-1.09099,-0.0540793,-1.99621,0.201739,
2,1,0,1,0,64174.7,0.209546,0.209179,0.935602,33,0.0139602,10,0.000195708,-3.02891,-0.961205,-0.0613813,-2.24464,0.209179,
2,1,0,1,0,64175,0.217037,0.21672,0.927927,33,0.0143145,10,0.000201101,-3.03249,-2.14513,-0.0275042,-0.997802,0.21672,
2,1,0,1,0,64175.4,0.224528,0.224232,0.921005,33,0.0146662,10,0.000206519,-3.03574,-1.86024,-0.0317163,-1.14006,0.224232,
2,1,0,1,0,64175.8,0.232019,0.231681,0.915653,33,0.0150154,10,0.00021214,-3.03827,-4.07072,-0.0144938,-0.518986,0.231681,
2,1,0,1,0,64176.2,0.23951,0.239204,0.910207,33,0.0153628,10,0.000217726,-3.04086,-10.212,-0.00577749,-0.205317,0.239204,
2,1,0,1,0,64176.5,0.247001,0.24672,0.907562,33,0.0157081,10,0.000223914,-3.04212,-2.80577,-0.0210281,-0.741733,0.24672,
2,1,0,1,0,64176.9,0.254492,0.254175,0.901597,33,0.0160517,10,0.000229164,-3.04499,-2.05241,-0.0287466,-1.01048,0.254175,
2,1,0,1,0,64177.3,0.261983,0.261643,0.894702,33,0.0163932,10,0.000234092,-3.04832,-2.35544,-0.0250484,-0.874929,0.2616429,
2,1,0,1,0,64177.7,0.269474,0.269176,0.888767,33,0.0167328,10,0.000239235,-3.05121,-8.48898,-0.00695019,-0.241209,0.2691761,
2,1,0,1,0,64178,0.276965,0.276605,0.882545,33,0.0170702,10,0.000244116,-3.05426,-1.69378,-0.0348334,-1.20049,0.276605,
2,1,0,1,0,64178.4,0.284456,0.28412,0.877746,33,0.0174053,10,0.000249385,-3.05663,-4.37576,-0.0134834,-0.461827,0.28412,
2,1,0,1,0,64178.8,0.291947,0.291673,0.869566,33,0.0177377,10,0.000253629,-3.0607,-1.91206,-0.0308568,-1.04703,0.291673,
2,1,0,1,0,64179.2,0.299436,0.299088,0.86212,33,0.0180675,10,0.000257849,-3.06443,-0.00462069,-12.7686,-286.339,0.299088,
2,0,0,1,0,64179.5,0.293745,0.293398,-0.155677,33,0.018107,10,-4.56754e-05,-3.80777,-0.0116292,-5.07345,26.7811,0.293398,
2,0,0,1,0,64179.9,0.286254,0.285946,-0.270943,33,0.0180185,10,-7.74752e-05,-3.56712,-0.0592134,-0.996395,10.5052,0.285946,
2,0,0,1,0,64180.3,0.278763,0.278415,-0.339946,33,0.0178978,10,-9.46459e-05,-3.46859,-0.107655,-0.548047,7.22296,0.278415,
2,0,0,1,0,64180.6,0.271272,0.270957,-0.389374,33,0.0177557,10,-0.000105504,-3.40963,-0.138035,-0.427427,6.47107,0.270957,
2,0,0,1,0,64181,0.263781,0.26343,-0.429556,33,0.0175968,10,-0.000113158,-3.36698,-0.192952,-0.305776,5.12288,0.26343,
2,0,0,1,0,64181.4,0.25629,0.255973,-0.465409,33,0.0174237,10,-0.000119132,-3.33217,-0.250075,-0.235929,4.26215,0.255973,
2,0,0,1,0,64181.8,0.248799,0.248432,-0.497153,33,0.0172377,10,-0.000123509,-3.30351,-0.30445,-0.193792,3.76524,0.248432,
2,0,0,1,0,64182.1,0.241308,0.240993,-0.52622,33,0.0170403,10,-0.000126815,-3.27883,-0.348045,-0.169518,3.48055,0.240993,
2,0,0,1,0,64182.5,0.233817,0.233502,-0.551528,33,0.0168325,10,-0.000128783,-3.25843,-0.376014,-0.156909,3.38674,0.233502,
2,0,0,1,0,64182.9,0.226326,0.225992,-0.581593,33,0.0166144,10,-0.000131435,-3.23538,-0.388816,-0.151743,3.42885,0.225992,
2,0,0,1,0,64183.2,0.218835,0.218494,-0.607347,33,0.0163867,10,-0.000132702,-3.21656,-0.417693,-0.141252,3.34404,0.218494,
2,0,0,1,0,64183.6,0.211344,0.211036,-0.632142,33,0.0161497,10,-0.000133405,-3.19919,-0.595787,-0.0990287,2.43664,0.211036,
2,0,0,1,0,64184,0.203855,0.203485,-0.654034,33,0.0159032,10,-0.000133086,-3.1844,-0.594709,-0.0992082,2.53702,0.203485,
2,0,0,1,0,64184.4,0.196362,0.196013,-0.679256,33,0.0156474,10,-0.000133143,-3.16797,-0.490686,-0.12024,3.19116,0.196013,
2,0,0,1,0,64184.7,0.188871,0.188525,-0.70916,33,0.0153815,10,-0.000133695,-3.14926,-0.336971,-0.175089,4.84119,0.188525,
2,0,0,1,0,64185.1,0.18138,0.181051,-0.738876,33,0.0151048,10,-0.000133774,-3.13143,-0.388265,-0.151958,4.38279,0.181051,
2,0,0,1,0,64185.5,0.173891,0.173508,-0.773278,33,0.0148159,10,-0.00013417,-3.11166,-0.332278,-0.177562,5.36248,0.173508,
2,0,0,1,0,64185.9,0.166398,0.166046,-0.814999,33,0.0145128,10,-0.000135327,-3.08884,-0.338944,-0.17407,5.55474,0.166046,
2,0,0,1,0,64186.2,0.158906,0.158586,-0.872608,33,0.0141912,10,-0.000138383,-3.05918,-0.239883,-0.245953,8.39101,0.158586,
2,0,0,1,0,64186.6,0.151417,0.151115,-0.95479,33,0.0138441,10,-0.000144283,-3.02009,-0.15538,-0.379714,14.1931,0.151115,
2,0,0,1,0,64187,0.143926,0.143604,-1.09699,33,0.013456,10,-0.000157532,-2.9598,-0.095988,-0.61466,26.3326,0.143604,
2,0,0,1,0,64187.4,0.136435,0.136113,-1.31992,33,0.013,10,-0.000179658,-2.87945,-0.0891122,-0.662086,34.0588,0.136113,
2,0,0,1,0,64187.7,0.128942,0.128653,-1.58387,33,0.0124509,10,-0.000203769,-2.80028,-0.104397,-0.565152,34.8243,0.128653,
2,0,0,1,0,64188.1,0.121453,0.121072,-1.82792,33,0.0118042,10,-0.000221309,-2.73804,-0.147018,-0.40131,28.5813,0.121072,
2,0,0,1,0,64188.5,0.113962,0.113672,-2.00174,33,0.0110774,10,-0.000227541,-2.69859,-0.267936,-0.220202,17.2023,0.113672,
2,0,0,1,0,64188.9,0.106471,0.10614,-2.07621,33,0.010303,10,-0.000220368,-2.68273,-1.34419,-0.0438925,3.56026,0.10614,
2,0,0,1,0,64189.2,0.0989799,0.0986086,-2.06437,33,0.00951896,10,-0.000203565,-2.68521,0.857261,0.0688238,-5.53478,0.0986086,
2,0,0,1,0,64189.6,0.0914889,0.0911507,-2.01237,33,0.00874961,10,-0.000183429,-2.69629,0.721441,0.0817808,-6.41666,0.0911507,
2,0,0,1,0,64190,0.083998,0.0836739,-1.96383,33,0.0079997,10,-0.000164321,-2.7069,0.693985,0.0850163,-6.51328,0.0836739,
2,0,0,1,0,64190.4,0.076507,0.0761647,-1.92083,33,0.00726646,10,-0.000146299,-2.71651,0.727336,0.081118,-6.077,0.0761647,
2,0,0,1,0,64190.7,0.069016,0.0686806,-1.87352,33,0.00654937,10,-0.000128675,-2.72734,0.688445,0.0857004,-6.28364,0.0686806,
2,0,0,1,0,64191.1,0.0615251,0.0611783,-1.82935,33,0.00584904,10,-0.000111916,-2.7377,0.597842,0.0986883,-7.05018,0.0611783,
2,0,0,1,0,64191.5,0.0540341,0.0536759,-1.77493,33,0.00516807,10,-9.52712e-05,-2.75082,0.629432,0.0937352,-6.4943,0.0536759,
2,0,0,1,0,64191.9,0.0465432,0.0461638,-1.72212,33,0.00450676,10,-7.94997e-05,-2.76394,0.542886,0.108678,-7.30294,0.0461638,
2,0,0,1,0,64192.2,0.0390523,0.038687,-1.66407,33,0.00386697,10,-6.43777e-05,-2.77883,0.434127,0.135905,-8.80315,0.038687,
2,0,0,1,0,64192.6,0.0315626,0.0312684,-1.6012,33,0.00325022,10,-5.0067e-05,-2.79555,0.429638,0.137325,-8.57685,0.0312684,
2,0,0,1,0,64193,0.0240704,0.0237418,-1.53905,33,0.00265587,10,-3.65398e-05,-2.81275,0.459047,0.128527,-7.74538,0.0237418,
2,0,0,1,0,64193.4,0.0165785,0.0162563,-1.49352,33,0.00208162,10,-2.4279e-05,-2.82579,0.710778,0.0830077,-4.84409,0.0162563,
2,0,0,1,0,64193.7,0.00908845,0.00874149,-1.45985,33,0.00152281,10,-1.27613e-05,-2.83569,0.949772,0.0621202,-3.5402,0.00874149,
2,0,0,1,0,64194.1,0.0015984,0.00118641,-1.45677,33,0.000973052,10,-1.72832e-06,-2.83661, , , ,0.00118641,
2,0,0,1,0,64194.2,0.000199195,-0.000224345,-1.44914,33,0.000870235,10,3.25107e-07,-2.83889, , , ,-0.000224345,