File: Figure_codes/Fig_3-5/rawdata_trumpetplot_data/after 10th/20221101_1-115_003_TrumpetPlot_ParaChange_from10_every3_12_CV_C01_3.csv
mode,ox/red,error,control changes,counter inc.,time/s,control/V,Ewe/V,<I>/mA,cycle number,(Q-Qo)/C,I Range,P/W,log(|I|),Tafel slope mV/dec,alpha_eff,dI/d(E-IR),E-IR/V,
2,1,0,1,0,7106.91,2.44065e-05,-0.000115363,19.4357,4,0.0000000E+000,10,-2.24216e-06,-1.7114, , , ,-0.000115363,
2,1,0,1,0,7106.93,0.0104008,0.0100635,23.3086,4,0.000371041,10,0.000234565,-1.63248,0.199498,0.295742,267.184,0.0100635,
2,1,0,1,0,7106.95,0.0212099,0.0208807,25.6258,4,0.000812937,10,0.000535084,-1.59132,0.329589,0.179011,178.502,0.0208807,
2,1,0,1,0,7106.97,0.0320052,0.0316947,27.31,4,0.00129009,10,0.000865583,-1.56368,0.433589,0.136074,144.873,0.03169471,
2,1,0,1,0,7106.98,0.0428033,0.04246,28.7775,4,0.00179526,10,0.00122189,-1.54095,0.487967,0.12091,135.844,0.04246,
2,1,0,1,0,7107,0.0535986,0.053275,30.2653,4,0.00232684,10,0.00161239,-1.51905,0.49323,0.11962,141.394,0.053275,
2,1,0,1,0,7107.02,0.0644077,0.0640594,31.8768,4,0.00288622,10,0.00204201,-1.49653,0.471798,0.125054,155.656,0.0640594,
2,1,0,1,0,7107.04,0.075203,0.074813,33.6355,4,0.00347593,10,0.00251637,-1.4732,0.45118,0.130768,171.813,0.074813,
2,1,0,1,0,7107.06,0.0860011,0.0855931,35.5486,4,0.00409875,10,0.00304271,-1.44918,0.467197,0.126285,175.171,0.0855931,
2,1,0,1,0,7107.07,0.0968075,0.096423,37.5053,4,0.00475606,10,0.00361637,-1.42591,0.455342,0.129573,189.667,0.09642297,
2,1,0,1,0,7107.09,0.107606,0.107286,39.5768,4,0.00545005,10,0.00424602,-1.40256,0.47782,0.123477,190.633,0.107286,
2,1,0,1,0,7107.11,0.118401,0.118043,41.6468,4,0.00618098,10,0.00491609,-1.38042,0.478224,0.123373,200.607,0.118043,
2,1,0,1,0,7107.13,0.129207,0.128861,43.9473,4,0.00695102,10,0.00566308,-1.35707,0.444059,0.132865,227.968,0.128861,
2,1,0,1,0,7107.15,0.140005,0.139658,46.5779,4,0.00776555,10,0.00650497,-1.33182,0.414568,0.142317,258.804,0.139658,
2,1,0,1,0,7107.16,0.150803,0.150468,49.4271,4,0.00862986,10,0.00743718,-1.30603,0.430728,0.136977,264.199,0.150468,
2,1,0,1,0,7107.18,0.161604,0.161259,52.2012,4,0.00954518,10,0.00841794,-1.28232,0.495191,0.119146,242.547,0.161259,
2,1,0,1,0,7107.2,0.172405,0.172045,54.5903,4,0.0105075,10,0.00939197,-1.26288,0.659428,0.0894715,190.351,0.172045,
2,1,0,1,0,7107.22,0.183203,0.182859,56.1351,4,0.0115061,10,0.0102648,-1.25077,1.80203,0.0327409,71.4943,0.182859,
2,1,0,1,0,7107.24,0.194001,0.193664,55.7928,4,0.0125172,10,0.0108051,-1.25342,-0.788083,-0.0748652,-162.121,0.193664,
2,1,0,1,0,7107.25,0.204808,0.204557,52.4738,4,0.0134961,10,0.0107339,-1.28006,-0.268326,-0.219881,-447.678,0.204557,
2,1,0,1,0,7107.27,0.215603,0.215285,46.4962,4,0.0143891,10,0.0100099,-1.33258,-0.173435,-0.340185,-615.41,0.215285,
2,1,0,1,0,7107.29,0.226401,0.226081,39.7599,4,0.015164,10,0.00898897,-1.40055,-0.155474,-0.379485,-589.675,0.226081,
2,1,0,1,0,7107.31,0.237207,0.236932,34.1524,4,0.0158263,10,0.00809181,-1.46658,-0.177165,-0.333023,-445.289,0.236932,
2,1,0,1,0,7107.33,0.248005,0.247703,30.1494,4,0.0164022,10,0.00746808,-1.52072,-0.232007,-0.254302,-300.241,0.2477027,
2,1,0,1,0,7107.34,0.258801,0.258512,27.4552,4,0.0169188,10,0.0070975,-1.56138,-0.310928,-0.189755,-203.977,0.2585125,
2,1,0,1,0,7107.36,0.26961,0.269311,25.6577,4,0.0173957,10,0.00690989,-1.59078,-0.420091,-0.140446,-140.88,0.269311,
2,1,0,1,0,7107.38,0.280405,0.280094,24.3842,4,0.0178454,10,0.00682987,-1.61289,-0.567935,-0.103885,-98.9904,0.280094,
2,1,0,1,0,7107.4,0.291203,0.290871,23.4382,4,0.0182754,10,0.00681749,-1.63008,-0.681658,-0.0865537,-79.2731,0.290871,
2,1,0,0,0,7107.41,0.300012,0.299651,22.8149,4,0.0186153,10,0.00683652,-1.64178,0.00165896,35.5644,26221.7,0.299651,
2,1,0,1,0,7107.43,0.290843,0.290617,6.31481,4,0.0188171,10,0.00183519,-2.19964,0.010718,5.50475,1187.36,0.290617,
2,0,0,1,0,7107.45,0.280047,0.279753,-2.3877,4,0.0188421,10,-0.000667966,-2.62202,-0.0116594,-5.06031,563.234,0.279753,
2,0,0,1,0,7107.46,0.269244,0.268947,-6.87865,4,0.0187544,10,-0.00184999,-2.1625,-0.0488294,-1.20829,310.202,0.268947,
2,0,0,1,0,7107.48,0.258443,0.258198,-9.49369,4,0.0186051,10,-0.00245125,-2.02256,-0.110831,-0.532344,194.587,0.258198,
2,0,0,1,0,7107.5,0.247645,0.247352,-11.2355,4,0.0184174,10,-0.00277912,-1.94941,-0.186807,-0.315834,137.83,0.247352,
2,0,0,1,0,7107.52,0.236849,0.236536,-12.5283,4,0.0182029,10,-0.0029634,-1.90211,-0.265468,-0.222249,108.394,0.236536,
2,0,0,1,0,7107.54,0.22604,0.22573,-13.5773,4,0.0179676,10,-0.00306481,-1.86719,-0.352157,-0.167539,88.6635,0.22573,
2,0,0,1,0,7107.55,0.215245,0.214962,-14.4872,4,0.0177147,10,-0.00311419,-1.83902,-0.400206,-0.147424,83.3866,0.214962,
2,0,0,1,0,7107.57,0.204447,0.204146,-15.3685,4,0.0174458,10,-0.00313743,-1.81337,-0.444049,-0.132868,79.6941,0.204146,
2,0,0,1,0,7107.59,0.19364,0.1933,-16.241,4,0.0171613,10,-0.00313938,-1.78939,-0.46115,-0.127941,81.0698,0.1933,
2,0,0,1,0,7107.61,0.182842,0.182549,-17.1629,4,0.0168608,10,-0.00313308,-1.76541,-0.429028,-0.13752,92.1981,0.182549,
2,0,0,1,0,7107.63,0.172047,0.171736,-18.269,4,0.0165421,10,-0.00313745,-1.73828,-0.367032,-0.160749,114.749,0.171736,
2,0,0,1,0,7107.64,0.161241,0.160923,-19.6929,4,0.0162011,10,-0.00316905,-1.70569,-0.303112,-0.194647,149.799,0.160923,
2,0,0,1,0,7107.66,0.150443,0.150133,-21.6277,4,0.0158301,10,-0.00324702,-1.66499,-0.231032,-0.255376,216.055,0.150133,
2,0,0,1,0,7107.68,0.139645,0.139345,-24.387,4,0.0154171,10,-0.00339821,-1.61284,-0.187037,-0.315446,301.086,0.139345,
2,0,0,1,0,7107.7,0.128849,0.128611,-28.1953,4,0.0149453,10,-0.00362621,-1.54982,-0.160722,-0.367093,404.728,0.128611,
2,0,0,1,0,7107.72,0.118043,0.117766,-32.9386,4,0.0143954,10,-0.00387904,-1.48229,-0.163046,-0.361861,465.022,0.117766,
2,0,0,1,0,7107.73,0.107245,0.107039,-37.9051,4,0.0137565,10,-0.00405731,-1.4213,-0.189883,-0.310718,459.683,0.107039,
2,0,0,1,0,7107.75,0.0964468,0.0962236,-42.6928,4,0.0130296,10,-0.00410805,-1.36965,-0.238725,-0.247147,411.022,0.09622363,
2,0,0,1,0,7107.77,0.0856404,0.085417,-46.7462,4,0.0122229,10,-0.00399292,-1.33025,-0.319718,-0.184538,335.964,0.085417,
2,0,0,1,0,7107.79,0.0748451,0.0745691,-49.941,4,0.011351,10,-0.00372405,-1.30154,-0.467963,-0.126078,245.054,0.0745691,
2,0,0,1,0,7107.81,0.0640471,0.0637529,-51.9672,4,0.0104317,10,-0.00331306,-1.28427,-0.951079,-0.0620348,125.465,0.0637529,
2,0,0,1,0,7107.82,0.0532407,0.0529315,-52.6857,4,0.00948805,10,-0.00278873,-1.27831,-13.8927,-0.00424684,8.71116,0.0529315,
2,0,0,1,0,7107.84,0.0424426,0.0421736,-52.2844,4,0.00854221,10,-0.00220502,-1.28163,1.77303,0.0332764,-67.8164,0.0421736,
2,0,0,1,0,7107.86,0.0316473,0.0313161,-51.325,4,0.00760938,10,-0.0016073,-1.28967,1.17854,0.0500618,-100.231,0.0313161,
2,0,0,1,0,7107.88,0.0208437,0.020553,-50.1757,4,0.00669595,10,-0.00103126,-1.29951,1.04501,0.0564589,-110.529,0.020553,
2,0,0,1,0,7107.9,0.0100429,0.0097549,-48.8935,4,0.00580417,10,-0.000476952,-1.31075,0.886711,0.066538,-126.912,0.0097549,
2,0,0,1,0,7107.91,-0.000755207,-0.00115032,-47.434,4,0.004937,10,5.45643e-05,-1.32391,0.720809,0.0818524,-151.298,-0.00115032,
2,0,0,1,0,7107.93,-0.0115505,-0.011888,-45.4907,4,0.00410017,10,0.000540794,-1.34208,0.528155,0.11171,-198.182,-0.011888,
2,0,0,1,0,7107.95,-0.0223597,-0.0227264,-43.2153,4,0.00330166,10,0.00098213,-1.36436,0.461707,0.127787,-215.508,-0.0227264,
2,0,0,1,0,7107.97,-0.033155,-0.0335171,-40.9895,4,0.0025444,10,0.00137385,-1.38733,0.514013,0.114783,-183.88,-0.0335171,
2,0,0,1,0,7107.99,-0.043953,-0.044328,-39.2781,4,0.00182306,10,0.00174112,-1.40585,0.687811,0.0857794,-131.684,-0.044328,
2,0,0,1,0,7108,-0.0547594,-0.0551091,-38.1963,4,0.00112697,10,0.00210496,-1.41798,1.19614,0.0493252,-73.6053,-0.0551091,
2,0,0,1,0,7108.02,-0.0655575,-0.0658765,-37.6648,4,0.000445057,10,0.00248122,-1.42406,3.70526,0.0159233,-23.4361,-0.0658765,
2,0,0,1,0,7108.04,-0.0763528,-0.076717,-37.6204,4,-0.000231958,10,0.00288612,-1.42458,-6.60487,-0.0089328,13.1257,-0.076717,
2,0,0,1,0,7108.06,-0.0871592,-0.0875024,-37.9339,4,-0.000911368,10,0.00331931,-1.42097,-2.06839,-0.0285246,42.2462,-0.08750245,
2,0,0,1,0,7108.08,-0.0979573,-0.0982921,-38.5149,4,-0.00159904,10,0.00378571,-1.41437,-1.49777,-0.0393919,59.064,-0.09829209,
2,0,0,1,1,7108.09,-0.0955546,-0.0960207,-27.8056,4,-0.00197941,10,0.00266991,-1.55587,-0.0307111,-1.92113,2083.25,-0.0960207,
2,0,0,1,1,7108.11,-0.0847538,-0.0851865,-10.8893,4,-0.00231406,10,0.00092762,-1.963,-0.0188168,-3.1355,1256.14,-0.0851865,
2,0,0,1,1,7108.12,-0.0739557,-0.0744128,0.353743,4,-0.00240176,10,-2.6323e-05,-3.45131,0.711954,0.0828705,877.986,-0.0744128,
2,1,0,1,1,7108.14,-0.0631604,-0.06362,8.40177,4,-0.00231815,10,-0.00053452,-2.07563,0.0280585,2.10275,642.78,-0.06362,
2,1,0,1,1,7108.16,-0.0523512,-0.0527603,14.4162,4,-0.00210959,10,-0.000760601,-1.84115,0.0677524,0.870818,480.252,-0.0527603,
2,1,0,1,1,7108.18,-0.0415559,-0.0419039,18.8697,4,-0.00180759,10,-0.000790715,-1.72423,0.122795,0.480476,350.486,-0.0419039,
2,1,0,1,1,7108.2,-0.0307579,-0.0311535,22.1002,4,-0.00143709,10,-0.000688499,-1.6556,0.200766,0.293875,252.177,-0.0311535,
2,1,0,1,1,7108.21,-0.0199515,-0.0203713,24.4421,4,-0.00101695,10,-0.000497916,-1.61186,0.30857,0.191205,181.645,-0.0203713,
2,1,0,1,1,7108.23,-0.0091534,-0.00951481,26.0766,4,-0.000561444,10,-0.000248114,-1.58375,0.48447,0.121783,123.568,-0.00951481,
2,1,0,0,1,7108.25,-7.54729e-05,-0.000478022,26.9561,4,-0.000160175,10,-1.28856e-05,-1.56934, , , ,-0.000478022,