File: Figure_codes/Fig_3-5/rawdata_trumpetplot_data/after 10th/20221101_1-115_003_TrumpetPlot_ParaChange_from10_every3_09_CV_C01_30.csv
mode,ox/red,error,control changes,counter inc.,time/s,control/V,Ewe/V,<I>/mA,cycle number,(Q-Qo)/C,I Range,P/W,log(|I|),Tafel slope mV/dec,alpha_eff,dI/d(E-IR),E-IR/V,
2,0,0,0,0,60286.4,2.44065e-05,-0.000516197,-5.29514,31,0.0000000E+000,10,2.73333e-06,-2.27612, , , ,-0.000516197,
2,1,0,1,0,60286.5,0.00978761,0.00943003,0.476974,31,-0.000161723,10,4.49788e-06,-3.32151,0.00516597,11.4209,289.416,0.00943003,
2,1,0,1,0,60286.6,0.0197755,0.019413,2.39371,31,-4.67618e-06,10,4.64692e-05,-2.62093,0.0431026,1.36883,126.873,0.019413,
2,1,0,1,0,60286.7,0.0297635,0.0294474,3.38967,31,0.000289091,10,9.98172e-05,-2.46984,0.101976,0.578565,76.2045,0.0294474,
2,1,0,1,0,60286.8,0.0397514,0.0393929,4.05034,31,0.000662878,10,0.000159555,-2.39251,0.149519,0.394599,62.3972,0.0393929,
2,1,0,1,0,60286.9,0.0497484,0.0493902,4.60955,31,0.00109663,10,0.000227667,-2.33634,0.207358,0.284532,51.0656,0.0493902,
2,1,0,1,0,60287,0.0597273,0.0593794,5.08977,31,0.00158132,10,0.000302227,-2.2933,0.244442,0.241366,47.9153,0.0593794,
2,1,0,1,0,60287.1,0.0697152,0.0693998,5.52737,31,0.00211297,10,0.000383599,-2.25748,0.326298,0.180816,39.0344,0.0693998,
2,1,0,1,0,60287.2,0.0797031,0.0793638,5.9227,31,0.00268624,10,0.000470048,-2.22748,0.378656,0.155814,36.0166,0.0793638,
2,1,0,1,0,60287.3,0.0896911,0.0893444,6.25548,31,0.00329574,10,0.000558892,-2.20374,0.437622,0.134819,32.9412,0.08934439,
2,1,0,1,0,60287.4,0.099679,0.0993486,6.60477,31,0.00393764,10,0.000656175,-2.18014,0.385701,0.152968,39.418,0.0993486,
2,1,0,1,0,60287.5,0.109667,0.109314,7.0705,31,0.00461976,10,0.000772901,-2.15055,0.29136,0.202499,55.911,0.109314,
2,1,0,1,0,60287.6,0.119655,0.119275,7.68811,31,0.00535712,10,0.000916996,-2.11418,0.297002,0.198652,59.613,0.119275,
2,1,0,1,0,60287.7,0.129643,0.129263,8.25659,31,0.00615511,10,0.00106727,-2.0832,0.375651,0.157061,50.5771,0.129263,
2,1,0,1,0,60287.8,0.139631,0.139242,8.64322,31,0.00700175,10,0.0012035,-2.06332,0.688099,0.0857435,28.9349,0.139242,
2,1,0,1,0,60287.9,0.149619,0.149267,8.76305,31,0.00787442,10,0.00130803,-2.05734,-1.43419,-0.0411383,-14.0373,0.149267,
2,1,0,1,0,60288,0.159607,0.159262,8.20571,31,0.00872906,10,0.00130685,-2.08588,-0.195306,-0.30209,-96.5712,0.159262,
2,1,0,1,0,60288.1,0.169595,0.169252,6.99855,31,0.00949124,10,0.00118452,-2.15499,-0.125365,-0.470625,-128.508,0.1692522,
2,1,0,1,0,60288.2,0.179582,0.17926,5.85909,31,0.0101308,10,0.0010503,-2.23217,-0.14358,-0.410921,-94.1038,0.1792603,
2,1,0,1,0,60288.3,0.18957,0.189208,5.10022,31,0.0106758,10,0.000965003,-2.29241,-0.198177,-0.297713,-59.3456,0.189208,
2,1,0,1,0,60288.4,0.199558,0.19922,4.62509,31,0.0111596,10,0.00092141,-2.33488,-0.289649,-0.203695,-36.7675,0.19922,
2,1,0,1,0,60288.5,0.209546,0.209182,4.31452,31,0.0116052,10,0.000902518,-2.36507,-0.357243,-0.165154,-27.8323,0.209182,
2,1,0,1,0,60288.6,0.219534,0.219171,4.10415,31,0.0120253,10,0.000899508,-2.38678,-0.588498,-0.100255,-16.0554,0.219171,
2,1,0,1,0,60288.7,0.229522,0.229164,3.95532,31,0.012428,10,0.000906416,-2.40282,-0.708268,-0.0833018,-12.8751,0.229164,
2,1,0,1,0,60288.8,0.23951,0.239194,3.85616,31,0.0128186,10,0.000922373,-2.41384,-1.21632,-0.048507,-7.30352,0.239194,
2,1,0,1,0,60288.9,0.249498,0.249118,3.77999,31,0.0131998,10,0.000941663,-2.42251,-1.33405,-0.0442261,-6.52482,0.249118,
2,1,0,1,0,60289,0.259486,0.259189,3.72093,31,0.0135746,10,0.000964426,-2.42935,-1.26184,-0.0467572,-6.78687,0.259189,
2,1,0,1,0,60289.1,0.269474,0.269169,3.6665,31,0.0139436,10,0.000986908,-2.43575,-1.55636,-0.0379089,-5.42359,0.2691693,
2,1,0,1,0,60289.2,0.279462,0.279116,3.61604,31,0.0143078,10,0.00100929,-2.44177,-1.85919,-0.0317343,-4.48449,0.279116,
2,1,0,1,0,60289.3,0.28945,0.289104,3.57377,31,0.0146673,10,0.00103319,-2.44687,-2.60071,-0.0226861,-3.16389,0.289104,
2,1,0,1,0,60289.4,0.299438,0.299146,3.53116,31,0.0150222,10,0.00105633,-2.45208,-0.0426809,-1.38235,-179.601,0.299146,
2,0,0,1,0,60289.5,0.291747,0.291372,-0.2815,31,0.0151261,10,-8.20212e-05,-3.55052,-0.00638636,-9.23843,186.279,0.291372,
2,0,0,1,0,60289.6,0.281759,0.281364,-1.34839,31,0.0150353,10,-0.000379388,-2.87019,-0.0484883,-1.21679,63.4382,0.281364,
2,0,0,1,0,60289.7,0.271771,0.2714,-1.80873,31,0.0148756,10,-0.00049089,-2.74263,-0.115459,-0.511004,35.9557,0.2714,
2,0,0,1,0,60289.8,0.261783,0.261395,-2.09253,31,0.0146801,10,-0.000546978,-2.67933,-0.214744,-0.274745,22.3847,0.261395,
2,0,0,1,0,60289.9,0.251795,0.25144,-2.2948,31,0.0144608,10,-0.000577006,-2.63925,-0.286483,-0.205946,18.4457,0.25144,
2,0,0,1,0,60290,0.241807,0.241452,-2.45796,31,0.0142231,10,-0.00059348,-2.60943,-0.369636,-0.159616,15.34,0.241452,
2,0,0,1,0,60290.1,0.231815,0.231491,-2.60709,31,0.0139701,10,-0.000603517,-2.58384,-0.423303,-0.13938,14.1728,0.231491,
2,0,0,1,0,60290.2,0.221831,0.22148,-2.73278,31,0.0137037,10,-0.000605257,-2.56339,-0.497405,-0.118616,12.6463,0.22148,
2,0,0,1,0,60290.3,0.211843,0.211487,-2.85271,31,0.0134246,10,-0.000603311,-2.54474,-0.605429,-0.0974515,10.8549,0.211487,
2,0,0,1,0,60290.4,0.201856,0.201477,-2.97335,31,0.0131335,10,-0.000599063,-2.52675,-0.59237,-0.0995999,11.5647,0.201477,
2,0,0,1,0,60290.5,0.191868,0.1915,-3.09592,31,0.0128304,10,-0.000592869,-2.50921,-0.544991,-0.108259,13.0991,0.1915,
2,0,0,1,0,60290.6,0.18188,0.181549,-3.2351,31,0.0125148,10,-0.000587329,-2.49011,-0.468883,-0.125831,15.8721,0.181549,
2,0,0,1,0,60290.7,0.171892,0.171532,-3.39223,31,0.0121845,10,-0.000581875,-2.46951,-0.468793,-0.125855,16.6408,0.171532,
2,0,0,1,0,60290.8,0.161904,0.161528,-3.5901,31,0.0118367,10,-0.000579901,-2.44489,-0.360886,-0.163487,22.9049,0.161528,
2,0,0,1,0,60290.9,0.151916,0.151594,-3.88036,31,0.0114647,10,-0.000588238,-2.41113,-0.245295,-0.240527,36.4985,0.151594,
2,0,0,1,0,60291,0.141928,0.141547,-4.38644,31,0.011054,10,-0.000620888,-2.35789,-0.145969,-0.404195,69.3561,0.141547,
2,0,0,1,0,60291.1,0.13194,0.131606,-5.26661,31,0.0105755,10,-0.000693118,-2.27847,-0.116641,-0.505826,104.072,0.131606,
2,0,0,1,0,60291.2,0.121952,0.121581,-6.39975,31,0.00999356,10,-0.000778086,-2.19384,-0.131262,-0.449484,112.156,0.121581,
2,0,0,1,0,60291.3,0.111964,0.111579,-7.45122,31,0.00930043,10,-0.0008314,-2.12777,-0.177976,-0.331506,96.3152,0.111579,
2,0,0,1,0,60291.4,0.101976,0.101591,-8.27113,31,0.00851277,10,-0.000840269,-2.08244,-0.296682,-0.198866,64.1101,0.101591,
2,0,0,1,0,60291.5,0.0919883,0.0916399,-8.71906,31,0.00766074,10,-0.000799013,-2.05953,-0.791309,-0.07456,25.3608,0.0916399,
2,0,0,1,0,60291.6,0.0820004,0.0816651,-8.75958,31,0.00678549,10,-0.000715352,-2.05752,1.69527,0.0348027,-11.8874,0.0816651,
2,0,0,1,0,60291.7,0.0720124,0.0716677,-8.56169,31,0.00591985,10,-0.000613597,-2.06744,0.864945,0.0682124,-22.7949,0.0716677,
2,0,0,1,0,60291.8,0.0620245,0.0616811,-8.35231,31,0.0050756,10,-0.000515179,-2.07819,0.953205,0.0618965,-20.1782,0.0616811,
2,0,0,1,0,60291.9,0.0520366,0.0516586,-8.17219,31,0.0042503,10,-0.000422164,-2.08766,0.946025,0.0623662,-19.8827,0.0516586,
2,0,0,1,0,60292,0.0420486,0.0417195,-7.96353,31,0.00344406,10,-0.000332234,-2.09889,0.880506,0.0670069,-20.8343,0.04171947,
2,0,0,1,0,60292.1,0.0320607,0.0317293,-7.72436,31,0.0026608,10,-0.000245089,-2.11214,0.64752,0.0911169,-27.4574,0.0317293,
2,0,0,1,0,60292.2,0.0220728,0.0217483,-7.41971,31,0.00190416,10,-0.000161366,-2.12961,0.519913,0.11348,-32.8462,0.0217483,
2,0,0,1,0,60292.3,0.0120848,0.0117138,-7.0784,31,0.0011801,10,-8.29149e-05,-2.15006,0.451758,0.130601,-36.0944,0.0117138,
2,0,0,1,0,60292.4,0.0020969,0.00167668,-6.81042,31,0.000488632,10,-1.14189e-05,-2.16683,0.764602,0.0771643,-20.4424,0.00167668,
2,0,0,1,0,60292.5,-0.00789103,-0.00830424,-6.57205,31,-0.00017831,10,5.45759e-05,-2.1823,0.995889,0.0592436,-15.2163,-0.00830424,
2,0,0,1,0,60292.6,-0.017879,-0.0182803,-6.47932,31,-0.000828634,10,0.000118444,-2.18847,3.74275,0.0157638,-3.9846,-0.0182803,
2,0,0,1,0,60292.7,-0.0278669,-0.0282553,-6.48139,31,-0.00147522,10,0.000183134,-2.18833,-2.76251,-0.0213574,5.41001,-0.0282553,
2,0,0,1,0,60292.8,-0.0378549,-0.0382655,-6.5855,31,-0.00212724,10,0.000251998,-2.18141,-1.17921,-0.0500333,12.8535,-0.0382655,
2,0,0,1,0,60292.9,-0.0478428,-0.0482354,-6.74468,31,-0.00279244,10,0.000325332,-2.17104,-0.70298,-0.0839285,22.1029,-0.0482354,
2,0,0,1,0,60293,-0.0578216,-0.0582302,-6.96776,31,-0.00347625,10,0.000405734,-2.15691,-0.670218,-0.0880311,23.9336,-0.0582302,
2,0,0,1,0,60293.1,-0.0678187,-0.0681795,-7.24606,31,-0.00418572,10,0.000494033,-2.1399,-0.53085,-0.111142,31.4211,-0.0681795,
2,0,0,1,0,60293.2,-0.0778066,-0.0782185,-7.58041,31,-0.00492592,10,0.000592928,-2.12031,-0.493594,-0.119531,35.3804,-0.0782185,
2,0,0,1,0,60293.3,-0.0877945,-0.088193,-7.98087,31,-0.00570288,10,0.000703857,-2.09795,-0.423929,-0.139174,43.3701,-0.088193,
2,0,0,1,0,60293.4,-0.0977825,-0.0981674,-8.4181,31,-0.00652223,10,0.000826383,-2.07479,-0.431785,-0.136642,44.9057,-0.09816739,
2,0,0,1,1,60293.5,-0.0927386,-0.0931392,-3.15194,31,-0.00709339,10,0.000293569,-2.50142,-0.0156521,-3.76947,461.701,-0.0931392,
2,1,0,1,1,60293.6,-0.0827529,-0.083114,0.152872,31,-0.00722563,10,-1.27058e-05,-3.81567,0.0177651,3.32112,242.68,-0.083114,
2,1,0,1,1,60293.7,-0.0727627,-0.0731858,2.06291,31,-0.00710708,10,-0.000150975,-2.68552,0.0315487,1.87013,148.322,-0.0731858,
2,1,0,1,1,60293.8,-0.0627748,-0.0631938,3.27282,31,-0.00683575,10,-0.000206822,-2.48508,0.077229,0.763962,97.2891,-0.0631938,
2,1,0,1,1,60293.9,-0.0527868,-0.0531308,4.05447,31,-0.00646624,10,-0.000215417,-2.39207,0.149581,0.394434,62.3085,-0.0531308,
2,1,0,1,1,60294,-0.0427989,-0.0431477,4.55127,31,-0.00603391,10,-0.000196377,-2.34187,0.262388,0.224858,39.9526,-0.0431477,
2,1,0,1,1,60294.1,-0.0328109,-0.0331811,4.85717,31,-0.0055627,10,-0.000161166,-2.31362,0.477747,0.123496,23.3986,-0.03318112,
2,1,0,1,1,60294.2,-0.022823,-0.0232264,5.01848,31,-0.00506838,10,-0.000116561,-2.29943,1.07073,0.0551027,10.7896,-0.0232264,
2,1,0,1,1,60294.3,-0.0128351,-0.0131659,5.09097,31,-0.00456262,10,-6.70271e-05,-2.2932,4.77812,0.012348,2.45345,-0.0131659,
2,1,0,1,1,60294.4,-0.00284713,-0.00322743,5.11583,31,-0.00405224,10,-1.6511e-05,-2.29108,-17.2603,-0.00341824,-0.682174,-0.00322743,
2,1,0,1,1,60294.4,-2.55332e-05,-0.000287149,5.1237,31,-0.00390843,10,-1.47126e-06,-2.29042, , , ,-0.0002871489,