File: Figure_codes/Fig_3-5/rawdata_trumpetplot_data/after 10th/20221101_1-115_003_TrumpetPlot_ParaChange_from10_every3_05_CV_C01_30.csv
mode,ox/red,error,control changes,counter inc.,time/s,control/V,Ewe/V,<I>/mA,cycle number,(Q-Qo)/C,I Range,P/W,log(|I|),Tafel slope mV/dec,alpha_eff,dI/d(E-IR),E-IR/V,
2,0,0,1,0,60223.9,2.44065e-05,-0.00042076,-0.757051,31,0.0000000E+000,10,3.18537e-07,-3.12087, , , ,-0.00042076,
2,1,0,1,0,60224.3,0.00729063,0.0069184,0.615761,31,0.00010626,10,4.26008e-06,-3.21059,0.035269,1.67286,39.1872,0.0069184,
2,1,0,1,0,60224.7,0.0147802,0.0143716,0.789708,31,0.000379826,10,1.13493e-05,-3.10253,0.10666,0.553159,17.0262,0.0143716,
2,1,0,1,0,60225,0.0222725,0.0219423,0.893325,31,0.000701388,10,1.96016e-05,-3.04899,0.163811,0.36017,12.5278,0.0219423,
2,1,0,1,0,60225.4,0.0297644,0.029433,0.982153,31,0.00105815,10,2.89077e-05,-3.00782,0.190009,0.310512,11.8923,0.029433,
2,1,0,1,0,60225.8,0.0372544,0.0368947,1.07247,31,0.00144818,10,3.95686e-05,-2.96961,0.225843,0.261244,10.9308,0.03689469,
2,1,0,1,0,60226.2,0.0447449,0.0444121,1.15861,31,0.00187116,10,5.14564e-05,-2.93606,0.233535,0.252639,11.417,0.0444121,
2,1,0,1,0,60226.5,0.0522363,0.051885,1.24021,31,0.00232615,10,6.43484e-05,-2.9065,0.259796,0.227101,10.986,0.051885,
2,1,0,1,0,60226.9,0.0597291,0.059413,1.31888,31,0.00281126,10,7.83588e-05,-2.87979,0.300613,0.196266,10.0966,0.059413,
2,1,0,1,0,60227.3,0.0672182,0.0668353,1.38767,31,0.00332316,10,9.2745e-05,-2.85772,0.357584,0.164996,8.92064,0.0668353,
2,1,0,1,0,60227.7,0.0747092,0.0743867,1.44279,31,0.00385866,10,0.000107324,-2.8408,0.498754,0.118295,6.6514,0.0743867,
2,1,0,1,0,60228,0.0822001,0.0818517,1.48881,31,0.0044134,10,0.000121862,-2.82716,0.596484,0.098913,5.75279,0.0818517,
2,1,0,1,0,60228.4,0.0896911,0.0893236,1.54081,31,0.00498624,10,0.00013763,-2.81225,0.455668,0.12948,7.8074,0.08932358,
2,1,0,1,0,60228.8,0.097182,0.0968387,1.62474,31,0.00558397,10,0.000157338,-2.78922,0.241728,0.244076,15.5046,0.0968387,
2,1,0,1,0,60229.2,0.104673,0.104335,1.7583,31,0.00622157,10,0.000183452,-2.75491,0.201717,0.292489,20.0485,0.104335,
2,1,0,1,0,60229.5,0.112164,0.111829,1.90372,31,0.00691269,10,0.000212891,-2.7204,0.254609,0.231728,17.1828,0.1118291,
2,1,0,1,0,60229.9,0.119655,0.119277,2.01283,31,0.00765252,10,0.000240084,-2.69619,0.512488,0.115125,9.03277,0.119277,
2,1,0,1,0,60230.3,0.127146,0.12681,2.06369,31,0.00842274,10,0.000261696,-2.68536,0.948622,0.0621955,5.0161,0.12681,
2,1,0,1,0,60230.7,0.134637,0.134275,2.08696,31,0.00920785,10,0.000280228,-2.68049,-2.36668,-0.0249294,-2.02999,0.134275,
2,1,0,1,0,60231,0.142128,0.141799,2.00071,31,0.0099844,10,0.000283698,-2.69882,-0.198453,-0.2973,-23.1274,0.141799,
2,1,0,1,0,60231.4,0.149619,0.149241,1.72379,31,0.0106919,10,0.000257261,-2.76352,-0.0873078,-0.67577,-45.3279,0.149241,
2,1,0,1,0,60231.8,0.157108,0.156776,1.40282,31,0.0112803,10,0.000219929,-2.853,-0.0871298,-0.677151,-37.1087,0.156776,
2,1,0,1,0,60232.2,0.164601,0.164229,1.19334,31,0.0117679,10,0.000195982,-2.92323,-0.131409,-0.448981,-20.9316,0.164229,
2,1,0,1,0,60232.5,0.172092,0.171784,1.08014,31,0.0121966,10,0.000185551,-2.96652,-0.236608,-0.249358,-10.5349,0.171784,
2,1,0,1,0,60232.9,0.179582,0.179255,1.01976,31,0.0125941,10,0.000182797,-2.9915,-0.453076,-0.130221,-5.19645,0.179255,
2,1,0,1,0,60233.3,0.187073,0.186721,0.988107,31,0.0129748,10,0.0001845,-3.0052,-0.898413,-0.0656713,-2.52706,0.186721,
2,1,0,1,0,60233.7,0.194564,0.194215,0.966805,31,0.0133453,10,0.000187768,-3.01466,-0.935462,-0.0630705,-2.37789,0.194215,
2,1,0,1,0,60234,0.202057,0.201706,0.950811,31,0.0137091,10,0.000191784,-3.02191,-1.3177,-0.044775,-1.66003,0.201706,
2,1,0,1,0,60234.4,0.209546,0.209166,0.939571,31,0.0140682,10,0.000196527,-3.02707,-0.844275,-0.0698825,-2.56634,0.209166,
2,1,0,1,0,60234.8,0.217037,0.216711,0.929913,31,0.0144234,10,0.000201522,-3.03156,-2.20591,-0.0267463,-0.972543,0.216711,
2,1,0,1,0,60235.2,0.224528,0.224182,0.924663,31,0.014776,10,0.000207293,-3.03402,-2.8795,-0.0204896,-0.739657,0.224182,
2,1,0,1,0,60235.5,0.232019,0.231668,0.917644,31,0.0151262,10,0.000212589,-3.03733,-2.17753,-0.027095,-0.971978,0.231668,
2,1,0,1,0,60235.9,0.23951,0.239188,0.913861,31,0.0154743,10,0.000218584,-3.03912,-5.92249,-0.00996202,-0.35488,0.239188,
2,1,0,1,0,60236.3,0.247001,0.246706,0.910371,31,0.0158206,10,0.000224594,-3.04078,-1.35164,-0.0436505,-1.54864,0.246706,
2,1,0,1,0,60236.7,0.254492,0.254135,0.903412,31,0.016165,10,0.000229589,-3.04411,-2.25424,-0.0261728,-0.923123,0.2541351,
2,1,0,1,0,60237,0.261983,0.26163,0.897915,31,0.0165074,10,0.000234922,-3.04676,-1.94002,-0.0304121,-1.06576,0.26163,
2,1,0,1,0,60237.4,0.269474,0.269144,0.892079,31,0.0168479,10,0.000240098,-3.0496,-5.92762,-0.00995341,-0.347003,0.269144,
2,1,0,1,0,60237.8,0.276965,0.276613,0.886482,31,0.0171862,10,0.000245212,-3.05233,-2.53506,-0.0232736,-0.806553,0.276613,
2,1,0,1,0,60238.2,0.284456,0.28415,0.88027,31,0.0175219,10,0.000250129,-3.05538,-2.96725,-0.0198837,-0.681287,0.28415,
2,1,0,1,0,60238.5,0.291947,0.291579,0.871152,31,0.0178548,10,0.000254009,-3.05991,-1.25642,-0.0469587,-1.59831,0.291579,
2,1,0,1,0,60238.9,0.299436,0.29912,0.864983,31,0.018185,10,0.000258734,-3.06299,-0.00488172,-12.0859,-274.547,0.29912,
2,0,0,1,0,60239.2,0.293745,0.293446,-0.154971,31,0.0182258,10,-4.54757e-05,-3.80975,-0.0111598,-5.28684,27.6829,0.293446,
2,0,0,1,0,60239.6,0.286254,0.285891,-0.27332,31,0.018137,10,-7.81396e-05,-3.56333,-0.0615949,-0.957872,10.2313,0.285891,
2,0,0,1,0,60240,0.278763,0.278403,-0.340986,31,0.0180156,10,-9.49313e-05,-3.46726,-0.107225,-0.550243,7.32649,0.2784026,
2,0,0,1,0,60240.4,0.271272,0.270917,-0.393257,31,0.017873,10,-0.00010654,-3.40532,-0.15355,-0.384239,5.85329,0.270917,
2,0,0,1,0,60240.7,0.263781,0.263431,-0.431366,31,0.0177135,10,-0.000113635,-3.36515,-0.182537,-0.323223,5.447,0.263431,
2,0,0,1,0,60241.1,0.25629,0.255923,-0.470128,31,0.0175397,10,-0.000120317,-3.32778,-0.278674,-0.211717,3.85905,0.255923,
2,0,0,1,0,60241.5,0.248799,0.248475,-0.498496,31,0.0173532,10,-0.000123864,-3.30234,-0.311563,-0.189368,3.69717,0.2484753,
2,0,0,1,0,60241.9,0.241308,0.240949,-0.52807,31,0.0171554,10,-0.000127238,-3.27731,-0.338326,-0.174388,3.60349,0.240949,
2,0,0,1,0,60242.2,0.233817,0.23344,-0.556335,31,0.016947,10,-0.000129871,-3.25466,-0.367412,-0.160582,3.47893,0.23344,
2,0,0,1,0,60242.6,0.226326,0.226002,-0.583425,31,0.0167287,10,-0.000131855,-3.23401,-0.425805,-0.138561,3.14943,0.226002,
2,0,0,1,0,60243,0.218835,0.218486,-0.609222,31,0.0165006,10,-0.000133107,-3.21522,-0.3504,-0.168379,3.98943,0.218486,
2,0,0,1,0,60243.4,0.211344,0.210976,-0.632243,31,0.0162632,10,-0.000133388,-3.19912,-0.472336,-0.124911,3.07696,0.210976,
2,0,0,1,0,60243.7,0.203855,0.203483,-0.656592,31,0.0160163,10,-0.000133606,-3.1827,-0.5484,-0.107586,2.76432,0.203483,
2,0,0,1,0,60244.1,0.196362,0.196016,-0.681888,31,0.0157603,10,-0.000133661,-3.16629,-0.491315,-0.120086,3.20129,0.196016,
2,0,0,1,0,60244.5,0.188871,0.188505,-0.709962,31,0.0154941,10,-0.000133832,-3.14876,-0.326786,-0.180546,5.01078,0.188505,
2,0,0,1,0,60244.9,0.18138,0.181038,-0.741692,31,0.015217,10,-0.000134275,-3.12978,-0.311163,-0.189611,5.48724,0.181038,
2,0,0,1,0,60245.2,0.173891,0.173522,-0.774781,31,0.0149279,10,-0.000134441,-3.11082,-0.324079,-0.182054,5.50043,0.173522,
2,0,0,1,0,60245.6,0.166398,0.166049,-0.818723,31,0.0146243,10,-0.000135948,-3.08686,-0.331116,-0.178186,5.68892,0.166049,
2,0,0,1,0,60246,0.158906,0.158539,-0.872917,31,0.0143024,10,-0.000138392,-3.05903,-0.227939,-0.258841,8.84361,0.158539,
2,0,0,1,0,60246.4,0.151417,0.151065,-0.958641,31,0.0139549,10,-0.000144817,-3.01834,-0.159304,-0.370362,13.8856,0.151065,
2,0,0,1,0,60246.7,0.143926,0.143594,-1.09967,31,0.0135664,10,-0.000157907,-2.95874,-0.0979803,-0.602162,25.8587,0.143594,
2,0,0,1,0,60247.1,0.136435,0.136081,-1.32113,31,0.0131101,10,-0.000179781,-2.87905,-0.0875715,-0.673736,34.7159,0.136081,
2,0,0,1,0,60247.5,0.128942,0.128581,-1.59177,31,0.0125595,10,-0.000204671,-2.79812,-0.100917,-0.584639,36.2058,0.128581,
2,0,0,1,0,60247.9,0.121453,0.121127,-1.84055,31,0.0119098,10,-0.000222941,-2.73505,-0.143065,-0.412399,29.5437,0.121127,
2,0,0,1,0,60248.2,0.113962,0.113607,-2.019,31,0.0111784,10,-0.000229373,-2.69486,-0.267611,-0.220469,17.3654,0.113607,
2,0,0,1,0,60248.6,0.106471,0.106139,-2.10033,31,0.0103973,10,-0.000222928,-2.67771,-1.57874,-0.0373715,3.06422,0.106139,
2,0,0,1,0,60249,0.0989799,0.0986183,-2.0898,31,0.00960504,10,-0.000206092,-2.6799,0.944651,0.062457,-5.08306,0.0986183,
2,0,0,1,0,60249.4,0.0914889,0.0911253,-2.03655,31,0.00882699,10,-0.000185581,-2.69111,0.647954,0.0910559,-7.22546,0.0911253,
2,0,0,1,0,60249.7,0.083998,0.0836769,-1.98234,31,0.00806991,10,-0.000165876,-2.70282,0.630072,0.09364,-7.23829,0.0836769,
2,0,0,1,0,60250.1,0.076507,0.0761022,-1.93884,31,0.00733048,10,-0.00014755,-2.71246,0.680711,0.0866741,-6.54972,0.0761022,
2,0,0,1,0,60250.5,0.069016,0.0686696,-1.88921,31,0.00660783,10,-0.000129732,-2.72372,0.662995,0.0889901,-6.56953,0.06866958,
2,0,0,1,0,60250.9,0.0615251,0.0611836,-1.84284,31,0.00590269,10,-0.000112752,-2.73451,0.605428,0.0974518,-7.01187,0.0611836,
2,0,0,1,0,60251.2,0.0540341,0.0536971,-1.7914,31,0.00521706,10,-9.61929e-05,-2.74681,0.656186,0.0899136,-6.2735,0.0536971,
2,0,0,1,0,60251.6,0.0465432,0.0461882,-1.73307,31,0.00455129,10,-8.00471e-05,-2.76119,0.571418,0.103252,-6.99431,0.0461882,
2,0,0,1,0,60252,0.0390523,0.038722,-1.67573,31,0.00390712,10,-6.48876e-05,-2.7758,0.427116,0.138136,-9.01716,0.038722,
2,0,0,1,0,60252.4,0.0315626,0.0311868,-1.61357,31,0.00328614,10,-5.03222e-05,-2.79221,0.437381,0.134894,-8.49185,0.0311868,
2,0,0,1,0,60252.7,0.0240704,0.0237066,-1.5526,31,0.00268798,10,-3.68068e-05,-2.80894,0.473281,0.124662,-7.55998,0.02370663,
2,0,0,1,0,60253.1,0.0165785,0.0162497,-1.5013,31,0.00211066,10,-2.43957e-05,-2.82353,0.76001,0.0776306,-4.55453,0.0162497,
2,0,0,1,0,60253.5,0.00908846,0.00872739,-1.4647,31,0.00154988,10,-1.2783e-05,-2.83425,1.07405,0.0549325,-3.14085,0.00872739,
2,0,0,1,0,60253.8,0.0015984,0.00118666,-1.46193,31,0.000998882,10,-1.73483e-06,-2.83507, , , ,0.00118666,
2,0,0,1,0,60253.9,0.000199195,-0.000189865,-1.45327,31,0.000895976,10,2.75925e-07,-2.83765, , , ,-0.000189865,