File: Figure_codes/Fig_3-5/rawdata_trumpetplot_data/after 10th/20221101_1-115_003_TrumpetPlot_ParaChange_from10_every3_04_CV_C01_0.csv
mode,ox/red,error,control changes,counter inc.,time/s,control/V,Ewe/V,<I>/mA,cycle number,(Q-Qo)/C,I Range,P/W,log(|I|),Tafel slope mV/dec,alpha_eff,dI/d(E-IR),E-IR/V,
2,0,0,0,0,1060.02,2.44065e-05,-0.000268062,-0.364619,1,0.0000000E+000,10,9.77404e-08,-3.43816, , , ,-0.000268062,
2,1,0,1,0,1060.74,0.00729063,0.00698512,0.389349,1,0.000235882,10,2.71965e-06,-3.40966,0.0810042,0.728358,11.0121,0.00698512,
2,1,0,1,0,1061.49,0.0147814,0.0144904,0.446596,1,0.000566367,10,6.47135e-06,-3.35009,0.15924,0.370511,6.431,0.0144904,
2,1,0,1,0,1062.24,0.0222725,0.0219591,0.486153,1,0.000930795,10,1.06755e-05,-3.31323,0.214068,0.275613,5.21508,0.0219591,
2,1,0,1,0,1062.99,0.0297635,0.0294616,0.527317,1,0.00132408,10,1.55356e-05,-3.27793,0.221051,0.266907,5.47857,0.0294616,
2,1,0,1,0,1063.74,0.0372544,0.0369745,0.568642,1,0.00174837,10,2.10253e-05,-3.24516,0.207526,0.284301,6.326,0.0369745,
2,1,0,1,0,1064.49,0.0447458,0.0444138,0.62506,1,0.00220962,10,2.77613e-05,-3.20408,0.171451,0.344121,8.37113,0.0444138,
2,1,0,1,0,1065.24,0.0522363,0.0518785,0.684071,1,0.00271396,10,3.54885e-05,-3.1649,0.171989,0.343044,9.13931,0.0518785,
2,1,0,1,0,1065.99,0.0597282,0.0594215,0.747804,1,0.00326527,10,4.44357e-05,-3.12621,0.197824,0.298245,8.69317,0.0594215,
2,1,0,1,0,1066.74,0.0672182,0.066932,0.809228,1,0.00386307,10,5.41632e-05,-3.09193,0.253665,0.232591,7.30728,0.066932,
2,1,0,1,0,1067.48,0.0747092,0.0744005,0.861093,1,0.00450254,10,6.40657e-05,-3.06495,0.328659,0.179518,6.01145,0.0744005,
2,1,0,1,0,1068.23,0.0822001,0.0819007,0.905386,1,0.00517994,10,7.41518e-05,-3.04317,0.377011,0.156494,5.53913,0.0819007,
2,1,0,1,0,1068.98,0.0896911,0.0893787,0.954075,1,0.00589174,10,8.5274e-05,-3.02042,0.3319,0.177765,6.63721,0.0893787,
2,1,0,1,0,1069.73,0.097182,0.0968684,1.01672,1,0.0066443,10,9.84878e-05,-2.9928,0.211135,0.279442,11.0741,0.0968684,
2,1,0,1,0,1070.48,0.104673,0.104328,1.11044,1,0.00745251,10,0.000115851,-2.9545,0.175211,0.336736,14.5451,0.104328,
2,1,0,1,0,1071.23,0.112164,0.111874,1.22323,1,0.00833977,10,0.000136848,-2.91249,0.184595,0.319619,15.2271,0.111874,
2,1,0,1,0,1071.98,0.119655,0.119346,1.33677,1,0.0093149,10,0.000159537,-2.87394,0.249459,0.236512,12.3481,0.119346,
2,1,0,1,0,1072.73,0.127146,0.126852,1.43007,1,0.0103699,10,0.000181407,-2.84464,0.275222,0.214373,12.018,0.126852,
2,1,0,1,0,1073.48,0.134637,0.134311,1.50922,1,0.0114913,10,0.000202705,-2.82125,0.548662,0.107534,6.33856,0.134311,
2,1,0,1,0,1074.23,0.142127,0.141826,1.50718,1,0.0126445,10,0.000213757,-2.82183,-0.401903,-0.146802,-8.59766,0.141826,
2,1,0,1,0,1074.98,0.149619,0.149301,1.34167,1,0.0137372,10,0.000200312,-2.87236,-0.0927441,-0.636159,-33.1261,0.149301,
2,1,0,1,0,1075.72,0.157109,0.156796,1.06671,1,0.0146541,10,0.000167257,-2.97195,-0.0684668,-0.861731,-35.8787,0.156796,
2,1,0,1,0,1076.47,0.164601,0.164307,0.852763,1,0.0153821,10,0.000140115,-3.06917,-0.0884696,-0.666896,-22.2374,0.164307,
2,1,0,1,0,1077.22,0.172091,0.171771,0.720003,1,0.0159833,10,0.000123676,-3.14267,-0.135074,-0.436796,-12.3847,0.171771,
2,1,0,1,0,1077.97,0.179582,0.179266,0.652151,1,0.0165114,10,0.000116909,-3.18565,-0.204122,-0.289043,-7.36881,0.179266,
2,1,0,1,0,1078.72,0.187074,0.186766,0.609656,1,0.016997,10,0.000113863,-3.21492,-0.315242,-0.187158,-4.43613,0.186766,
2,1,0,1,0,1079.47,0.194564,0.194245,0.581811,1,0.0174563,10,0.000113014,-3.23522,-0.473514,-0.1246,-2.82189,0.194245,
2,1,0,1,0,1080.22,0.202056,0.201764,0.561362,1,0.017898,10,0.000113263,-3.25076,-0.543994,-0.108457,-2.36812,0.201764,
2,1,0,1,0,1080.97,0.209546,0.209247,0.547188,1,0.0183276,10,0.000114498,-3.26186,-0.748799,-0.0787929,-1.68289,0.209247,
2,1,0,1,0,1081.72,0.217038,0.216706,0.536493,1,0.0187471,10,0.000116261,-3.27044,-1.14183,-0.0516714,-1.08367,0.216706,
2,1,0,1,0,1082.47,0.224528,0.224252,0.52882,1,0.0191595,10,0.000118589,-3.27669,-1.33565,-0.0441734,-0.908279,0.224252,
2,1,0,1,0,1083.22,0.232019,0.231724,0.519064,1,0.0195654,10,0.00012028,-3.28478,-2.14938,-0.0274497,-0.556423,0.231724,
2,1,0,1,0,1083.96,0.23951,0.239212,0.513749,1,0.0199661,10,0.000122895,-3.28925,-2.86588,-0.0205871,-0.411949,0.239212,
2,1,0,1,0,1084.71,0.247001,0.246689,0.507018,1,0.0203623,10,0.000125076,-3.29498,-0.702619,-0.0839715,-1.66244,0.246689,
2,1,0,1,0,1085.46,0.254492,0.254206,0.501082,1,0.0207545,10,0.000127378,-3.30009,-1.07955,-0.0546523,-1.06903,0.254206,
2,1,0,1,0,1086.21,0.261983,0.261711,0.497993,1,0.0211423,10,0.00013033,-3.30278,-0.846194,-0.069724,-1.34785,0.261711,
2,1,0,1,0,1086.96,0.269474,0.269206,0.491391,1,0.0215267,10,0.000132285,-3.30857,-16.1915,-0.00364389,-0.0696583,0.2692056,
2,1,0,1,0,1087.71,0.276965,0.276703,0.485985,1,0.0219076,10,0.000134473,-3.31338,-1.89225,-0.0311798,-0.594056,0.276703,
2,1,0,1,0,1088.46,0.284456,0.284165,0.482354,1,0.0222853,10,0.000137068,-3.31663,-4.82646,-0.0122243,-0.230085,0.284165,
2,1,0,1,0,1089.21,0.291947,0.291631,0.476503,1,0.0226596,10,0.000138963,-3.32193,-1.90921,-0.0309028,-0.575847,0.291631,
2,1,0,1,0,1089.96,0.299437,0.299123,0.471825,1,0.0230307,10,0.000141134,-3.32622,-0.00124941,-47.2222,-246.071,0.299123,
2,0,0,1,0,1090.64,0.293745,0.293418,-0.0928364,1,0.0230246,10,-2.72399e-05,-4.03228,-0.0223391,-2.64111,9.14017,0.293418,
2,0,0,1,0,1091.39,0.286253,0.28591,-0.141019,1,0.02292,10,-4.03186e-05,-3.85072,-0.070086,-0.841823,4.72358,0.28591,
2,0,0,1,0,1092.14,0.278763,0.278487,-0.175064,1,0.0227854,10,-4.87532e-05,-3.7568,-0.113122,-0.521561,3.56887,0.278487,
2,0,0,1,0,1092.89,0.271272,0.27093,-0.201574,1,0.0226291,10,-5.46125e-05,-3.69556,-0.13535,-0.435907,3.39333,0.27093,
2,0,0,1,0,1093.64,0.263781,0.263461,-0.223311,1,0.0224546,10,-5.88339e-05,-3.65109,-0.170014,-0.34703,3.02937,0.263461,
2,0,0,1,0,1094.39,0.25629,0.255969,-0.243393,1,0.0222646,10,-6.23011e-05,-3.61369,-0.280884,-0.210051,1.98652,0.255969,
2,0,0,1,0,1095.14,0.248799,0.248447,-0.261565,1,0.0220611,10,-6.49849e-05,-3.58242,-0.255398,-0.231012,2.34748,0.248447,
2,0,0,1,0,1095.89,0.241308,0.241052,-0.277839,1,0.0218446,10,-6.69737e-05,-3.55621,-0.332487,-0.17745,1.92455,0.241052,
2,0,0,1,0,1096.64,0.233817,0.2335,-0.29523,1,0.0216157,10,-6.89361e-05,-3.52984,-0.24304,-0.242758,2.78057,0.2334996,
2,0,0,1,0,1097.38,0.226326,0.226033,-0.307765,1,0.0213741,10,-6.95652e-05,-3.51178,-0.377609,-0.156246,1.90027,0.226033,
2,0,0,1,0,1098.13,0.218835,0.218492,-0.328286,1,0.0211201,10,-7.17278e-05,-3.48375,-0.320488,-0.184094,2.36052,0.218492,
2,0,0,1,0,1098.88,0.211344,0.211025,-0.345376,1,0.0208527,10,-7.28832e-05,-3.46171,-0.391886,-0.150554,2.03732,0.211025,
2,0,0,1,0,1099.63,0.203854,0.203519,-0.365074,1,0.0205709,10,-7.42993e-05,-3.43762,-0.255528,-0.230895,3.30964,0.203519,
2,0,0,1,0,1100.38,0.196362,0.196081,-0.38961,1,0.0202737,10,-7.63951e-05,-3.40937,-0.27996,-0.210744,3.19384,0.196081,
2,0,0,1,0,1101.13,0.188872,0.188548,-0.415906,1,0.0199573,10,-7.84181e-05,-3.381,-0.200965,-0.293583,4.76888,0.188548,
2,0,0,1,0,1101.88,0.18138,0.181044,-0.454259,1,0.019617,10,-8.2241e-05,-3.3427,-0.179124,-0.329381,5.82639,0.181044,
2,0,0,1,0,1102.63,0.17389,0.173551,-0.505931,1,0.0192441,10,-8.78046e-05,-3.29591,-0.131197,-0.449705,8.87096,0.173551,
2,0,0,1,0,1103.38,0.166398,0.166092,-0.581224,1,0.0188238,10,-9.65364e-05,-3.23566,-0.114834,-0.513785,11.7553,0.166092,
2,0,0,1,0,1104.13,0.158907,0.158598,-0.705265,1,0.0183291,10,-0.000111853,-3.15165,-0.0745891,-0.791,21.8991,0.1585976,
2,0,0,1,0,1104.88,0.151417,0.151106,-0.907143,1,0.0177138,10,-0.000137075,-3.04232,-0.0646571,-0.912506,32.3653,0.151106,
2,0,0,1,0,1105.62,0.143925,0.143627,-1.1703,1,0.0169223,10,-0.000168087,-2.9317,-0.0687418,-0.858284,39.1049,0.1436272,
2,0,0,1,0,1106.37,0.136435,0.136109,-1.40913,1,0.0159346,10,-0.000191795,-2.85105,-0.129077,-0.457091,25.0042,0.1361087,
2,0,0,1,0,1107.12,0.128943,0.128618,-1.53157,1,0.0148105,10,-0.000196988,-2.81486,-0.510933,-0.115475,6.86399,0.128618,
2,0,0,1,0,1107.87,0.121453,0.121129,-1.53213,1,0.0136432,10,-0.000185586,-2.81471,0.63378,0.0930922,-5.55228,0.121129,
2,0,0,1,0,1108.62,0.113962,0.113638,-1.45693,1,0.0125047,10,-0.000165562,-2.83656,0.269314,0.219075,-12.4919,0.113638,
2,0,0,1,0,1109.37,0.106471,0.106147,-1.36336,1,0.0114304,10,-0.000144716,-2.86539,0.224835,0.262415,-14.0032,0.1061469,
2,0,0,1,0,1110.12,0.0989798,0.0987039,-1.26152,1,0.0104331,10,-0.000124517,-2.8991,0.258041,0.228646,-11.2353,0.0987039,
2,0,0,1,0,1110.87,0.0914889,0.0911772,-1.18138,1,0.00950634,10,-0.000107714,-2.92761,0.299361,0.197087,-9.05929,0.0911772,
2,0,0,1,0,1111.62,0.083998,0.0836727,-1.11934,1,0.00863282,10,-9.36586e-05,-2.95104,0.300326,0.196453,-8.57512,0.0836727,
2,0,0,1,0,1112.37,0.076507,0.0761607,-1.07364,1,0.00779719,10,-8.17696e-05,-2.96914,0.402202,0.146693,-6.15037,0.0761607,
2,0,0,1,0,1113.12,0.069016,0.0686944,-1.02665,1,0.00699488,10,-7.0525e-05,-2.98858,0.385489,0.153052,-6.1572,0.0686944,
2,0,0,1,0,1113.86,0.0615251,0.0612101,-0.982427,1,0.00622546,10,-6.01344e-05,-3.0077,0.335226,0.176001,-6.76444,0.0612101,
2,0,0,1,0,1114.61,0.0540341,0.0537236,-0.930823,1,0.00549421,10,-5.00072e-05,-3.03113,0.306667,0.192391,-6.96166,0.0537236,
2,0,0,1,0,1115.36,0.0465441,0.0462273,-0.872132,1,0.00480406,10,-4.03163e-05,-3.05942,0.308018,0.191547,-6.54899,0.04622728,
2,0,0,1,0,1116.11,0.0390523,0.0387443,-0.824376,1,0.00415329,10,-3.19399e-05,-3.08387,0.274278,0.21511,-6.90712,0.0387443,
2,0,0,1,0,1116.86,0.0315618,0.0312455,-0.786875,1,0.00353591,10,-2.45863e-05,-3.10409,0.480485,0.122793,-3.77411,0.0312455,
2,0,0,1,0,1117.61,0.0240704,0.0237798,-0.760293,1,0.00294181,10,-1.80796e-05,-3.11902,0.725743,0.081296,-2.42018,0.0237798,
2,0,0,1,0,1118.36,0.0165796,0.0162481,-0.752889,1,0.00236026,10,-1.2233e-05,-3.12327,-21.7994,-0.00270649,0.0796122,0.0162481,
2,0,0,1,0,1119.11,0.00908845,0.00877084,-0.753679,1,0.00178158,10,-6.6104e-06,-3.12281,-1.21041,-0.0487438,1.43415,0.008770843,
2,0,0,1,0,1119.86,0.00159728,0.001253,-0.77387,1,0.00119692,10,-9.69661e-07,-3.11133, , , ,0.001253,
2,0,0,1,0,1120,0.000199195,-0.000159264,-0.767392,1,0.00108653,10,1.22218e-07,-3.11498, , , ,-0.000159264,