File: Figure_codes/Fig_3-5/rawdata_trumpetplot_data/after 10th/20221101_1-115_003_TrumpetPlot_ParaChange_from10_every3_10_CV_C01_9.csv
mode,ox/red,error,control changes,counter inc.,time/s,control/V,Ewe/V,<I>/mA,cycle number,(Q-Qo)/C,I Range,P/W,log(|I|),Tafel slope mV/dec,alpha_eff,dI/d(E-IR),E-IR/V,
2,1,0,0,0,18921.7,-2.44065e-05,-0.000478022,5.29606,10,0.0000000E+000,10,-2.53164e-06,-2.27605, , , ,-0.000478022,
2,1,0,1,0,18921.7,0.00977853,0.00947168,8.19286,10,0.000344134,10,7.76001e-05,-2.08656,0.112994,0.522153,166.078,0.00947168,
2,1,0,1,0,18921.8,0.0197755,0.0193953,9.38345,10,0.000786744,10,0.000181995,-2.02764,0.240997,0.244816,89.7177,0.0193953,
2,1,0,1,0,18921.8,0.0297726,0.029463,10.1806,10,0.00127674,10,0.000299951,-1.99223,0.340106,0.173475,68.8049,0.029463,
2,1,0,1,0,18921.9,0.0397514,0.0394256,10.8538,10,0.00180168,10,0.000427916,-1.96442,0.34625,0.170397,72.2615,0.0394256,
2,1,0,1,0,18921.9,0.0497393,0.0494188,11.5763,10,0.00236116,10,0.000572087,-1.93643,0.371467,0.15883,71.6429,0.0494188,
2,1,0,1,0,18922,0.0597364,0.0593737,12.3057,10,0.00295785,10,0.000730634,-1.90989,0.370116,0.159409,76.5351,0.0593737,
2,1,0,1,0,18922,0.0697152,0.0693943,13.0482,10,0.00359066,10,0.000905473,-1.88445,0.428283,0.137759,70.1413,0.0693943,
2,1,0,1,0,18922.1,0.0796941,0.0793807,13.7838,10,0.00426025,10,0.00109417,-1.86063,0.456761,0.12917,69.5169,0.0793807,
2,1,0,1,0,18922.1,0.0896911,0.0893877,14.4612,10,0.00496684,10,0.00129265,-1.8398,0.508195,0.116097,65.5125,0.0893877,
2,1,0,1,0,18922.2,0.099679,0.0993892,15.1129,10,0.00570466,10,0.00150205,-1.82065,0.53593,0.110089,64.9025,0.09938921,
2,1,0,1,0,18922.2,0.109658,0.109342,15.8477,10,0.00647598,10,0.00173282,-1.80003,0.43352,0.136095,84.1514,0.109342,
2,1,0,1,0,18922.3,0.119655,0.119327,16.8412,10,0.0072922,10,0.00200961,-1.77363,0.355418,0.166002,109.185,0.119327,
2,1,0,1,0,18922.3,0.129652,0.129317,18.0175,10,0.00816382,10,0.00232997,-1.74431,0.352807,0.16723,117.596,0.129317,
2,1,0,1,0,18922.4,0.139631,0.139293,19.0971,10,0.00909116,10,0.00266008,-1.71903,0.454661,0.129767,96.7365,0.139293,
2,1,0,1,0,18922.4,0.149619,0.149258,19.9381,10,0.0100664,10,0.00297591,-1.70032,0.683233,0.0863541,67.1212,0.149258,
2,1,0,1,0,18922.5,0.159616,0.159267,20.2247,10,0.0110742,10,0.00322112,-1.69412,-1.72747,-0.0341541,-26.9362,0.159267,
2,1,0,1,0,18922.5,0.169595,0.169269,19.1644,10,0.0120642,10,0.00324393,-1.7175,-0.219976,-0.268211,-200.078,0.169269,
2,1,0,1,0,18922.6,0.179573,0.179282,16.4261,10,0.0129565,10,0.0029449,-1.78447,-0.121356,-0.486174,-311.675,0.179282,
2,1,0,1,0,18922.6,0.18957,0.189272,13.535,10,0.0137023,10,0.0025618,-1.86854,-0.124737,-0.472993,-249.96,0.189272,
2,1,0,1,0,18922.7,0.199558,0.199203,11.5597,10,0.014324,10,0.00230274,-1.93705,-0.182981,-0.322438,-145.59,0.199203,
2,1,0,1,0,18922.7,0.209537,0.209278,10.3811,10,0.0148686,10,0.00217253,-1.98376,-0.243396,-0.242403,-98.1652,0.209278,
2,1,0,1,0,18922.8,0.219534,0.219222,9.60794,10,0.0153668,10,0.00210627,-2.01737,-0.356255,-0.165612,-62.1386,0.219222,
2,1,0,1,0,18922.8,0.229531,0.229232,9.08294,10,0.0158336,10,0.0020821,-2.04177,-0.453393,-0.13013,-46.1419,0.229232,
2,1,0,1,0,18922.9,0.23951,0.239198,8.70906,10,0.0162772,10,0.00208319,-2.06003,-0.644792,-0.0915024,-31.133,0.239198,
2,1,0,1,0,18922.9,0.249498,0.249166,8.42667,10,0.0167045,10,0.00209964,-2.07434,-0.767497,-0.0768732,-25.2687,0.249166,
2,1,0,1,0,18923,0.259495,0.259204,8.19753,10,0.0171198,10,0.00212483,-2.08632,-0.779745,-0.0756657,-24.2117,0.259204,
2,1,0,1,0,18923,0.269474,0.269142,8.00548,10,0.0175238,10,0.00215461,-2.09661,-1.34155,-0.0439791,-13.7444,0.269142,
2,1,0,1,0,18923.1,0.279453,0.279177,7.84025,10,0.0179193,10,0.00218882,-2.10567,-1.20327,-0.0490331,-15.0227,0.279177,
2,1,0,1,0,18923.1,0.28945,0.289156,7.69875,10,0.0183078,10,0.00222614,-2.11358,-1.39807,-0.0422009,-12.668,0.289156,
2,1,0,1,0,18923.2,0.299438,0.299128,7.56462,10,0.0186885,10,0.00226279,-2.12121,-0.0584425,-1.00954,-285.945,0.299128,
2,1,0,1,0,18923.2,0.291747,0.29141,0.004655,10,0.0188218,10,1.35651e-06,-5.33208,0.0316635,1.86335,400.083,0.29141,
2,0,0,1,0,18923.3,0.28175,0.281417,-2.26845,10,0.0187544,10,-0.00063838,-2.64427,-0.0391489,-1.50707,131.745,0.281417,
2,0,0,1,0,18923.3,0.27178,0.271434,-3.22173,10,0.0186151,10,-0.000874487,-2.49191,-0.102668,-0.574671,71.9284,0.2714338,
2,0,0,1,0,18923.4,0.261783,0.261469,-3.80189,10,0.0184386,10,-0.000994076,-2.42,-0.181028,-0.325917,48.3221,0.261469,
2,0,0,1,0,18923.4,0.251786,0.251449,-4.23536,10,0.0182371,10,-0.00106498,-2.37311,-0.24692,-0.238944,39.4358,0.251449,
2,0,0,1,0,18923.5,0.241807,0.241481,-4.5815,10,0.0180167,10,-0.00110634,-2.33899,-0.308372,-0.191327,34.297,0.241481,
2,0,0,1,0,18923.5,0.231824,0.231513,-4.90019,10,0.0177799,10,-0.00113446,-2.30979,-0.36405,-0.162066,30.9258,0.2315127,
2,0,0,1,0,18923.6,0.221822,0.221509,-5.17296,10,0.017528,10,-0.00114586,-2.28626,-0.42607,-0.138475,27.9383,0.221509,
2,0,0,1,0,18923.6,0.211844,0.21154,-5.44626,10,0.017263,10,-0.0011521,-2.2639,-0.519065,-0.113666,24.1337,0.21154,
2,0,0,1,0,18923.7,0.201865,0.201554,-5.70467,10,0.0169846,10,-0.0011498,-2.24377,-0.508444,-0.11604,25.8868,0.2015543,
2,0,0,1,0,18923.7,0.191868,0.191536,-5.99382,10,0.0166921,10,-0.00114803,-2.2223,-0.459878,-0.128295,30.0062,0.191536,
2,0,0,1,0,18923.8,0.18188,0.181564,-6.30655,10,0.0163855,10,-0.00114504,-2.20021,-0.377786,-0.156173,38.453,0.181564,
2,0,0,1,0,18923.8,0.171901,0.171564,-6.69119,10,0.0160616,10,-0.00114797,-2.1745,-0.354409,-0.166475,43.4166,0.171564,
2,0,0,1,0,18923.9,0.161904,0.161581,-7.2012,10,0.015715,10,-0.00116358,-2.1426,-0.273358,-0.215834,60.7362,0.161581,
2,0,0,1,0,18923.9,0.151907,0.151575,-7.97223,10,0.0153368,10,-0.00120839,-2.09842,-0.189547,-0.311268,96.9972,0.151575,
2,0,0,1,0,18924,0.141928,0.141633,-9.2326,10,0.0149099,10,-0.00130764,-2.03468,-0.133337,-0.442489,159.702,0.141633,
2,0,0,1,0,18924,0.13194,0.131629,-11.1933,10,0.014403,10,-0.00147336,-1.95104,-0.11362,-0.519273,226.707,0.131629,
2,0,0,1,0,18924.1,0.121943,0.121652,-13.5683,10,0.0137842,10,-0.00165061,-1.86748,-0.134912,-0.437321,231.378,0.121652,
2,0,0,1,0,18924.1,0.111964,0.111643,-15.8112,10,0.0130497,10,-0.00176521,-1.80104,-0.17774,-0.331946,204.59,0.111643,
2,0,0,1,0,18924.2,0.101985,0.101649,-17.5493,10,0.0122146,10,-0.00178386,-1.75574,-0.282679,-0.208717,142.883,0.101649,
2,0,0,1,0,18924.2,0.0919883,0.091666,-18.7004,10,0.0113055,10,-0.00171419,-1.72815,-0.516618,-0.114204,83.277,0.091666,
2,0,0,1,0,18924.3,0.0820004,0.0816603,-19.0858,10,0.010359,10,-0.00155855,-1.71929,40.4632,0.00145812,-1.08532,0.0816603,
2,0,0,1,0,18924.3,0.0720215,0.0716972,-18.7446,10,0.00941291,10,-0.00134394,-1.72712,0.709368,0.0831726,-60.8054,0.07169719,
2,0,0,1,0,18924.4,0.0620245,0.0617223,-18.0558,10,0.00849266,10,-0.00111445,-1.74338,0.612973,0.0962522,-67.8884,0.0617223,
2,0,0,1,0,18924.4,0.0520275,0.0516625,-17.4741,10,0.00760495,10,-0.000902755,-1.7576,0.741634,0.0795541,-54.2062,0.0516625,
2,0,0,1,0,18924.5,0.0420486,0.041724,-16.9533,10,0.00674627,10,-0.000707359,-1.77075,0.816155,0.0722902,-47.8637,0.041724,
2,0,0,1,0,18924.5,0.0320607,0.0317136,-16.4706,10,0.00591242,10,-0.000522341,-1.78329,0.744878,0.0792076,-50.8637,0.0317136,
2,0,0,1,0,18924.6,0.0220637,0.0217457,-15.887,10,0.0051033,10,-0.000345475,-1.79896,0.56424,0.104565,-64.8341,0.0217457,
2,0,0,1,0,18924.6,0.0120848,0.0117768,-15.1717,10,0.004328,10,-0.000178674,-1.81897,0.434819,0.135689,-80.2932,0.0117768,
2,0,0,1,0,18924.7,0.00210598,0.00173611,-14.404,10,0.00359145,10,-2.50069e-05,-1.84152,0.475804,0.124001,-69.5461,0.00173611,
2,0,0,1,0,18924.7,-0.00789103,-0.00825437,-13.6405,10,0.00289132,10,0.000112594,-1.86517,0.508,0.116142,-61.8595,-0.00825437,
2,0,0,1,0,18924.8,-0.017879,-0.018265,-13.1498,10,0.00222381,10,0.000240181,-1.88108,0.859119,0.068675,-35.25,-0.018265,
2,0,0,1,0,18924.8,-0.0278578,-0.0282648,-12.8913,10,0.00157511,10,0.000364369,-1.8897,1.75708,0.0335784,-16.8979,-0.0282648,
2,0,0,1,0,18924.9,-0.0378549,-0.0382484,-12.8435,10,0.000932455,10,0.000491244,-1.89132,-23.7648,-0.00248267,1.24456,-0.0382484,
2,0,0,1,0,18924.9,-0.0478519,-0.0482172,-12.9489,10,0.000288098,10,0.000624361,-1.88777,-1.35126,-0.043663,22.0754,-0.0482172,
2,0,0,1,0,18925,-0.0578126,-0.0581894,-13.1781,10,-0.00036236,10,0.000766829,-1.88015,-1.07873,-0.0546939,28.1424,-0.0581894,
2,0,0,1,0,18925,-0.0678187,-0.0681929,-13.5146,10,-0.00102942,10,0.000921599,-1.8692,-0.761084,-0.0775211,40.8827,-0.0681929,
2,0,0,1,0,18925.1,-0.0778157,-0.0782146,-13.9436,10,-0.00171563,10,0.00109059,-1.85563,-0.695522,-0.0848283,46.1922,-0.0782146,
2,0,0,1,0,18925.1,-0.0877945,-0.0881875,-14.4925,10,-0.00242454,10,0.00127805,-1.83886,-0.543983,-0.108459,61.3065,-0.0881875,
2,0,0,1,0,18925.2,-0.0977734,-0.0981748,-15.1113,10,-0.00316312,10,0.00148355,-1.8207,-0.488261,-0.120837,71.3511,-0.0981748,
2,0,0,1,1,18925.2,-0.0936874,-0.0940576,-6.51718,10,-0.00365342,10,0.000612991,-2.18594,-0.0158006,-3.73403,946.457,-0.0940576,
2,1,0,1,1,18925.3,-0.0837086,-0.0841256,0.183206,10,-0.00379241,10,-1.54124e-05,-3.73706,0.029637,1.99075,496.734,-0.0841256,
2,1,0,1,1,18925.3,-0.0737025,-0.0741265,4.04038,10,-0.00367843,10,-0.000299499,-2.39358,0.0301255,1.95847,302.903,-0.0741265,
2,1,0,1,1,18925.4,-0.0637236,-0.0640985,6.43571,10,-0.00341238,10,-0.000412519,-2.1914,0.0784763,0.751819,188.446,-0.0640985,
2,1,0,1,1,18925.4,-0.0537448,-0.0540952,7.977,10,-0.00304956,10,-0.000431517,-2.09816,0.148047,0.398522,123.795,-0.05409519,
2,1,0,1,1,18925.5,-0.0437477,-0.0441212,8.95273,10,-0.00262407,10,-0.000395005,-2.04804,0.272575,0.216455,75.6328,-0.0441212,
2,1,0,1,1,18925.5,-0.0337507,-0.0341368,9.56465,10,-0.00215963,10,-0.000326506,-2.01933,0.482146,0.122369,45.6324,-0.0341368,
2,1,0,1,1,18925.6,-0.0237809,-0.0241402,9.90634,10,-0.00167389,10,-0.000239141,-2.00409,0.85489,0.0690147,26.6744,-0.0241402,
2,1,0,1,1,18925.6,-0.0137839,-0.014174,10.094,10,-0.0011734,10,-0.000143073,-1.99593,2.8713,0.0205482,8.08934,-0.014174,
2,1,0,1,1,18925.7,-0.0037869,-0.00418443,10.1746,10,-0.000666509,10,-4.2575e-05,-1.99248,2.87197,0.0205434,8.15931,-0.00418443,
2,1,0,1,1,18925.7,-2.55332e-05,-0.000401673,10.1712,10,-0.000476029,10,-4.08551e-06,-1.99263, , , ,-0.000401673,