File: Figure_codes/Fig_3-5/rawdata_trumpetplot_data/after 10th/20221101_1-115_003_TrumpetPlot_ParaChange_from10_every3_04_CV_C01_19.csv
mode,ox/red,error,control changes,counter inc.,time/s,control/V,Ewe/V,<I>/mA,cycle number,(Q-Qo)/C,I Range,P/W,log(|I|),Tafel slope mV/dec,alpha_eff,dI/d(E-IR),E-IR/V,
2,0,0,1,0,38492.5,2.44065e-05,-0.000439847,-0.392605,20,0.0000000E+000,10,1.72686e-07,-3.40604, , , ,-0.000439847,
2,1,0,1,0,38493.2,0.00729063,0.00696497,0.357998,20,0.000183152,10,2.49345e-06,-3.44612,0.0603303,0.97795,13.4908,0.00696497,
2,1,0,1,0,38494,0.0147814,0.0144394,0.431327,20,0.000493093,10,6.22812e-06,-3.36519,0.124176,0.475131,7.98759,0.0144394,
2,1,0,1,0,38494.7,0.0222725,0.0219411,0.486073,20,0.000848671,10,1.0665e-05,-3.3133,0.149239,0.39534,7.49441,0.0219411,
2,1,0,1,0,38495.5,0.0297635,0.0294544,0.537695,20,0.00124373,10,1.58375e-05,-3.26946,0.184609,0.319594,6.6984,0.0294544,
2,1,0,1,0,38496.2,0.0372544,0.0369777,0.587102,20,0.0016768,10,2.17097e-05,-3.23129,0.197772,0.298323,6.86265,0.0369777,
2,1,0,1,0,38497,0.0447458,0.0444309,0.637916,20,0.00214832,10,2.83432e-05,-3.19524,0.201335,0.293043,7.29748,0.0444309,
2,1,0,1,0,38497.7,0.0522363,0.0518615,0.685045,20,0.00265661,10,3.55275e-05,-3.16428,0.237759,0.24815,6.63286,0.0518615,
2,1,0,1,0,38498.5,0.0597282,0.0593832,0.72878,20,0.00319779,10,4.32773e-05,-3.1374,0.314526,0.187584,5.31759,0.0593832,
2,1,0,1,0,38499.2,0.0672182,0.0668758,0.766354,20,0.00376899,10,5.12506e-05,-3.11557,0.398588,0.148023,4.41214,0.0668758,
2,1,0,1,0,38500,0.0747092,0.074358,0.795358,20,0.00436614,10,5.91413e-05,-3.09944,0.539133,0.109435,3.40176,0.074358,
2,1,0,1,0,38500.7,0.0822001,0.0818488,0.822587,20,0.00498488,10,6.73277e-05,-3.08482,0.58123,0.101509,3.26383,0.0818488,
2,1,0,1,0,38501.5,0.0896911,0.0893596,0.858349,20,0.00562573,10,7.67017e-05,-3.06634,0.339755,0.173655,5.83227,0.0893596,
2,1,0,1,0,38502.2,0.097182,0.0968503,0.912798,20,0.0063009,10,8.84047e-05,-3.03963,0.21079,0.279899,9.99228,0.0968503,
2,1,0,1,0,38503,0.104673,0.104327,0.998403,20,0.00702752,10,0.000104161,-3.00069,0.194615,0.303162,11.7712,0.104327,
2,1,0,1,0,38503.7,0.112164,0.111847,1.07578,20,0.00781651,10,0.000120322,-2.96828,0.299034,0.197302,8.26828,0.1118466,
2,1,0,1,0,38504.5,0.119655,0.119326,1.12996,20,0.00865539,10,0.000134834,-2.94694,0.585205,0.100819,4.44195,0.119326,
2,1,0,1,0,38505.2,0.127146,0.126813,1.15914,20,0.00952663,10,0.000146994,-2.93587,0.723768,0.0815179,3.69607,0.126813,
2,1,0,1,0,38506,0.134637,0.13432,1.17015,20,0.0104164,10,0.000157174,-2.93176,-0.583591,-0.101098,-4.61426,0.13432,
2,1,0,1,0,38506.7,0.142127,0.141825,1.07803,20,0.0112795,10,0.000152892,-2.96737,-0.125301,-0.470865,-19.6813,0.141825,
2,1,0,1,0,38507.5,0.149619,0.149261,0.875222,20,0.0120265,10,0.000130636,-3.05788,-0.0705846,-0.835876,-28.5632,0.149261,
2,1,0,1,0,38508.2,0.157109,0.156805,0.704082,20,0.0126243,10,0.000110404,-3.15238,-0.097593,-0.604552,-16.6898,0.156805,
2,1,0,1,0,38509,0.164601,0.164258,0.621748,20,0.0131293,10,0.000102127,-3.20639,-0.180841,-0.326253,-7.92502,0.164258,
2,1,0,1,0,38509.7,0.172091,0.171766,0.578071,20,0.0135895,10,9.92928e-05,-3.23802,-0.358979,-0.164355,-3.72767,0.171766,
2,1,0,1,0,38510.4,0.179582,0.179251,0.557674,20,0.0140267,10,9.99638e-05,-3.25362,-0.504863,-0.116863,-2.55151,0.179251,
2,1,0,1,0,38511.2,0.187074,0.186756,0.544729,20,0.0144506,10,0.000101731,-3.26382,-1.14127,-0.051697,-1.09844,0.186756,
2,1,0,1,0,38511.9,0.194564,0.194209,0.536476,20,0.0148662,10,0.000104189,-3.27045,-0.961408,-0.0613683,-1.28162,0.194209,
2,1,0,1,0,38512.7,0.202056,0.201776,0.528011,20,0.0152755,10,0.00010654,-3.27736,-1.24399,-0.0474279,-0.976221,0.201776,
2,1,0,1,0,38513.4,0.209546,0.209206,0.522942,20,0.0156804,10,0.000109403,-3.28155,-1.01588,-0.0580775,-1.18413,0.209206,
2,1,0,1,0,38514.2,0.217038,0.21673,0.515961,20,0.0160809,10,0.000111824,-3.28738,-5.77722,-0.0102125,-0.206747,0.21673,
2,1,0,1,0,38514.9,0.224528,0.22423,0.513455,20,0.0164784,10,0.000115132,-3.2895,-2.6358,-0.0223841,-0.448405,0.22423,
2,1,0,1,0,38515.7,0.232019,0.231709,0.509803,20,0.0168727,10,0.000118126,-3.2926,-6.10688,-0.00966123,-0.192129,0.231709,
2,1,0,1,0,38516.4,0.23951,0.23918,0.506191,20,0.0172645,10,0.000121071,-3.29569,14.3406,0.00411419,0.0812878,0.23918,
2,1,0,1,0,38517.2,0.247001,0.246719,0.502822,20,0.0176535,10,0.000124056,-3.29859,-1.52171,-0.0387721,-0.759409,0.246719,
2,1,0,1,0,38517.9,0.254492,0.254157,0.498947,20,0.0180398,10,0.000126811,-3.30195,-1.22449,-0.0481832,-0.940012,0.254157,
2,1,0,1,0,38518.7,0.261983,0.261634,0.495104,20,0.0184233,10,0.000129536,-3.3053,-1.62264,-0.0363606,-0.702426,0.261634,
2,1,0,1,0,38519.4,0.269474,0.269146,0.492357,20,0.0188043,10,0.000132516,-3.30772,-15.0635,-0.00391675,-0.0751658,0.2691462,
2,1,0,1,0,38520.2,0.276965,0.276668,0.487325,20,0.0191824,10,0.000134827,-3.31218,-1.83521,-0.032149,-0.612581,0.276668,
2,1,0,1,0,38520.9,0.284456,0.284141,0.484957,20,0.0195573,10,0.000137796,-3.3143,-1.65492,-0.0356513,-0.671581,0.284141,
2,1,0,1,0,38521.7,0.291947,0.291594,0.479954,20,0.0199291,10,0.000139952,-3.3188,-1.49913,-0.0393562,-0.736602,0.291594,
2,1,0,1,0,38522.4,0.299437,0.299127,0.474596,20,0.0202979,10,0.000141965,-3.32368,-0.00262998,-22.4336,-207.46,0.299127,
2,0,0,1,0,38523.1,0.293745,0.293406,-0.0753249,20,0.0203179,10,-2.21008e-05,-4.12306,-0.015568,-3.78982,10.4978,0.293406,
2,0,0,1,0,38523.9,0.286253,0.285933,-0.130985,20,0.0202274,10,-3.74529e-05,-3.88278,-0.0526784,-1.12,5.72067,0.285933,
2,0,0,1,0,38524.6,0.278763,0.278428,-0.167644,20,0.0201038,10,-4.66767e-05,-3.77561,-0.0973584,-0.606009,3.92753,0.278428,
2,0,0,1,0,38525.4,0.271272,0.270942,-0.194993,20,0.0199568,10,-5.28317e-05,-3.70998,-0.13577,-0.434557,3.28858,0.2709415,
2,0,0,1,0,38526.1,0.263781,0.26346,-0.218029,20,0.0197902,10,-5.74419e-05,-3.66149,-0.151523,-0.389379,3.32453,0.26346,
2,0,0,1,0,38526.9,0.25629,0.255957,-0.239147,20,0.0196072,10,-6.12114e-05,-3.62133,-0.319531,-0.184645,1.71971,0.255957,
2,0,0,1,0,38527.6,0.248799,0.248474,-0.25657,20,0.0194098,10,-6.3751e-05,-3.59079,-0.250191,-0.23582,2.37115,0.248474,
2,0,0,1,0,38528.4,0.241308,0.240997,-0.273302,20,0.0191996,10,-6.58648e-05,-3.56336,-0.369011,-0.159887,1.71183,0.240997,
2,0,0,1,0,38529.1,0.233817,0.233464,-0.288487,20,0.0189775,10,-6.73512e-05,-3.53987,-0.280615,-0.210253,2.36909,0.233464,
2,0,0,1,0,38529.9,0.226326,0.226,-0.304517,20,0.0187438,10,-6.8821e-05,-3.51639,-0.348071,-0.169506,2.0122,0.226,
2,0,0,1,0,38530.6,0.218835,0.218531,-0.318525,20,0.0184988,10,-6.96075e-05,-3.49686,-0.338537,-0.174279,2.16531,0.218531,
2,0,0,1,0,38531.4,0.211344,0.211037,-0.332977,20,0.018243,10,-7.02704e-05,-3.47759,-0.435213,-0.135566,1.76214,0.211037,
2,0,0,1,0,38532.1,0.203854,0.20352,-0.349826,20,0.0179756,10,-7.11967e-05,-3.45615,-0.554843,-0.106336,1.44855,0.20352,
2,0,0,1,0,38532.9,0.196362,0.196041,-0.363188,20,0.0176971,10,-7.11997e-05,-3.43987,-0.38433,-0.153514,2.18279,0.196041,
2,0,0,1,0,38533.6,0.188872,0.188526,-0.381654,20,0.0174062,10,-7.19518e-05,-3.41833,-0.256,-0.230469,3.43376,0.188526,
2,0,0,1,0,38534.4,0.18138,0.181066,-0.400331,20,0.0171018,10,-7.24863e-05,-3.39758,-0.274809,-0.214695,3.36121,0.181066,
2,0,0,1,0,38535.1,0.17389,0.173567,-0.423124,20,0.016782,10,-7.34402e-05,-3.37353,-0.261226,-0.225858,3.73408,0.173567,
2,0,0,1,0,38535.9,0.166398,0.166125,-0.452548,20,0.0164425,10,-7.51793e-05,-3.34434,-0.241605,-0.2442,4.31817,0.166125,
2,0,0,1,0,38536.6,0.158907,0.1586,-0.493108,20,0.0160766,10,-7.8207e-05,-3.30706,-0.159608,-0.369656,7.14919,0.1586,
2,0,0,1,0,38537.4,0.151417,0.151107,-0.558641,20,0.015672,10,-8.44147e-05,-3.25287,-0.11829,-0.498775,10.903,0.151107,
2,0,0,1,0,38538.1,0.143925,0.143586,-0.666885,20,0.0152035,10,-9.57553e-05,-3.17595,-0.0787119,-0.749569,19.5876,0.143586,
2,0,0,1,0,38538.9,0.136435,0.136081,-0.831873,20,0.0146319,10,-0.000113202,-3.07994,-0.0793379,-0.743654,24.0743,0.136081,
2,0,0,1,0,38539.6,0.128943,0.128626,-1.00639,20,0.0139303,10,-0.000129449,-2.99723,-0.112843,-0.522852,20.449,0.128626,
2,0,0,1,0,38540.3,0.121453,0.121134,-1.13392,20,0.0131131,10,-0.000137356,-2.94542,-0.219722,-0.268521,11.8436,0.121134,
2,0,0,1,0,38541.1,0.113962,0.113625,-1.18555,20,0.0122265,10,-0.000134708,-2.92608,-1.27235,-0.0463707,2.14612,0.113625,
2,0,0,1,0,38541.8,0.106471,0.106151,-1.17778,20,0.0113247,10,-0.000125023,-2.92894,0.811314,0.0727216,-3.3512,0.106151,
2,0,0,1,0,38542.6,0.0989798,0.0986742,-1.14812,20,0.0104396,10,-0.00011329,-2.94001,0.685313,0.0860921,-3.85478,0.0986742,
2,0,0,1,0,38543.3,0.0914889,0.091122,-1.11597,20,0.0095803,10,-0.00010169,-2.95235,0.609153,0.0968558,-4.20529,0.091122,
2,0,0,1,0,38544.1,0.083998,0.083678,-1.07811,20,0.00874686,10,-9.02139e-05,-2.96734,0.41069,0.143661,-6.03723,0.083678,
2,0,0,1,0,38544.8,0.076507,0.076166,-1.04719,20,0.00793849,10,-7.97606e-05,-2.97997,0.570592,0.103401,-4.22041,0.076166,
2,0,0,1,0,38545.6,0.069016,0.0686732,-1.00989,20,0.00715529,10,-6.93521e-05,-2.99573,0.4944,0.119336,-4.7183,0.0686732,
2,0,0,1,0,38546.3,0.0615251,0.0611846,-0.982845,20,0.0063954,10,-6.0135e-05,-3.00751,0.573493,0.102878,-3.95099,0.0611846,
2,0,0,1,0,38547.1,0.0540342,0.0536706,-0.951644,20,0.00565943,10,-5.10753e-05,-3.02153,0.582977,0.101205,-3.75137,0.0536706,
2,0,0,1,0,38547.8,0.0465441,0.0462159,-0.917171,20,0.00494742,10,-4.23879e-05,-3.03755,0.516321,0.11427,-4.09554,0.0462159,
2,0,0,1,0,38548.6,0.0390523,0.0387231,-0.883321,20,0.0042612,10,-3.42049e-05,-3.05388,0.377437,0.156318,-5.37403,0.0387231,
2,0,0,1,0,38549.3,0.0315618,0.0312222,-0.851028,20,0.00360078,10,-2.6571e-05,-3.07006,0.436223,0.135252,-4.48119,0.0312222,
2,0,0,1,0,38550.1,0.0240704,0.023712,-0.814668,20,0.00296527,10,-1.93174e-05,-3.08902,0.453126,0.130207,-4.15223,0.02371197,
2,0,0,1,0,38550.8,0.0165796,0.0162783,-0.791748,20,0.00235115,10,-1.28883e-05,-3.10141,0.81905,0.0720347,-2.22971,0.0162783,
2,0,0,1,0,38551.6,0.00908846,0.00874857,-0.77673,20,0.00175181,10,-6.79528e-06,-3.10973,1.64446,0.0358781,-1.08773,0.00874857,
2,0,0,1,0,38552.3,0.00159728,0.0012164,-0.783472,20,0.00115826,10,-9.53018e-07,-3.10598, , , ,0.0012164,
2,0,0,1,0,38552.5,0.000199195,-0.000216526,-0.776095,20,0.00104702,10,1.68045e-07,-3.11009, , , ,-0.000216526,