File: Figure_codes/Fig_3-5/rawdata_trumpetplot_data/after 10th/20221101_1-115_003_TrumpetPlot_ParaChange_from10_every3_04_CV_C01_32.csv
mode,ox/red,error,control changes,counter inc.,time/s,control/V,Ewe/V,<I>/mA,cycle number,(Q-Qo)/C,I Range,P/W,log(|I|),Tafel slope mV/dec,alpha_eff,dI/d(E-IR),E-IR/V,
2,0,0,1,0,64104.2,2.44065e-05,-0.000287149,-0.37416,33,0.0000000E+000,10,1.0744e-07,-3.42694, , , ,-0.0002871489,
2,1,0,1,0,64104.9,0.00729063,0.00697027,0.337265,33,0.000158291,10,2.35083e-06,-3.47203,0.0526872,1.11982,14.4978,0.00697027,
2,1,0,1,0,64105.7,0.0147814,0.0144397,0.412344,33,0.000451919,10,5.95414e-06,-3.38474,0.121775,0.484502,7.7628,0.0144397,
2,1,0,1,0,64106.4,0.0222725,0.0219294,0.463456,33,0.000790631,10,1.01633e-05,-3.33399,0.161954,0.364301,6.57366,0.0219294,
2,1,0,1,0,64107.2,0.0297635,0.0294708,0.513632,33,0.00116665,10,1.51372e-05,-3.28935,0.188092,0.313676,6.27586,0.02947079,
2,1,0,1,0,64107.9,0.0372544,0.0369045,0.559897,33,0.00157896,10,2.06627e-05,-3.25189,0.20856,0.282893,6.181,0.0369045,
2,1,0,1,0,64108.7,0.0447458,0.0444097,0.60703,33,0.00202685,10,2.6958e-05,-3.21679,0.215617,0.273634,6.4855,0.0444097,
2,1,0,1,0,64109.4,0.0522363,0.0519315,0.652372,33,0.0025094,10,3.38787e-05,-3.1855,0.241252,0.244558,6.2159,0.0519315,
2,1,0,1,0,64110.2,0.0597282,0.0593699,0.692138,33,0.00302384,10,4.10922e-05,-3.15981,0.290794,0.202893,5.47888,0.0593699,
2,1,0,1,0,64110.9,0.0672182,0.0669023,0.729079,33,0.00356612,10,4.87771e-05,-3.13723,0.355627,0.165904,4.69589,0.0669023,
2,1,0,1,0,64111.7,0.0747092,0.0743888,0.756756,33,0.0041323,10,5.62942e-05,-3.12104,0.594838,0.0991866,2.92389,0.0743888,
2,1,0,1,0,64112.4,0.0822001,0.0818625,0.779935,33,0.004719,10,6.38474e-05,-3.10794,0.479512,0.123042,3.75252,0.0818625,
2,1,0,1,0,64113.2,0.0896911,0.0893723,0.813842,33,0.00532656,10,7.27349e-05,-3.08946,0.345412,0.17081,5.44062,0.0893723,
2,1,0,1,0,64113.9,0.097182,0.0968641,0.865734,33,0.00596541,10,8.38586e-05,-3.06262,0.213063,0.276914,9.35181,0.0968641,
2,1,0,1,0,64114.7,0.104673,0.104311,0.94255,33,0.00665151,10,9.83186e-05,-3.0257,0.203303,0.290208,10.6371,0.104311,
2,1,0,1,0,64115.4,0.112164,0.111857,1.01455,33,0.00739531,10,0.000113485,-2.99373,0.283586,0.20805,8.21298,0.111857,
2,1,0,1,0,64116.2,0.119655,0.11934,1.06257,33,0.0081857,10,0.000126807,-2.97364,0.704164,0.0837873,3.47237,0.11934,
2,1,0,1,0,64116.9,0.127146,0.126781,1.08321,33,0.00900225,10,0.000137331,-2.96529,1.56928,0.037597,1.59093,0.126781,
2,1,0,1,0,64117.6,0.134637,0.134296,1.08335,33,0.00982825,10,0.00014549,-2.96523,-0.508266,-0.116081,-4.89347,0.134296,
2,1,0,1,0,64118.4,0.142127,0.141785,0.990957,33,0.0106232,10,0.000140503,-3.00395,-0.124934,-0.472251,-18.1998,0.141785,
2,1,0,1,0,64119.1,0.149619,0.149313,0.814855,33,0.0113127,10,0.000121668,-3.08892,-0.076762,-0.76861,-24.4098,0.149313,
2,1,0,1,0,64119.9,0.157109,0.156763,0.667392,33,0.0118728,10,0.000104622,-3.17562,-0.106427,-0.554368,-14.4784,0.1567627,
2,1,0,1,0,64120.6,0.164601,0.164254,0.595871,33,0.0123523,10,9.78742e-05,-3.22485,-0.196541,-0.300192,-6.96205,0.164254,
2,1,0,1,0,64121.4,0.172091,0.171744,0.558215,33,0.0127934,10,9.58703e-05,-3.2532,-0.378185,-0.156008,-3.41457,0.171744,
2,1,0,1,0,64122.1,0.179582,0.179233,0.54091,33,0.0132151,10,9.69491e-05,-3.26687,-0.77394,-0.0762333,-1.61361,0.179233,
2,1,0,1,0,64122.9,0.187074,0.186718,0.53045,33,0.0136262,10,9.90445e-05,-3.27536,-2.35633,-0.0250389,-0.518064,0.186718,
2,1,0,1,0,64123.6,0.194564,0.194236,0.523861,33,0.0140305,10,0.000101753,-3.28078,-0.942935,-0.0625706,-1.27844,0.194236,
2,1,0,1,0,64124.4,0.202056,0.201683,0.517793,33,0.0144302,10,0.00010443,-3.28584,-1.47143,-0.040097,-0.808901,0.201683,
2,1,0,1,0,64125.1,0.209546,0.20921,0.5143,33,0.0148267,10,0.000107597,-3.28878,-1.19038,-0.0495641,-0.994877,0.2092099,
2,1,0,1,0,64125.9,0.217038,0.216725,0.510173,33,0.01522,10,0.000110567,-3.29228,-2.83044,-0.0208448,-0.414565,0.216725,
2,1,0,1,0,64126.6,0.224528,0.224193,0.505873,33,0.0156109,10,0.000113413,-3.29596,-3.33662,-0.0176826,-0.349674,0.224193,
2,1,0,1,0,64127.4,0.232019,0.231676,0.503723,33,0.0159992,10,0.0001167,-3.29781,11.4302,0.00516177,0.101515,0.2316757,
2,1,0,1,0,64128.1,0.23951,0.23918,0.50082,33,0.0163858,10,0.000119786,-3.30032,-1.72377,-0.0342272,-0.669643,0.23918,
2,1,0,1,0,64128.9,0.247001,0.246662,0.499112,33,0.0167702,10,0.000123112,-3.3018,-2.06151,-0.0286197,-0.556266,0.246662,
2,1,0,1,0,64129.6,0.254492,0.25417,0.494654,33,0.0171523,10,0.000125726,-3.3057,-3.89913,-0.0151316,-0.293297,0.25417,
2,1,0,1,0,64130.4,0.261983,0.261647,0.493547,33,0.0175322,10,0.000129135,-3.30667,-1.70814,-0.0345405,-0.664866,0.261647,
2,1,0,1,0,64131.1,0.269474,0.269155,0.490187,33,0.0179099,10,0.000131936,-3.30964,127.292,0.000463503,0.00885328,0.2691547,
2,1,0,1,0,64131.9,0.276965,0.276605,0.485826,33,0.0182851,10,0.000134382,-3.31352,-1.55708,-0.0378913,-0.718695,0.276605,
2,1,0,1,0,64132.6,0.284456,0.284135,0.483161,33,0.0186573,10,0.000137283,-3.31591,-64.7474,-0.000911233,-0.0171603,0.284135,
2,1,0,1,0,64133.4,0.291947,0.291647,0.478735,33,0.0190267,10,0.000139622,-3.3199,-1.38577,-0.0425756,-0.795266,0.291647,
2,1,0,1,0,64134.1,0.299437,0.299113,0.474503,33,0.0193933,10,0.00014193,-3.32376,-0.00335335,-17.5944,-186.783,0.299113,
2,0,0,1,0,64134.8,0.293745,0.293401,-0.0651102,33,0.0194265,10,-1.91034e-05,-4.18635,-0.0118194,-4.9918,11.5499,0.293401,
2,0,0,1,0,64135.6,0.286253,0.28593,-0.122049,33,0.0193439,10,-3.48976e-05,-3.91346,-0.0499764,-1.18056,5.6348,0.28593,
2,0,0,1,0,64136.3,0.278763,0.27844,-0.159205,33,0.0192278,10,-4.43289e-05,-3.79804,-0.0918437,-0.642396,3.96817,0.27844,
2,0,0,1,0,64137.1,0.271272,0.27092,-0.188453,33,0.0190879,10,-5.10558e-05,-3.7248,-0.117099,-0.503848,3.67669,0.27092,
2,0,0,1,0,64137.8,0.263781,0.263504,-0.212784,33,0.0189279,10,-5.60695e-05,-3.67206,-0.159938,-0.368892,3.0357,0.263504,
2,0,0,1,0,64138.6,0.25629,0.255988,-0.235043,33,0.0187511,10,-6.0168e-05,-3.62885,-0.207681,-0.28409,2.58229,0.255988,
2,0,0,1,0,64139.3,0.248799,0.248483,-0.251485,33,0.0185595,10,-6.24898e-05,-3.59949,-0.276128,-0.213669,2.095,0.248483,
2,0,0,1,0,64140.1,0.241308,0.240992,-0.268422,33,0.018355,10,-6.46878e-05,-3.57118,-0.335219,-0.176004,1.84587,0.240992,
2,0,0,1,0,64140.8,0.233817,0.233512,-0.283531,33,0.0181386,10,-6.6208e-05,-3.5474,-0.292467,-0.201732,2.22868,0.233512,
2,0,0,1,0,64141.6,0.226326,0.225996,-0.297833,33,0.0179108,10,-6.73091e-05,-3.52603,-0.3788,-0.155755,1.81773,0.225996,
2,0,0,1,0,64142.3,0.218835,0.218481,-0.312017,33,0.0176719,10,-6.81698e-05,-3.50582,-0.365296,-0.161513,1.9658,0.218481,
2,0,0,1,0,64143.1,0.211344,0.21102,-0.32674,33,0.0174223,10,-6.89487e-05,-3.4858,-0.393759,-0.149838,1.91115,0.21102,
2,0,0,1,0,64143.8,0.203854,0.203502,-0.341225,33,0.0171615,10,-6.94402e-05,-3.46696,-0.344941,-0.171044,2.28526,0.203502,
2,0,0,1,0,64144.6,0.196362,0.196016,-0.357991,33,0.0168896,10,-7.01721e-05,-3.44613,-0.359777,-0.163991,2.28582,0.196016,
2,0,0,1,0,64145.3,0.188872,0.188527,-0.373253,33,0.016606,10,-7.03681e-05,-3.428,-0.316703,-0.186295,2.70365,0.188527,
2,0,0,1,0,64146.1,0.18138,0.181047,-0.390888,33,0.0163101,10,-7.0769e-05,-3.40795,-0.347179,-0.169941,2.58903,0.181047,
2,0,0,1,0,64146.8,0.17389,0.173517,-0.409507,33,0.0160004,10,-7.10563e-05,-3.38774,-0.299317,-0.197116,3.14637,0.173517,
2,0,0,1,0,64147.5,0.166398,0.166076,-0.433844,33,0.0156742,10,-7.20509e-05,-3.36267,-0.329157,-0.179246,3.04564,0.166076,
2,0,0,1,0,64148.3,0.158907,0.158575,-0.464306,33,0.0153269,10,-7.36272e-05,-3.3332,-0.196449,-0.300333,5.48001,0.158575,
2,0,0,1,0,64149,0.151417,0.151063,-0.516092,33,0.0149492,10,-7.79622e-05,-3.28727,-0.147614,-0.399691,8.07801,0.151063,
2,0,0,1,0,64149.8,0.143925,0.14361,-0.595654,33,0.014524,10,-8.5542e-05,-3.22501,-0.0918955,-0.642034,14.9901,0.14361,
2,0,0,1,0,64150.5,0.136435,0.136063,-0.724578,33,0.0140205,10,-9.85883e-05,-3.13991,-0.087282,-0.67597,19.0929,0.1360631,
2,0,0,1,0,64151.3,0.128943,0.128619,-0.876755,33,0.0134106,10,-0.000112767,-3.05712,-0.1027,-0.57449,19.5164,0.128619,
2,0,0,1,0,64152,0.121453,0.121154,-1.00652,33,0.0126932,10,-0.000121943,-2.99718,-0.160038,-0.368663,14.4299,0.121154,
2,0,0,1,0,64152.8,0.113962,0.113655,-1.08178,33,0.0118951,10,-0.00012295,-2.96586,-0.439684,-0.134187,5.66146,0.113655,
2,0,0,1,0,64153.5,0.106471,0.106119,-1.10096,33,0.0110623,10,-0.000116833,-2.95823,-20.6765,-0.00285348,0.122549,0.106119,
2,0,0,1,0,64154.3,0.0989798,0.0986742,-1.08312,33,0.0102316,10,-0.000106876,-2.96532,0.891043,0.0662146,-2.79797,0.0986742,
2,0,0,1,0,64155,0.0914889,0.0911474,-1.06545,33,0.00941635,10,-9.71128e-05,-2.97247,0.800792,0.0736771,-3.05253,0.0911474,
2,0,0,1,0,64155.8,0.083998,0.0836589,-1.03967,33,0.00861816,10,-8.69774e-05,-2.98311,0.578134,0.102052,-4.132,0.0836589,
2,0,0,1,0,64156.5,0.076507,0.0761385,-1.01495,33,0.00783779,10,-7.72768e-05,-2.99356,0.649069,0.0908994,-3.59853,0.0761385,
2,0,0,1,0,64157.3,0.069016,0.0687336,-0.984058,33,0.00707729,10,-6.76379e-05,-3.00698,0.539151,0.109431,-4.21889,0.0687336,
2,0,0,1,0,64158,0.0615251,0.0611878,-0.957663,33,0.0063371,10,-5.85973e-05,-3.01879,0.54703,0.107855,-4.03987,0.0611878,
2,0,0,1,0,64158.8,0.0540342,0.0536981,-0.929907,33,0.00561887,10,-4.99343e-05,-3.03156,0.648447,0.0909867,-3.30037,0.0536981,
2,0,0,1,0,64159.5,0.0465441,0.0461797,-0.899034,33,0.00492264,10,-4.15171e-05,-3.04622,0.513118,0.114983,-4.0453,0.0461797,
2,0,0,1,0,64160.3,0.0390523,0.0387188,-0.870173,33,0.0042495,10,-3.36921e-05,-3.06039,0.406471,0.145152,-4.91476,0.0387188,
2,0,0,1,0,64161,0.0315618,0.031238,-0.837151,33,0.00360014,10,-2.6151e-05,-3.0772,0.453044,0.13023,-4.2528,0.031238,
2,0,0,1,0,64161.8,0.0240704,0.0236961,-0.806064,33,0.00297391,10,-1.91005e-05,-3.09363,0.448819,0.131456,-4.1466,0.0236961,
2,0,0,1,0,64162.5,0.0165796,0.0162822,-0.784699,33,0.00236778,10,-1.27766e-05,-3.1053,1.07915,0.0546729,-1.67499,0.0162822,
2,0,0,1,0,64163.3,0.00908846,0.00874964,-0.770888,33,0.00177537,10,-6.74499e-06,-3.11301,1.90186,0.0310223,-0.933108,0.008749635,
2,0,0,1,0,64164,0.00159728,0.00124073,-0.775938,33,0.00118877,10,-9.6273e-07,-3.11017, , , ,0.00124073,
2,0,0,1,0,64164.2,0.000199195,-0.000178351,-0.767551,33,0.00107881,10,1.36894e-07,-3.11489, , , ,-0.000178351,