File: Figure_codes/Fig_3-5/rawdata_trumpetplot_data/after 10th/20221101_1-115_003_TrumpetPlot_ParaChange_from10_every3_02_CV_C01_33.csv
mode,ox/red,error,control changes,counter inc.,time/s,control/V,Ewe/V,<I>/mA,cycle number,(Q-Qo)/C,I Range,P/W,log(|I|),Tafel slope mV/dec,alpha_eff,dI/d(E-IR),E-IR/V,
2,0,0,1,0,65354.3,2.44065e-05,-0.000306236,-0.396421,34,0.0000000E+000,10,1.21398e-07,-3.40184, , , ,-0.000306236,
2,0,0,1,0,65361.6,0.00729061,0.00700416,-0.0958076,34,-0.000981204,10,-6.71052e-07,-4.0186,-0.030075,-1.96176,7.4451,0.00700416,
2,0,0,1,0,65369.1,0.0147815,0.0144344,-0.0595405,34,-0.00147886,10,-8.59433e-07,-4.22519,-0.0398425,-1.48083,3.42544,0.0144344,
2,0,0,1,0,65376.6,0.0222725,0.0219369,-0.0384421,34,-0.00177438,10,-8.43298e-07,-4.41519,-0.0385411,-1.53084,2.31359,0.02193686,
2,0,0,1,0,65384.1,0.0297635,0.0294636,-0.0230229,34,-0.00193933,10,-6.78337e-07,-4.63784,-0.0303808,-1.94201,1.73598,0.0294636,
2,0,0,1,0,65391.6,0.0372544,0.0369309,-0.0108214,34,-0.00199979,10,-3.99644e-07,-4.96572,-0.0145167,-4.06427,1.6361,0.0369309,
2,0,0,1,0,65399.1,0.0447454,0.0444334,0.00108503,34,-0.00197115,10,4.82116e-08,-5.96456,0.0301733,1.95537,1.5263,0.0444334,
2,1,0,1,0,65406.5,0.0522363,0.0519113,0.0103887,34,-0.00186082,10,5.39292e-07,-4.98344,0.0162249,3.63639,1.43725,0.0519113,
2,1,0,1,0,65414,0.0597273,0.0594201,0.0196924,34,-0.00167695,10,1.17013e-06,-4.7057,0.0448384,1.31584,1.00746,0.0594201,
2,1,0,1,0,65421.5,0.0672183,0.0669024,0.027961,34,-0.00143211,10,1.87066e-06,-4.55345,0.0620405,0.950992,1.01003,0.0669024,
2,1,0,1,0,65429,0.0747092,0.0744058,0.0345536,34,-0.00112963,10,2.57099e-06,-4.46151,0.089731,0.657521,0.896016,0.0744058,
2,1,0,1,0,65436.5,0.0822001,0.0818741,0.0413303,34,-0.000773555,10,3.38388e-06,-4.38373,0.0984399,0.599351,0.980714,0.0818741,
2,1,0,1,0,65444,0.0896911,0.0893967,0.050778,34,-0.000357086,10,4.53939e-06,-4.29432,0.0948132,0.622276,1.23289,0.0893967,
2,1,0,1,0,65451.5,0.0971821,0.0968515,0.0601216,34,0.000126625,10,5.82287e-06,-4.22097,0.0924137,0.638433,1.48464,0.0968515,
2,1,0,1,0,65459,0.104673,0.104395,0.0708132,34,0.000684164,10,7.39256e-06,-4.14989,0.128121,0.460501,1.25284,0.104395,
2,1,0,1,0,65466.5,0.112164,0.11182,0.0784978,34,0.00131318,10,8.77762e-06,-4.10514,0.242081,0.24372,0.743744,0.11182,
2,1,0,1,0,65474,0.119655,0.119324,0.0865527,34,0.00200496,10,1.03278e-05,-4.06272,0.32079,0.183921,0.621896,0.119324,
2,1,0,1,0,65481.5,0.127146,0.126815,0.0907353,34,0.00274619,10,1.15066e-05,-4.04222,0.472861,0.124772,0.445627,0.126815,
2,1,0,1,0,65488.9,0.134637,0.134307,0.0886789,34,0.00350179,10,1.19102e-05,-4.05218,-0.185816,-0.317519,-1.10025,0.1343071,
2,1,0,1,0,65496.4,0.142128,0.141769,0.0746148,34,0.00418892,10,1.05781e-05,-4.12718,-0.0705503,-0.836282,-2.40669,0.1417691,
2,1,0,1,0,65503.9,0.149619,0.149293,0.0594474,34,0.00475152,10,8.87506e-06,-4.22587,-0.10282,-0.57382,-1.33783,0.149293,
2,1,0,1,0,65511.4,0.15711,0.156803,0.0524744,34,0.00523225,10,8.22812e-06,-4.28005,-0.16813,-0.350918,-0.721343,0.156803,
2,1,0,1,0,65518.9,0.164601,0.16429,0.0516853,34,0.00568351,10,8.49139e-06,-4.28663,-0.551323,-0.107015,-0.214503,0.16429,
2,1,0,1,0,65526.4,0.172091,0.171792,0.0504567,34,0.0061258,10,8.66808e-06,-4.29708,0.704384,0.0837612,0.165174,0.171792,
2,1,0,1,0,65533.9,0.179582,0.179246,0.0514254,34,0.00656937,10,9.21779e-06,-4.28882,1.02555,0.0575301,0.115543,0.179246,
2,1,0,1,0,65541.4,0.187073,0.186747,0.0516743,34,0.00701734,10,9.65005e-06,-4.28673,0.629755,0.0936872,0.189146,0.186747,
2,1,0,1,0,65548.9,0.194564,0.194214,0.0530604,34,0.00747038,10,1.03051e-05,-4.27523,6.69513,0.00881238,0.0182066,0.194214,
2,1,0,1,0,65556.4,0.202055,0.20175,0.0537691,34,0.00792859,10,1.08479e-05,-4.26947,8.97328,0.00657508,0.0138023,0.20175,
2,1,0,1,0,65563.9,0.209546,0.20925,0.0545256,34,0.00839375,10,1.14095e-05,-4.2634,0.759737,0.0776585,0.165992,0.20925,
2,1,0,1,0,65571.3,0.217037,0.216722,0.0552339,34,0.00886445,10,1.19704e-05,-4.25779,-19.8344,-0.00297463,-0.00643504,0.216722,
2,1,0,1,0,65578.8,0.224528,0.224187,0.0566277,34,0.00934028,10,1.26952e-05,-4.24697,0.547929,0.107678,0.236894,0.224187,
2,1,0,1,0,65586.3,0.232019,0.231682,0.0566343,34,0.009825,10,1.31211e-05,-4.24692,2.03587,0.0289803,0.0650823,0.231682,
2,1,0,1,0,65593.8,0.23951,0.239159,0.0587861,34,0.0103146,10,1.40592e-05,-4.23073,0.277262,0.212795,0.48873,0.239159,
2,1,0,1,0,65601.3,0.247001,0.246657,0.0595729,34,0.0108145,10,1.46941e-05,-4.22495,0.804441,0.0733429,0.17014,0.246657,
2,1,0,1,0,65608.8,0.254492,0.254186,0.0609089,34,0.0113212,10,1.54822e-05,-4.21532,1.01902,0.0578989,0.137965,0.254186,
2,1,0,1,0,65616.3,0.261983,0.261666,0.061922,34,0.0118351,10,1.62029e-05,-4.20816,0.552533,0.106781,0.256918,0.261666,
2,1,0,1,0,65623.8,0.269474,0.269206,0.0626646,34,0.0123573,10,1.68697e-05,-4.20298,0.786154,0.0750489,0.183787,0.269206,
2,1,0,1,0,65631.3,0.276965,0.276645,0.0630523,34,0.0128831,10,1.74431e-05,-4.2003,0.72592,0.0812762,0.201937,0.276645,
2,1,0,1,0,65638.8,0.284456,0.284146,0.0642485,34,0.0134149,10,1.82559e-05,-4.19214,4.59349,0.0128443,0.0320719,0.284146,
2,1,0,1,0,65646.3,0.291947,0.291645,0.0648865,34,0.0139493,10,1.89238e-05,-4.18785,1.3107,0.045014,0.113806,0.2916449,
2,1,0,1,0,65653.7,0.299438,0.299136,0.0659996,34,0.0144904,10,1.97428e-05,-4.18046,-0.00413022,-14.2849,-22.9827,0.299136,
2,1,0,1,0,65660.6,0.293745,0.293453,0.00747211,34,0.0145885,10,2.19271e-06,-5.12656,0.0116054,5.08384,1.59093,0.293453,
2,1,0,1,0,65668.1,0.286254,0.285943,-0.000775948,34,0.0145595,10,-2.21877e-07,-6.11017,-0.0100881,-5.84845,0.836633,0.285943,
2,1,0,1,0,65675.6,0.278763,0.278436,-0.0063424,34,0.0144803,10,-1.76596e-06,-5.19775,-0.0229771,-2.56777,0.633158,0.278436,
2,0,0,1,0,65683.1,0.271272,0.270939,-0.0111576,34,0.0143604,10,-3.02304e-06,-4.95243,-0.0573485,-1.0288,0.446015,0.270939,
2,0,0,1,0,65690.6,0.263781,0.263504,-0.015093,34,0.0142075,10,-3.97705e-06,-4.82123,-0.0788342,-0.748406,0.434788,0.263504,
2,0,0,1,0,65698,0.25629,0.255949,-0.0184412,34,0.0140272,10,-4.72e-06,-4.73421,-0.100076,-0.589552,0.42259,0.255949,
2,0,0,1,0,65705.5,0.248799,0.248466,-0.0217495,34,0.0138213,10,-5.40402e-06,-4.66255,-0.12806,-0.46072,0.396935,0.248466,
2,0,0,1,0,65713,0.241308,0.241018,-0.0247549,34,0.0135921,10,-5.96638e-06,-4.60634,-0.130959,-0.450523,0.431927,0.241018,
2,0,0,1,0,65720.5,0.233817,0.233481,-0.0273328,34,0.0133399,10,-6.38169e-06,-4.56332,-0.191699,-0.307775,0.327824,0.2334805,
2,0,0,1,0,65728,0.226326,0.226025,-0.0304678,34,0.0130666,10,-6.88647e-06,-4.51616,-0.23455,-0.251546,0.300746,0.226025,
2,0,0,1,0,65735.5,0.218835,0.218501,-0.0335568,34,0.0127694,10,-7.33219e-06,-4.47422,-0.237253,-0.24868,0.322854,0.218501,
2,0,0,1,0,65743,0.211344,0.211068,-0.0360401,34,0.0124502,10,-7.60691e-06,-4.44321,-0.263494,-0.223914,0.317,0.211068,
2,0,0,1,0,65750.5,0.203853,0.203542,-0.0387328,34,0.0121092,10,-7.88376e-06,-4.41192,-0.346549,-0.17025,0.25793,0.2035421,
2,0,0,1,0,65758,0.196362,0.196097,-0.0420195,34,0.0117495,10,-8.23989e-06,-4.37655,-0.163721,-0.360368,0.582622,0.196097,
2,0,0,1,0,65765.5,0.188871,0.188523,-0.0443057,34,0.0113671,10,-8.35267e-06,-4.35354,-0.170763,-0.345508,0.591353,0.188523,
2,0,0,1,0,65773,0.18138,0.181079,-0.0476719,34,0.0109606,10,-8.6324e-06,-4.32174,-0.251048,-0.235015,0.438239,0.181079,
2,0,0,1,0,65780.4,0.173889,0.173532,-0.0515741,34,0.0105272,10,-8.94974e-06,-4.28757,-0.211967,-0.278345,0.557572,0.1735315,
2,0,0,1,0,65787.9,0.166398,0.166087,-0.0561344,34,0.0100592,10,-9.32322e-06,-4.25077,-0.171321,-0.344382,0.762216,0.166087,
2,0,0,1,0,65795.4,0.158907,0.158624,-0.0620806,34,0.00954857,10,-9.84749e-06,-4.20704,-0.178356,-0.3308,0.806874,0.158624,
2,0,0,1,0,65802.9,0.151416,0.151077,-0.0699645,34,0.00898692,10,-1.057e-05,-4.15512,-0.123493,-0.47776,1.31673,0.151077,
2,0,0,1,0,65810.4,0.143926,0.143614,-0.0826524,34,0.00834914,10,-1.18701e-05,-4.08274,-0.0870396,-0.677852,2.17705,0.143614,
2,0,0,1,0,65817.9,0.136435,0.13609,-0.101175,34,0.00759386,10,-1.37689e-05,-3.99492,-0.0804003,-0.733828,2.88682,0.13609,
2,0,0,1,0,65825.4,0.128944,0.128615,-0.121122,34,0.00668613,10,-1.55781e-05,-3.91678,-0.13606,-0.433631,2.04147,0.128615,
2,0,0,1,0,65832.9,0.121453,0.121103,-0.132899,34,0.00565533,10,-1.60944e-05,-3.87648,-0.289827,-0.203569,1.05462,0.121103,
2,0,0,1,0,65840.4,0.113962,0.113632,-0.135761,34,0.00456958,10,-1.54268e-05,-3.86723,-3.76361,-0.0156764,0.0833828,0.1136324,
2,0,0,1,0,65847.9,0.106471,0.106116,-0.137052,34,0.00347246,10,-1.45434e-05,-3.86311,-4.69429,-0.0125685,0.0673604,0.106116,
2,0,0,1,0,65855.4,0.0989798,0.0986795,-0.135938,34,0.00237666,10,-1.34143e-05,-3.86666,1.9139,0.0308271,-0.163244,0.09867949,
2,0,0,1,0,65862.8,0.0914889,0.0911782,-0.133192,34,0.00129288,10,-1.21442e-05,-3.87552,0.767077,0.0769154,-0.398251,0.0911782,
2,0,0,1,0,65870.3,0.083998,0.0836664,-0.12928,34,0.000239515,10,-1.08164e-05,-3.88847,0.425697,0.138596,-0.694945,0.0836664,
2,0,0,1,0,65877.8,0.076507,0.0761353,-0.125754,34,-0.000785153,10,-9.57433e-06,-3.90048,0.636611,0.0926782,-0.452686,0.0761353,
2,0,0,1,0,65885.3,0.069016,0.0686795,-0.121541,34,-0.0017847,10,-8.34736e-06,-3.91528,0.570625,0.103395,-0.493489,0.0686795,
2,0,0,1,0,65892.8,0.0615251,0.0612154,-0.119307,34,-0.00275989,10,-7.30342e-06,-3.92333,0.631554,0.0934203,-0.433505,0.0612154,
2,0,0,1,0,65900.3,0.0540342,0.0536918,-0.115627,34,-0.00371083,10,-6.20824e-06,-3.93694,1.16387,0.0506931,-0.228596,0.0536918,
2,0,0,1,0,65907.8,0.0465432,0.0462361,-0.112953,34,-0.00464045,10,-5.22253e-06,-3.9471,0.644883,0.0914895,-0.403983,0.0462361,
2,0,0,1,0,65915.3,0.0390522,0.0387199,-0.110604,34,-0.00554949,10,-4.28257e-06,-3.95623,0.600915,0.0981836,-0.422521,0.0387199,
2,0,0,1,0,65922.8,0.0315613,0.0312483,-0.108229,34,-0.00643852,10,-3.38197e-06,-3.96566,0.52473,0.112439,-0.473918,0.0312483,
2,0,0,1,0,65930.3,0.0240703,0.0237618,-0.106405,34,-0.0073105,10,-2.52837e-06,-3.97304,2.4864,0.0237291,-0.0986656,0.0237618,
2,0,0,1,0,65937.8,0.0165794,0.0162362,-0.105731,34,-0.00817344,10,-1.71666e-06,-3.9758,-1.07739,-0.054762,0.226479,0.0162362,
2,0,0,1,0,65945.2,0.00908843,0.008756,-0.107001,34,-0.00903978,10,-9.36902e-07,-3.97061,-0.684886,-0.0861457,0.360886,0.008756,
2,0,0,1,0,65952.7,0.00159744,0.00124721,-0.110436,34,-0.00992309,10,-1.37737e-07,-3.95689, , , ,0.00124721,
2,0,0,1,0,65954.1,0.000199235,-0.000136315,-0.111155,34,-0.0100906,10,1.5152e-08,-3.95407, , , ,-0.000136315,