File: Figure_codes/Fig_3-5/rawdata_trumpetplot_data/after 10th/20221101_1-115_003_TrumpetPlot_ParaChange_from10_every3_06_CV_C01_32.csv
mode,ox/red,error,control changes,counter inc.,time/s,control/V,Ewe/V,<I>/mA,cycle number,(Q-Qo)/C,I Range,P/W,log(|I|),Tafel slope mV/dec,alpha_eff,dI/d(E-IR),E-IR/V,
2,0,0,0,0,64194.2,2.44065e-05,-0.00042076,-1.41662,33,0.0000000E+000,10,5.96056e-07,-2.84875, , , ,-0.00042076,
2,1,0,1,0,64194.4,0.00729063,0.00695973,0.941984,33,4.05105e-05,10,6.55595e-06,-3.02596,0.0187057,3.15411,108.932,0.00695973,
2,1,0,1,0,64194.6,0.014778,0.0144489,1.40675,33,0.000270693,10,2.03261e-05,-2.85178,0.0817872,0.721384,39.3768,0.0144489,
2,1,0,1,0,64194.7,0.0222743,0.0219034,1.6264,33,0.000559612,10,3.56236e-05,-2.78877,0.148469,0.397389,25.2762,0.02190339,
2,1,0,1,0,64194.9,0.0297626,0.0293846,1.80486,33,0.000883958,10,5.3035e-05,-2.74356,0.187892,0.314009,22.0336,0.0293846,
2,1,0,1,0,64195.1,0.0372544,0.0369455,1.96331,33,0.00123942,10,7.25355e-05,-2.70701,0.216572,0.272427,20.861,0.0369455,
2,1,0,1,0,64195.3,0.0447472,0.0443981,2.11681,33,0.00162468,10,9.39824e-05,-2.67432,0.234564,0.251531,20.8306,0.0443981,
2,1,0,1,0,64195.5,0.0522345,0.0519097,2.2761,33,0.00203895,10,0.000118152,-2.64281,0.248632,0.237298,21.0387,0.0519097,
2,1,0,1,0,64195.7,0.0597308,0.0594193,2.41674,33,0.00248171,10,0.000143601,-2.61677,0.285765,0.206463,19.4901,0.0594193,
2,1,0,1,0,64195.9,0.0672182,0.066867,2.55055,33,0.00294993,10,0.000170547,-2.59337,0.327599,0.180098,17.9342,0.066867,
2,1,0,1,0,64196.1,0.0747074,0.0743611,2.66887,33,0.00344143,10,0.00019846,-2.57367,0.47627,0.123879,12.8746,0.0743611,
2,1,0,1,0,64196.2,0.0822019,0.0818575,2.76027,33,0.00395351,10,0.000225949,-2.55905,0.539968,0.109266,11.7872,0.0818575,
2,1,0,1,0,64196.4,0.0896911,0.0893767,2.85743,33,0.00448222,10,0.000255388,-2.54402,0.49687,0.118743,13.2621,0.0893767,
2,1,0,1,0,64196.6,0.097182,0.0968248,2.98192,33,0.00503106,10,0.000288724,-2.5255,0.333627,0.176844,20.5517,0.0968248,
2,1,0,1,0,64196.8,0.104675,0.104327,3.17836,33,0.0056091,10,0.000331589,-2.4978,0.223226,0.264306,32.7978,0.104327,
2,1,0,1,0,64197,0.112162,0.111814,3.42798,33,0.0062301,10,0.000383294,-2.46496,0.233402,0.252783,33.8125,0.111814,
2,1,0,1,0,64197.2,0.119655,0.119314,3.66632,33,0.00689818,10,0.000437442,-2.43577,0.333252,0.177043,25.2687,0.119314,
2,1,0,1,0,64197.4,0.127146,0.12678,3.805,33,0.00760241,10,0.000482397,-2.41964,0.58537,0.100791,14.9886,0.12678,
2,1,0,1,0,64197.6,0.134635,0.134317,3.88569,33,0.00832667,10,0.000521915,-2.41053,1.93824,0.0304401,4.61271,0.134317,
2,1,0,1,0,64197.7,0.14213,0.141819,3.85876,33,0.0090576,10,0.000547247,-2.41355,-0.524652,-0.112456,-16.8738,0.141819,
2,1,0,1,0,64197.9,0.149619,0.149265,3.56459,33,0.00976035,10,0.000532067,-2.44799,-0.13949,-0.42297,-58.722,0.149265,
2,1,0,1,0,64198.1,0.157106,0.15677,3.02666,33,0.0103818,10,0.00047449,-2.51904,-0.0932979,-0.632383,-74.6621,0.15677,
2,1,0,1,0,64198.3,0.164602,0.164246,2.54168,33,0.0109036,10,0.000417461,-2.59488,-0.10615,-0.555817,-55.0943,0.164246,
2,1,0,1,0,64198.5,0.172091,0.171737,2.20944,33,0.0113487,10,0.000379442,-2.65572,-0.148022,-0.39859,-34.5672,0.171737,
2,1,0,1,0,64198.7,0.179582,0.179291,2.01702,33,0.0117459,10,0.000361635,-2.69529,-0.230593,-0.255862,-20.1598,0.179291,
2,1,0,1,0,64198.9,0.187074,0.186775,1.89588,33,0.0121142,10,0.000354103,-2.72219,-0.370982,-0.159037,-11.7725,0.186775,
2,1,0,1,0,64199.1,0.194563,0.194199,1.82088,33,0.0124645,10,0.000353614,-2.73972,-0.537861,-0.109694,-7.80832,0.194199,
2,1,0,1,0,64199.2,0.202059,0.201767,1.77782,33,0.0128039,10,0.000358706,-2.75011,-0.660118,-0.0893779,-6.17199,0.201767,
2,1,0,1,0,64199.4,0.209546,0.209239,1.73869,33,0.0131353,10,0.000363802,-2.75978,-0.674825,-0.0874301,-5.93783,0.2092386,
2,1,0,1,0,64199.6,0.217035,0.216721,1.71003,33,0.0134611,10,0.0003706,-2.767,-1.23274,-0.0478608,-3.20262,0.216721,
2,1,0,1,0,64199.8,0.22453,0.224216,1.69436,33,0.0137829,10,0.000379904,-2.77099,-3.20517,-0.0184077,-1.21666,0.224216,
2,1,0,1,0,64200,0.232019,0.231679,1.68,33,0.0141012,10,0.000389219,-2.77469,-2.7982,-0.021085,-1.38061,0.231679,
2,1,0,1,0,64200.2,0.23951,0.239172,1.66597,33,0.014417,10,0.000398454,-2.77833,-2.62704,-0.0224587,-1.46072,0.239172,
2,1,0,1,0,64200.4,0.247003,0.246642,1.65597,33,0.0147305,10,0.000408432,-2.78095,-2.29416,-0.0257174,-1.6562,0.2466419,
2,1,0,1,0,64200.6,0.25449,0.254178,1.64059,33,0.0150418,10,0.000417001,-2.785,-2.07639,-0.0284147,-1.823,0.254178,
2,1,0,1,0,64200.7,0.261983,0.261689,1.63043,33,0.0153514,10,0.000426666,-2.7877,-2.71158,-0.0217585,-1.38793,0.261689,
2,1,0,1,0,64200.9,0.269474,0.269175,1.62193,33,0.015659,10,0.000436581,-2.78997,-21.2966,-0.0027704,-0.175033,0.269175,
2,1,0,1,0,64201.1,0.276963,0.276604,1.60878,33,0.0159645,10,0.000444994,-2.7935,-1.59159,-0.0370699,-2.33252,0.276604,
2,1,0,1,0,64201.3,0.284458,0.284135,1.59917,33,0.016268,10,0.000454382,-2.7961,-4.98383,-0.0118383,-0.738764,0.284135,
2,1,0,1,0,64201.5,0.291947,0.291585,1.58943,33,0.016569,10,0.000463454,-2.79876,-1.27099,-0.0464205,-2.87443,0.291585,
2,1,0,1,0,64201.7,0.299434,0.299111,1.5727,33,0.0168676,10,0.000470411,-2.80335,-0.019994,-2.95089,-160.349,0.299111,
2,0,0,1,0,64201.8,0.294196,0.293853,-0.211245,33,0.0169309,10,-6.20749e-05,-3.67521,-0.00246097,-23.9743,85.1171,0.293853,
2,0,0,1,0,64202,0.286701,0.286398,-0.528498,33,0.0168525,10,-0.000151361,-3.27696,-0.0493596,-1.19531,24.5007,0.2863977,
2,0,0,1,0,64202.2,0.279212,0.278865,-0.672998,33,0.016735,10,-0.000187675,-3.17199,-0.101537,-0.581067,15.3655,0.278865,
2,0,0,1,0,64202.4,0.271725,0.271438,-0.774136,33,0.0165957,10,-0.00021013,-3.11118,-0.142058,-0.415324,12.4592,0.271438,
2,0,0,1,0,64202.6,0.264228,0.263856,-0.850619,33,0.0164401,10,-0.00022444,-3.07027,-0.212403,-0.277775,9.22154,0.263856,
2,0,0,1,0,64202.8,0.256741,0.25641,-0.913501,33,0.0162718,10,-0.00023423,-3.03929,-0.290289,-0.203245,7.26671,0.25641,
2,0,0,1,0,64203,0.249248,0.248951,-0.974402,33,0.0160922,10,-0.000242579,-3.01126,-0.372097,-0.158561,5.98427,0.248951,
2,0,0,1,0,64203.1,0.241756,0.241438,-1.01646,33,0.0159027,10,-0.000245411,-2.99291,-0.381197,-0.154776,6.17476,0.2414377,
2,0,0,1,0,64203.3,0.234268,0.233928,-1.06903,33,0.0157041,10,-0.000250075,-2.97101,-0.366328,-0.161058,6.72504,0.233928,
2,0,0,1,0,64203.5,0.226772,0.226483,-1.116,33,0.0154965,10,-0.000252755,-2.95234,-0.351326,-0.167935,7.27722,0.226483,
2,0,0,1,0,64203.7,0.219284,0.218967,-1.1576,33,0.0152809,10,-0.000253477,-2.93644,-0.425404,-0.138692,6.2719,0.218967,
2,0,0,1,0,64203.9,0.211796,0.211435,-1.19876,33,0.0150571,10,-0.00025346,-2.92127,-0.520289,-0.113398,5.30842,0.211435,
2,0,0,1,0,64204.1,0.204301,0.203955,-1.24589,33,0.0148248,10,-0.000254107,-2.90452,-0.680558,-0.0866935,4.20818,0.203955,
2,0,0,1,0,64204.3,0.196812,0.196497,-1.2847,33,0.0145849,10,-0.00025244,-2.8912,-0.521711,-0.11309,5.6914,0.196497,
2,0,0,1,0,64204.5,0.189321,0.189,-1.3355,33,0.0143362,10,-0.00025241,-2.87436,-0.54513,-0.108231,5.63563,0.189,
2,0,0,1,0,64204.6,0.181828,0.181521,-1.38698,33,0.0140785,10,-0.000251767,-2.85793,-0.441149,-0.133742,7.22373,0.181521,
2,0,0,1,0,64204.8,0.174341,0.173954,-1.44318,33,0.0138108,10,-0.000251047,-2.84068,-0.360351,-0.163729,9.24483,0.173954,
2,0,0,1,0,64205,0.166848,0.166536,-1.51646,33,0.0135308,10,-0.000252546,-2.81917,-0.306256,-0.192649,11.3671,0.166536,
2,0,0,1,0,64205.2,0.159357,0.159016,-1.6086,33,0.0132355,10,-0.000255793,-2.79355,-0.250719,-0.235323,14.7732,0.159016,
2,0,0,1,0,64205.4,0.151868,0.151504,-1.74232,33,0.0129193,10,-0.000263968,-2.75887,-0.174912,-0.337313,23.0451,0.151504,
2,0,0,1,0,64205.6,0.144373,0.144089,-1.96646,33,0.0125701,10,-0.000283346,-2.70631,-0.120154,-0.491036,37.68,0.144089,
2,0,0,1,0,64205.8,0.136884,0.136574,-2.31686,33,0.0121681,10,-0.000316422,-2.6351,-0.0961957,-0.613333,55.5634,0.1365737,
2,0,0,1,0,64206,0.129393,0.129062,-2.76815,33,0.0116889,10,-0.000357263,-2.55781,-0.102782,-0.57403,62.0075,0.129062,
2,0,0,1,0,64206.1,0.1219,0.121519,-3.21858,33,0.0111241,10,-0.000391119,-2.49234,-0.13872,-0.425318,53.2181,0.121519,
2,0,0,1,0,64206.3,0.114413,0.114088,-3.57943,33,0.0104833,10,-0.00040837,-2.44619,-0.199251,-0.29611,41.3136,0.114088,
2,0,0,1,0,64206.5,0.10692,0.106555,-3.81682,33,0.0097848,10,-0.000406703,-2.4183,-0.394928,-0.149394,22.2439,0.106555,
2,0,0,1,0,64206.7,0.0994284,0.0990686,-3.89958,33,0.00905608,10,-0.000386326,-2.40898,-11.8903,-0.00496202,0.753636,0.0990686,
2,0,0,1,0,64206.9,0.0919402,0.0916345,-3.84092,33,0.00832702,10,-0.000351961,-2.41556,0.697393,0.0846008,-12.6864,0.0916345,
2,0,0,1,0,64207.1,0.0844447,0.0841383,-3.73556,33,0.00761362,10,-0.000314303,-2.42764,0.66674,0.0884903,-12.9038,0.0841383,
2,0,0,1,0,64207.3,0.0769565,0.0766249,-3.64912,33,0.00691984,10,-0.000279613,-2.43781,0.765762,0.0770474,-10.9618,0.0766249,
2,0,0,1,0,64207.5,0.0694682,0.0691367,-3.56797,33,0.00624092,10,-0.000246677,-2.44758,0.856358,0.0688964,-9.6205,0.0691367,
2,0,0,1,0,64207.6,0.0619728,0.0616372,-3.5,33,0.00557467,10,-0.00021573,-2.45593,0.677801,0.0870462,-11.8847,0.0616372,
2,0,0,1,0,64207.8,0.0544836,0.0541262,-3.41575,33,0.00492422,10,-0.000184881,-2.46651,0.676272,0.087243,-11.6165,0.0541262,
2,0,0,1,0,64208,0.0469927,0.0466792,-3.31749,33,0.00428995,10,-0.000154858,-2.47919,0.614235,0.0960545,-12.453,0.0466792,
2,0,0,1,0,64208.2,0.0394999,0.0391333,-3.22043,33,0.00367414,10,-0.000126026,-2.49209,0.524435,0.112502,-14.1178,0.0391333,
2,0,0,1,0,64208.4,0.0320125,0.0316478,-3.10303,33,0.00307906,10,-9.82042e-05,-2.50821,0.479137,0.123138,-14.9083,0.0316478,
2,0,0,1,0,64208.6,0.0245198,0.024158,-2.9832,33,0.00250555,10,-7.20683e-05,-2.52532,0.434288,0.135855,-15.8524,0.024158,
2,0,0,1,0,64208.8,0.0170289,0.0166701,-2.88026,33,0.00195319,10,-4.80142e-05,-2.54057,0.526727,0.112013,-12.5953,0.0166701,
2,0,0,1,0,64209,0.0095397,0.00920964,-2.79877,33,0.00141861,10,-2.57757e-05,-2.55303,0.666731,0.0884914,-9.66368,0.009209644,
2,0,0,1,0,64209.1,0.00204518,0.00166282,-2.7705,33,0.0008965,10,-4.60685e-06,-2.55744,3.48369,0.0169361,-1.81867,0.001662825,
2,0,0,1,0,64209.2,0.000177222,-0.00023065,-2.74797,33,0.000766994,10,6.3382e-07,-2.56099, , , ,-0.00023065,