File: Figure_codes/Fig_3-5/rawdata_trumpetplot_data/after 10th/20221101_1-115_003_TrumpetPlot_ParaChange_from10_every3_08_CV_C01_14.csv
mode,ox/red,error,control changes,counter inc.,time/s,control/V,Ewe/V,<I>/mA,cycle number,(Q-Qo)/C,I Range,P/W,log(|I|),Tafel slope mV/dec,alpha_eff,dI/d(E-IR),E-IR/V,
2,0,0,0,0,28756.8,2.44065e-05,-0.000306236,-4.02562,15,0.0000000E+000,10,1.23279e-06,-2.39517, , , ,-0.000306236,
2,1,0,1,0,28756.9,0.0072942,0.00702159,0.823517,15,-8.17447e-05,10,5.7824e-06,-3.08433,0.00408919,14.4283,291.667,0.00702159,
2,1,0,1,0,28757,0.0147816,0.0144247,2.16821,15,6.8955e-05,10,3.12759e-05,-2.6639,0.0417247,1.41403,118.111,0.0144247,
2,1,0,1,0,28757.1,0.0222707,0.0219264,2.81208,15,0.000306149,10,6.16587e-05,-2.55097,0.0991768,0.594897,65.1148,0.0219264,
2,1,0,1,0,28757.2,0.0297581,0.0295,3.25213,15,0.000591862,10,9.59378e-05,-2.48783,0.146332,0.403193,51.0501,0.0295,
2,1,0,1,0,28757.3,0.0372544,0.0369305,3.61394,15,0.00091492,10,0.000133465,-2.44202,0.172954,0.341131,48.0951,0.0369305,
2,1,0,1,0,28757.4,0.0447507,0.0444239,3.95779,15,0.00127124,10,0.00017582,-2.40255,0.213481,0.276371,42.7157,0.0444239,
2,1,0,1,0,28757.5,0.0522381,0.0519068,4.289,15,0.00165853,10,0.000222628,-2.36764,0.233934,0.252208,42.1909,0.0519068,
2,1,0,1,0,28757.6,0.0597273,0.0594084,4.59995,15,0.00207564,10,0.000273276,-2.33725,0.245458,0.240367,43.1085,0.0594084,
2,1,0,1,0,28757.7,0.0672147,0.0669094,4.88698,15,0.00252075,10,0.000326985,-2.31096,0.302625,0.194961,37.1736,0.06690941,
2,1,0,1,0,28757.8,0.0747038,0.0744036,5.1528,15,0.00299171,10,0.000383387,-2.28796,0.372343,0.158456,31.8258,0.0744036,
2,1,0,1,0,28757.9,0.0822055,0.0818793,5.37933,15,0.00348686,10,0.000440456,-2.26927,0.408026,0.144599,30.3535,0.08187931,
2,1,0,1,0,28758,0.0896946,0.0893854,5.58109,15,0.00400122,10,0.000498868,-2.25328,0.463459,0.127304,27.7738,0.0893854,
2,1,0,1,0,28758.1,0.097182,0.0968605,5.81941,15,0.00453553,10,0.000563671,-2.23512,0.35983,0.163966,37.2487,0.0968605,
2,1,0,1,0,28758.2,0.104671,0.104353,6.14785,15,0.00509555,10,0.000641549,-2.21128,0.260541,0.226452,54.3422,0.104353,
2,1,0,1,0,28758.2,0.112159,0.111864,6.58497,15,0.00569169,10,0.000736619,-2.18145,0.234357,0.251753,64.7119,0.1118638,
2,1,0,1,0,28758.3,0.119655,0.1193,7.0722,15,0.00633291,10,0.000843717,-2.15045,0.287491,0.205224,56.6017,0.1193,
2,1,0,1,0,28758.4,0.127149,0.126831,7.4633,15,0.00701582,10,0.000946575,-2.12707,0.38105,0.154835,45.0856,0.126831,
2,1,0,1,0,28758.5,0.134639,0.134322,7.74775,15,0.00773007,10,0.00104069,-2.11082,0.544511,0.108354,32.8127,0.134322,
2,1,0,1,0,28758.6,0.142126,0.141803,7.94067,15,0.00846678,10,0.00112601,-2.10014,1.39667,0.0422432,13.0797,0.141803,
2,1,0,1,0,28758.7,0.149615,0.149274,7.86617,15,0.00921098,10,0.00117421,-2.10424,-0.422092,-0.13978,-42.7635,0.149274,
2,1,0,1,0,28758.8,0.157103,0.156785,7.19226,15,0.00992163,10,0.00112764,-2.14313,-0.126305,-0.467125,-130.628,0.156785,
2,1,0,1,0,28758.9,0.164606,0.164275,6.03659,15,0.0105445,10,0.00099166,-2.21921,-0.0873146,-0.675718,-159.222,0.164275,
2,1,0,1,0,28759,0.172095,0.171795,5.0154,15,0.0110599,10,0.000861619,-2.29969,-0.103157,-0.571946,-112.221,0.171795,
2,1,0,1,0,28759.1,0.179582,0.179295,4.34752,15,0.0114967,10,0.000779488,-2.36176,-0.147138,-0.400984,-68.2905,0.179295,
2,1,0,1,0,28759.2,0.18707,0.186773,3.9423,15,0.0118846,10,0.000736315,-2.40425,-0.214524,-0.275028,-42.395,0.186773,
2,1,0,1,0,28759.3,0.194559,0.194253,3.69574,15,0.0122421,10,0.000717908,-2.4323,-0.326575,-0.180663,-26.0437,0.194253,
2,1,0,1,0,28759.4,0.202062,0.201744,3.52263,15,0.012581,10,0.000710669,-2.45313,-0.457408,-0.128988,-17.7254,0.201744,
2,1,0,1,0,28759.5,0.20955,0.209261,3.40352,15,0.0129061,10,0.000712224,-2.46807,-0.507788,-0.11619,-15.4711,0.2092609,
2,1,0,1,0,28759.6,0.217039,0.216712,3.3209,15,0.0132221,10,0.000719679,-2.47874,-0.754071,-0.078242,-10.161,0.216712,
2,1,0,1,0,28759.7,0.224526,0.224206,3.26623,15,0.0135313,10,0.000732307,-2.48595,-1.36382,-0.043261,-5.51342,0.224206,
2,1,0,1,0,28759.7,0.232016,0.231696,3.21716,15,0.0138355,10,0.000745402,-2.49253,-1.37899,-0.042785,-5.37175,0.231696,
2,1,0,1,0,28759.8,0.23951,0.239179,3.17884,15,0.014136,10,0.000760313,-2.49773,-1.72941,-0.0341157,-4.22696,0.239179,
2,1,0,1,0,28759.9,0.247006,0.246697,3.14812,15,0.0144332,10,0.000776632,-2.50195,-2.13357,-0.0276532,-3.39199,0.246697,
2,1,0,1,0,28760,0.254494,0.25419,3.11445,15,0.0147272,10,0.000791662,-2.50662,-2.53587,-0.0232662,-2.82786,0.25419,
2,1,0,1,0,28760.1,0.261983,0.26171,3.08975,15,0.0150187,10,0.00080862,-2.51008,-1.31402,-0.0449004,-5.41261,0.26171,
2,1,0,1,0,28760.2,0.26947,0.269197,3.0664,15,0.0153077,10,0.000825466,-2.51337,-4.77009,-0.0123687,-1.48001,0.269197,
2,1,0,1,0,28760.3,0.276959,0.276637,3.03333,15,0.0155944,10,0.000839131,-2.51808,-2.18181,-0.0270418,-3.20727,0.276637,
2,1,0,1,0,28760.4,0.284461,0.284202,3.0157,15,0.0158792,10,0.000857067,-2.52061,-1.32433,-0.0445507,-5.23777,0.284202,
2,1,0,1,0,28760.5,0.29195,0.291667,2.98956,15,0.016161,10,0.000871954,-2.52439,-2.24616,-0.0262671,-3.0615,0.291667,
2,1,0,1,0,28760.6,0.299438,0.299149,2.95686,15,0.0164403,10,0.000884543,-2.52917,-0.0306733,-1.9235,-204.892,0.299149,
2,0,0,1,0,28760.7,0.29424,0.293915,-0.291987,15,0.0165143,10,-8.58194e-05,-3.53464,-0.00829335,-7.11414,192.989,0.293915,
2,0,0,1,0,28760.8,0.286753,0.286387,-1.02006,15,0.0164449,10,-0.000292133,-2.99137,-0.0413837,-1.42568,55.8606,0.286387,
2,0,0,1,0,28760.9,0.279264,0.278932,-1.31816,15,0.0163331,10,-0.000367675,-2.88003,-0.110461,-0.534123,27.459,0.278932,
2,0,0,1,0,28760.9,0.271776,0.271426,-1.51346,15,0.0161992,10,-0.000410792,-2.82003,-0.146683,-0.402229,23.6922,0.271426,
2,0,0,1,0,28761,0.26428,0.263954,-1.665,15,0.0160493,10,-0.000439483,-2.77859,-0.188981,-0.312201,20.2331,0.263954,
2,0,0,1,0,28761.1,0.256786,0.256469,-1.78568,15,0.0158867,10,-0.000457971,-2.7482,-0.272725,-0.216335,15.051,0.256469,
2,0,0,1,0,28761.2,0.249296,0.248968,-1.8945,15,0.0157135,10,-0.000471669,-2.72251,-0.430686,-0.136991,10.1087,0.248968,
2,0,0,1,0,28761.3,0.241809,0.241489,-1.98642,15,0.0155308,10,-0.000479699,-2.70193,-0.341425,-0.172805,13.427,0.241489,
2,0,0,1,0,28761.4,0.23432,0.233997,-2.07648,15,0.0153395,10,-0.00048589,-2.68267,-0.419471,-0.140653,11.4197,0.233997,
2,0,0,1,0,28761.5,0.226833,0.226504,-2.16241,15,0.0151401,10,-0.000489793,-2.66506,-0.486904,-0.121174,10.2123,0.226504,
2,0,0,1,0,28761.6,0.219329,0.219001,-2.25101,15,0.0149324,10,-0.000492973,-2.64762,-0.406377,-0.145185,12.7208,0.219001,
2,0,0,1,0,28761.7,0.21184,0.21153,-2.32345,15,0.0147176,10,-0.00049148,-2.63387,-0.499387,-0.118145,10.6918,0.21153,
2,0,0,1,0,28761.8,0.204353,0.204037,-2.40643,15,0.0144952,10,-0.000491001,-2.61863,-0.709921,-0.0831078,7.81045,0.204037,
2,0,0,1,0,28761.9,0.196863,0.196554,-2.48772,15,0.0142652,10,-0.000488971,-2.6042,-0.455783,-0.129448,12.5903,0.196554,
2,0,0,1,0,28762,0.189376,0.189086,-2.57059,15,0.0140272,10,-0.000486064,-2.58997,-0.446606,-0.132107,13.2981,0.1890863,
2,0,0,1,0,28762.1,0.18188,0.181569,-2.68107,15,0.01378,10,-0.000486799,-2.57169,-0.442827,-0.133235,13.9415,0.181569,
2,0,0,1,0,28762.2,0.174385,0.174061,-2.79834,15,0.0135226,10,-0.000487082,-2.5531,-0.343535,-0.171744,18.7545,0.174061,
2,0,0,1,0,28762.3,0.166896,0.166552,-2.95029,15,0.013253,10,-0.000491378,-2.53013,-0.304023,-0.194064,22.3357,0.166552,
2,0,0,1,0,28762.4,0.159409,0.159098,-3.15066,15,0.0129672,10,-0.000501264,-2.5016,-0.238749,-0.247121,30.4119,0.159098,
2,0,0,1,0,28762.4,0.151919,0.151616,-3.44868,15,0.0126584,10,-0.000522875,-2.46235,-0.163172,-0.361583,48.7915,0.151616,
2,0,0,1,0,28762.5,0.144425,0.144094,-3.92015,15,0.012314,10,-0.00056487,-2.4067,-0.112146,-0.5261,80.7056,0.1440939,
2,0,0,1,0,28762.6,0.136929,0.136557,-4.64406,15,0.0119136,10,-0.000634177,-2.3331,-0.095122,-0.620256,112.523,0.136557,
2,0,0,1,0,28762.7,0.129441,0.129111,-5.56047,15,0.0114361,10,-0.000717917,-2.25489,-0.0997516,-0.591469,128.102,0.129111,
2,0,0,1,0,28762.8,0.121952,0.121638,-6.46282,15,0.010872,10,-0.000786124,-2.18958,-0.134361,-0.439115,110.484,0.121638,
2,0,0,1,0,28762.9,0.114465,0.114132,-7.19481,15,0.0102304,10,-0.000821159,-2.14298,-0.20442,-0.288622,80.9428,0.1141321,
2,0,0,1,0,28763,0.106976,0.106658,-7.715,15,0.00953008,10,-0.00082287,-2.11266,-0.344261,-0.171381,51.5209,0.106658,
2,0,0,1,0,28763.1,0.0994721,0.0991223,-7.98002,15,0.00879115,10,-0.000790998,-2.098,-1.00106,-0.0589375,18.3282,0.0991223,
2,0,0,1,0,28763.2,0.0919847,0.0916824,-7.9568,15,0.00804211,10,-0.000729498,-2.09926,1.04899,0.0562445,-17.4651,0.0916824,
2,0,0,1,0,28763.3,0.0844973,0.0841586,-7.74025,15,0.00730504,10,-0.000651408,-2.11125,0.448708,0.131489,-39.7206,0.0841586,
2,0,0,1,0,28763.4,0.0770082,0.0766903,-7.45731,15,0.00659342,10,-0.000571903,-2.12742,0.506328,0.116525,-33.9009,0.0766903,
2,0,0,1,0,28763.5,0.0695208,0.0692111,-7.21965,15,0.00590609,10,-0.00049968,-2.14148,0.620381,0.0951029,-26.8244,0.0692111,
2,0,0,1,0,28763.6,0.0620245,0.0617114,-7.05363,15,0.00523641,10,-0.000435289,-2.15159,0.654347,0.0901663,-24.8177,0.0617114,
2,0,0,1,0,28763.7,0.0545282,0.0542279,-6.89753,15,0.00458222,10,-0.000374039,-2.16131,0.879993,0.067046,-18.0322,0.0542279,
2,0,0,1,0,28763.8,0.0470408,0.046715,-6.71795,15,0.00394401,10,-0.000313829,-2.17276,0.745926,0.0790963,-20.7533,0.046715,
2,0,0,1,0,28763.8,0.0395517,0.0392001,-6.54603,15,0.00332221,10,-0.000256605,-2.18402,0.567949,0.103883,-26.5077,0.0392001,
2,0,0,1,0,28763.9,0.0320643,0.0316947,-6.33132,15,0.00271866,10,-0.000200669,-2.19851,0.485884,0.121428,-29.9957,0.0316947,
2,0,0,1,0,28764,0.0245751,0.0242489,-6.09131,15,0.00213611,10,-0.000147708,-2.21529,0.425839,0.13855,-32.9408,0.0242489,
2,0,0,1,0,28764.1,0.0170735,0.0167756,-5.83756,15,0.00157547,10,-9.79283e-05,-2.23377,0.383691,0.15377,-35.0766,0.0167756,
2,0,0,1,0,28764.2,0.00958429,0.00924833,-5.62442,15,0.0010383,10,-5.20165e-05,-2.24992,0.510344,0.115608,-25.3686,0.00924833,
2,0,0,1,0,28764.3,0.0020969,0.00171088,-5.49157,15,0.000519675,10,-9.39544e-06,-2.2603,1.19431,0.0494007,-10.5341,0.00171088,
2,0,0,1,0,28764.3,0.000199195,-0.000189804,-5.44295,15,0.000390009,10,1.03309e-06,-2.26417, , , ,-0.000189804,