File: Figure_codes/Fig_3-5/rawdata_trumpetplot_data/after 10th/20221101_1-115_003_TrumpetPlot_ParaChange_from10_every3_11_CV_C01_10.csv
mode,ox/red,error,control changes,counter inc.,time/s,control/V,Ewe/V,<I>/mA,cycle number,(Q-Qo)/C,I Range,P/W,log(|I|),Tafel slope mV/dec,alpha_eff,dI/d(E-IR),E-IR/V,
2,1,0,1,0,20895.8,2.44065e-05,-0.000401673,9.72221,11,0.0000000E+000,10,-3.90515e-06,-2.01223, , , ,-0.000401673,
2,1,0,1,0,20895.8,0.0101427,0.00982277,13.5347,11,0.000300771,10,0.000132948,-1.86855,0.123074,0.479387,251.623,0.00982277,
2,1,0,1,0,20895.9,0.0205441,0.0201957,15.6367,11,0.000682006,10,0.000315794,-1.80585,0.214757,0.274728,167.301,0.0201957,
2,1,0,1,0,20895.9,0.0309482,0.0306173,17.1521,11,0.00110914,10,0.000525151,-1.76568,0.302578,0.194991,130.375,0.03061734,
2,1,0,1,0,20895.9,0.0413439,0.0409818,18.4091,11,0.00157173,10,0.000754439,-1.73497,0.36746,0.160562,115.254,0.0409818,
2,1,0,1,0,20896,0.0517425,0.0513875,19.5841,11,0.00206585,10,0.00100638,-1.7081,0.392621,0.150272,114.894,0.0513875,
2,1,0,1,0,20896,0.0621438,0.0618622,20.7771,11,0.00259065,10,0.00128532,-1.68242,0.423427,0.139339,112.966,0.0618622,
2,1,0,1,0,20896,0.0725479,0.0721853,22.0038,11,0.00314675,10,0.00158835,-1.6575,0.416516,0.141651,121.652,0.07218527,
2,1,0,1,0,20896,0.0829437,0.0825868,23.2527,11,0.00373525,10,0.00192037,-1.63353,0.461747,0.127776,115.902,0.0825868,
2,1,0,1,0,20896.1,0.0933422,0.0929586,24.4875,11,0.00435574,10,0.00227632,-1.61106,0.46913,0.125765,120.178,0.0929586,
2,1,0,1,0,20896.1,0.103749,0.103388,25.7186,11,0.0050087,10,0.00265899,-1.58975,0.51218,0.115194,115.631,0.103388,
2,1,0,1,0,20896.1,0.114148,0.113826,26.9478,11,0.00569328,10,0.00306737,-1.56948,0.495143,0.119157,125.325,0.113826,
2,1,0,1,0,20896.1,0.124543,0.124208,28.344,11,0.00641169,10,0.00352054,-1.54754,0.456092,0.12936,143.093,0.124208,
2,1,0,1,0,20896.2,0.134942,0.134594,29.9463,11,0.0071693,10,0.0040306,-1.52366,0.418897,0.140846,164.726,0.134594,
2,1,0,1,0,20896.2,0.145349,0.145027,31.6818,11,0.00797073,10,0.00459471,-1.49919,0.447885,0.13173,162.806,0.145027,
2,1,0,1,0,20896.2,0.155747,0.155379,33.2663,11,0.0088156,10,0.0051689,-1.478,0.54941,0.107388,139.27,0.155379,
2,1,0,1,0,20896.2,0.166143,0.165769,34.4817,11,0.0096976,10,0.005716,-1.46241,0.890932,0.0662228,89.0613,0.165769,
2,1,0,1,0,20896.3,0.176542,0.176169,34.9485,11,0.0106029,10,0.00615684,-1.45657,-5.62604,-0.0104869,-14.2814,0.176169,
2,1,0,1,0,20896.3,0.186949,0.186619,33.9846,11,0.0115027,10,0.00634218,-1.46872,-0.431697,-0.13667,-180.709,0.186619,
2,1,0,1,0,20896.3,0.197347,0.196982,31.2436,11,0.0123538,10,0.00615444,-1.50524,-0.219684,-0.268568,-326.79,0.196982,
2,1,0,1,0,20896.3,0.207743,0.207428,27.4964,11,0.0131178,10,0.00570353,-1.56072,-0.173626,-0.339811,-364.591,0.207428,
2,1,0,1,0,20896.4,0.218141,0.217796,23.9434,11,0.0137847,10,0.00521477,-1.62081,-0.18318,-0.322088,-301.42,0.217796,
2,1,0,1,0,20896.4,0.228548,0.228215,21.2238,11,0.0143698,10,0.00484358,-1.67318,-0.220264,-0.267861,-222.017,0.228215,
2,1,0,1,0,20896.4,0.238947,0.238623,19.2725,11,0.0148944,10,0.00459887,-1.71506,-0.281892,-0.2093,-157.561,0.238623,
2,1,0,1,0,20896.4,0.249343,0.249037,17.8874,11,0.0153764,10,0.00445461,-1.74745,-0.367246,-0.160655,-112.334,0.249037,
2,1,0,1,0,20896.5,0.259741,0.259464,16.8985,11,0.0158279,10,0.00438453,-1.77215,-0.491094,-0.12014,-79.2527,0.259464,
2,1,0,1,0,20896.5,0.270148,0.269843,16.1544,11,0.0162571,10,0.00435914,-1.79171,-0.59309,-0.099479,-62.7516,0.269843,
2,1,0,1,0,20896.5,0.280547,0.280259,15.5683,11,0.0166692,10,0.00436316,-1.80776,-0.716501,-0.0823446,-50.064,0.280259,
2,1,0,1,0,20896.6,0.290942,0.290624,15.0978,11,0.0170678,10,0.00438779,-1.82109,-0.833964,-0.0707464,-41.7027,0.290624,
2,1,0,0,0,20896.6,0.300012,0.299651,14.7532,11,0.0174065,10,0.00442082,-1.83111,0.0015332,38.4817,19093,0.299651,
2,1,0,1,0,20896.6,0.290704,0.290406,3.59577,11,0.017594,10,0.00104424,-2.44421,0.0109587,5.38385,711.511,0.290406,
2,0,0,1,0,20896.6,0.280305,0.279976,-1.52001,11,0.0176125,10,-0.000425566,-2.81815,-0.007112,-8.29584,340.711,0.279976,
2,0,0,1,0,20896.6,0.269909,0.269614,-4.21254,11,0.0175346,10,-0.00113576,-2.37546,-0.0479119,-1.23143,198.684,0.269614,
2,0,0,1,0,20896.7,0.2595,0.259165,-5.86283,11,0.0174019,10,-0.00151944,-2.23189,-0.102446,-0.575914,131.133,0.259165,
2,0,0,1,0,20896.7,0.249104,0.248777,-7.01331,11,0.0172337,10,-0.00174475,-2.15408,-0.17263,-0.341772,93.1875,0.2487769,
2,0,0,1,0,20896.7,0.238705,0.238376,-7.86686,11,0.0170398,10,-0.00187527,-2.1042,-0.24778,-0.238115,73.0402,0.238376,
2,0,0,1,0,20896.8,0.22831,0.22798,-8.55894,11,0.0168258,10,-0.00195127,-2.06758,-0.320765,-0.183935,61.5299,0.22798,
2,0,0,1,0,20896.8,0.2179,0.217572,-9.19062,11,0.0165949,10,-0.00199962,-2.03666,-0.372074,-0.158571,56.7345,0.2175723,
2,0,0,1,0,20896.8,0.207504,0.207162,-9.73743,11,0.0163489,10,-0.00201723,-2.01156,-0.43996,-0.134103,50.9565,0.207162,
2,0,0,1,0,20896.8,0.197106,0.19678,-10.2611,11,0.0160887,10,-0.00201918,-1.98881,-0.458776,-0.128603,51.5871,0.19678,
2,0,0,1,0,20896.9,0.18671,0.186422,-10.8103,11,0.0158147,10,-0.00201528,-1.96616,-0.44337,-0.133072,56.1615,0.1864218,
2,0,0,1,0,20896.9,0.1763,0.17597,-11.4124,11,0.0155259,10,-0.00200825,-1.94262,-0.425496,-0.138662,61.7229,0.17597,
2,0,0,1,0,20896.9,0.165905,0.165584,-12.1134,11,0.0152204,10,-0.00200578,-1.91673,-0.3694,-0.159719,75.5635,0.165584,
2,0,0,1,0,20896.9,0.155506,0.155174,-13.0338,11,0.0148941,10,-0.0020225,-1.88493,-0.278486,-0.21186,107.977,0.155174,
2,0,0,1,0,20897,0.145105,0.144772,-14.3829,11,0.0145386,10,-0.00208224,-1.84215,-0.21061,-0.280139,157.499,0.1447722,
2,0,0,1,0,20897,0.134701,0.13441,-16.3929,11,0.01414,10,-0.00220337,-1.78534,-0.162477,-0.363129,232.529,0.13441,
2,0,0,1,0,20897,0.124305,0.123971,-19.175,11,0.0136788,10,-0.00237715,-1.71727,-0.14978,-0.39391,295.112,0.123971,
2,0,0,1,0,20897,0.113906,0.113637,-22.3899,11,0.0131384,10,-0.00254431,-1.64995,-0.164051,-0.359644,314.102,0.113637,
2,0,0,1,0,20897.1,0.103505,0.103188,-25.4935,11,0.0125153,10,-0.00263063,-1.59357,-0.204553,-0.288434,286.301,0.103188,
2,0,0,1,0,20897.1,0.0931008,0.0928484,-28.1799,11,0.0118162,10,-0.00261646,-1.55006,-0.276344,-0.213502,234.521,0.0928484,
2,0,0,1,0,20897.1,0.0827051,0.0824267,-30.2737,11,0.0110547,10,-0.00249536,-1.51893,-0.407567,-0.144761,170.835,0.0824267,
2,0,0,1,0,20897.1,0.0723065,0.0719965,-31.6764,11,0.0102476,10,-0.00228059,-1.49926,-0.783768,-0.0752774,92.8919,0.0719965,
2,0,0,1,0,20897.2,0.0618996,0.0615918,-32.2266,11,0.00941517,10,-0.00198489,-1.49179,-4.6173,-0.012778,16.0579,0.0615918,
2,0,0,1,0,20897.2,0.0515011,0.05115,-32.1296,11,0.00857759,10,-0.00164343,-1.4931,2.57398,0.0229217,-28.7201,0.05115,
2,0,0,1,0,20897.2,0.0411053,0.0407622,-31.7023,11,0.00774758,10,-0.00129226,-1.49891,1.52206,0.0387634,-47.949,0.0407622,
2,0,0,1,0,20897.2,0.0307068,0.0304021,-31.1738,11,0.00693003,10,-0.000947747,-1.50621,1.37266,0.0429823,-52.31,0.0304021,
2,0,0,1,0,20897.3,0.0202999,0.0199783,-30.6009,11,0.00612683,10,-0.000611353,-1.51427,1.14476,0.0515391,-61.5343,0.0199783,
2,0,0,1,0,20897.3,0.00990136,0.00954388,-29.9075,11,0.00534008,10,-0.000285434,-1.52422,0.907741,0.0649965,-75.8151,0.009543879,
2,0,0,1,0,20897.3,-0.000494411,-0.000855527,-29.0267,11,0.00457385,10,2.48332e-05,-1.5372,0.687543,0.0858128,-97.0398,-0.000855527,
2,0,0,1,0,20897.4,-0.010893,-0.0113122,-27.8394,11,0.0038345,10,0.000314925,-1.55534,0.541258,0.109005,-118.432,-0.0113122,
2,0,0,1,0,20897.4,-0.0212998,-0.0216904,-26.6246,11,0.00312679,10,0.000577498,-1.57472,0.563812,0.104645,-108.747,-0.0216904,
2,0,0,1,0,20897.4,-0.0316984,-0.0320845,-25.5818,11,0.00244896,10,0.00082078,-1.59207,0.698407,0.0844779,-84.3296,-0.0320845,
2,0,0,1,0,20897.4,-0.0420942,-0.0424033,-24.8527,11,0.00179415,10,0.00105384,-1.60463,1.04733,0.0563338,-54.6903,-0.0424033,
2,0,0,1,0,20897.5,-0.0524927,-0.0528727,-24.45,11,0.00115369,10,0.00129274,-1.61172,2.57668,0.0228977,-21.8775,-0.0528727,
2,0,0,1,0,20897.5,-0.0628996,-0.0632605,-24.366,11,0.00051967,10,0.0015414,-1.61322,-26.2773,-0.00224528,2.13385,-0.0632605,
2,0,0,1,0,20897.5,-0.0732982,-0.0736493,-24.4637,11,-0.000114561,10,0.00180173,-1.61148,-2.93691,-0.0200891,19.188,-0.07364928,
2,0,0,1,0,20897.5,-0.0836939,-0.0840593,-24.7667,11,-0.000754249,10,0.00208187,-1.60613,-1.60452,-0.0367711,35.562,-0.0840593,
2,0,0,1,0,20897.6,-0.0940925,-0.0944948,-25.2404,11,-0.00140397,10,0.00238509,-1.5979,-1.10115,-0.0535804,52.772,-0.09449476,
2,0,0,1,1,20897.6,-0.0978574,-0.0983122,-21.0552,11,-0.00190926,10,0.00206998,-1.67664,-0.0283338,-2.08232,1674.06,-0.0983122,
2,0,0,1,1,20897.6,-0.0874588,-0.0878651,-8.75459,11,-0.00227858,10,0.000769223,-2.05776,-0.0219738,-2.68502,902.671,-0.0878651,
2,0,0,1,1,20897.6,-0.077052,-0.0774678,-1.14199,11,-0.00239992,10,8.84676e-05,-2.94234,-0.00965738,-6.10931,609.236,-0.0774678,
2,1,0,1,1,20897.7,-0.0666562,-0.0670504,4.23686,11,-0.00235543,10,-0.000284083,-2.37296,0.02117,2.78696,435.63,-0.0670504,
2,1,0,1,1,20897.7,-0.0562576,-0.0566775,8.211,11,-0.00219075,10,-0.000465379,-2.0856,0.0566321,1.04181,330.906,-0.0566775,
2,1,0,1,1,20897.7,-0.0458563,-0.0462547,11.2302,11,-0.00193585,10,-0.000519448,-1.94961,0.103388,0.570666,248.64,-0.0462547,
2,1,0,1,1,20897.7,-0.0354522,-0.0358224,13.4598,11,-0.00161339,10,-0.000482162,-1.87096,0.167574,0.352083,184.177,-0.0358224,
2,1,0,1,1,20897.8,-0.0250564,-0.0254485,15.0885,11,-0.00124098,10,-0.000383979,-1.82135,0.262079,0.225123,132.542,-0.0254485,
2,1,0,1,1,20897.8,-0.0146579,-0.0150363,16.2913,11,-0.00083207,10,-0.000244961,-1.78804,0.381614,0.154607,98.1805,-0.0150363,
2,1,0,1,1,20897.8,-0.00425653,-0.00465391,17.14,11,-0.000396886,10,-7.97678e-05,-1.76599,0.581107,0.10153,67.8369,-0.00465391,
2,1,0,0,1,20897.8,-7.54729e-05,-0.000382585,17.3819,11,-0.00021551,10,-6.65008e-06,-1.7599, , , ,-0.000382585,