File: Figure_codes/Fig_3-5/rawdata_trumpetplot_data/after 10th/20221101_1-115_003_TrumpetPlot_ParaChange_from10_every3_14_CV_C01_27.csv
mode,ox/red,error,control changes,counter inc.,time/s,control/V,Ewe/V,<I>/mA,cycle number,(Q-Qo)/C,I Range,P/W,log(|I|),Tafel slope mV/dec,alpha_eff,dI/d(E-IR),E-IR/V,
2,1,0,1,0,54392.6,2.44065e-05,-0.00042076,32.101,28,0.0000000E+000,10,-1.35068e-05,-1.49348, , , ,-0.00042076,
2,1,0,1,0,54392.6,0.0133084,0.0128863,35.8735,28,0.000449765,10,0.000462277,-1.44523,0.373267,0.158064,220.45,0.01288628,
2,1,0,1,0,54392.7,0.0273414,0.0269398,38.5621,28,0.000971876,10,0.00103886,-1.41384,0.504809,0.116876,175.481,0.0269398,
2,1,0,1,0,54392.7,0.0413245,0.0409796,40.8192,28,0.00152812,10,0.00167276,-1.38914,0.629413,0.0937381,149.097,0.0409796,
2,1,0,1,0,54392.7,0.0553076,0.0549515,42.7928,28,0.00211372,10,0.00235153,-1.36863,0.714745,0.082547,137.807,0.0549515,
2,1,0,1,0,54392.7,0.0693407,0.0689404,44.634,28,0.00272608,10,0.00307709,-1.35033,0.806298,0.0731739,127.353,0.0689404,
2,1,0,1,0,54392.7,0.0833238,0.0828986,46.3444,28,0.00336321,10,0.00384188,-1.334,0.874941,0.0674331,121.959,0.0828986,
2,1,0,1,0,54392.7,0.0973069,0.0968811,48.0842,28,0.00402426,10,0.00465844,-1.318,0.869746,0.0678359,127.31,0.0968811,
2,1,0,1,0,54392.7,0.11134,0.11087,49.8408,28,0.00470998,10,0.00552585,-1.30241,0.913461,0.0645895,125.617,0.11087,
2,1,0,1,0,54392.8,0.125323,0.124917,51.6678,28,0.00542023,10,0.00645419,-1.28678,0.852404,0.069216,139.533,0.124917,
2,1,0,1,0,54392.8,0.139306,0.138911,53.64,28,0.00615747,10,0.00745121,-1.27051,0.836102,0.0705656,147.836,0.138911,
2,1,0,1,0,54392.8,0.153339,0.15289,55.8161,28,0.00692371,10,0.0085337,-1.25324,0.811991,0.0726609,158.307,0.15289,
2,1,0,1,0,54392.8,0.167322,0.166873,58.0401,28,0.00772108,10,0.00968533,-1.23627,0.859297,0.0686607,155.459,0.166873,
2,1,0,1,0,54392.8,0.181305,0.180904,60.1155,28,0.00854873,10,0.0108752,-1.22101,1.01147,0.0583309,136.719,0.180904,
2,1,0,1,0,54392.8,0.195338,0.194911,61.8159,28,0.00940301,10,0.0120486,-1.2089,1.48667,0.0396859,95.5435,0.194911,
2,1,0,1,0,54392.8,0.209322,0.208927,62.7662,28,0.0102761,10,0.0131135,-1.20227,3.83181,0.0153974,37.6326,0.208927,
2,1,0,1,0,54392.9,0.223305,0.222944,62.8496,28,0.0111565,10,0.014012,-1.2017,-6.26337,-0.00941984,-23.0615,0.222944,
2,1,0,1,0,54392.9,0.237338,0.236997,62.1048,28,0.0120322,10,0.0147186,-1.20687,-1.63575,-0.036069,-87.2227,0.236997,
2,1,0,1,0,54392.9,0.251321,0.250967,60.4664,28,0.0128909,10,0.0151751,-1.21849,-0.974704,-0.0605312,-142.566,0.250967,
2,1,0,1,0,54392.9,0.265304,0.264967,58.1091,28,0.0137216,10,0.015397,-1.23576,-0.708752,-0.0832449,-188.513,0.2649672,
2,1,0,1,0,54392.9,0.279337,0.279009,55.2337,28,0.0145153,10,0.0154107,-1.2578,-0.574347,-0.102725,-221.156,0.279009,
2,1,0,1,0,54392.9,0.29332,0.292979,52.0384,28,0.0152659,10,0.0152461,-1.28368,-0.530115,-0.111297,-226.781,0.292979,
2,1,0,1,0,54392.9,0.298714,0.298555,47.7147,28,0.0156722,10,0.0142454,-1.32135,0.0560528,1.05258,1770.55,0.298555,
2,1,0,1,0,54392.9,0.28473,0.284464,29.9793,28,0.0162008,10,0.00852801,-1.52318,0.070841,0.832851,979.891,0.284464,
2,1,0,1,0,54393,0.270747,0.270469,18.4874,28,0.0165349,10,0.00500027,-1.73312,0.0597405,0.987605,707.185,0.270469,
2,1,0,1,0,54393,0.256714,0.256416,9.79178,28,0.0167293,10,0.00251077,-2.00914,0.0397581,1.48397,546.159,0.256416,
2,1,0,1,0,54393,0.242731,0.242403,2.99964,28,0.0168164,10,0.00072712,-2.52293,0.0112529,5.24311,435.267,0.242403,
2,0,0,1,0,54393,0.228748,0.228467,-2.46335,28,0.0168184,10,-0.000562794,-2.60847,-0.0160729,-3.67076,352.526,0.228467,
2,0,0,1,0,54393,0.214715,0.214362,-6.95338,28,0.0167509,10,-0.00149054,-2.1578,-0.0515951,-1.14352,292.691,0.214362,
2,0,0,1,0,54393,0.200732,0.200431,-10.6828,28,0.0166263,10,-0.00214117,-1.97131,-0.0975363,-0.604903,247.419,0.200431,
2,0,0,1,0,54393,0.186735,0.186406,-13.9193,28,0.0164533,10,-0.00259463,-1.85638,-0.14606,-0.403943,217.344,0.186406,
2,0,0,1,0,54393.1,0.172716,0.172375,-16.7948,28,0.0162376,10,-0.002895,-1.77482,-0.196323,-0.300525,196.047,0.172375,
2,0,0,1,0,54393.1,0.158733,0.158371,-19.4917,28,0.0159833,10,-0.00308691,-1.71015,-0.22926,-0.25735,195.591,0.158371,
2,0,0,1,0,54393.1,0.144719,0.144387,-22.341,28,0.0156906,10,-0.00322575,-1.6509,-0.239703,-0.246138,214.775,0.144387,
2,0,0,1,0,54393.1,0.130717,0.13041,-25.6052,28,0.0153553,10,-0.00333918,-1.59167,-0.228305,-0.258426,258.936,0.13041,
2,0,0,1,0,54393.1,0.116733,0.116397,-29.6246,28,0.0149693,10,-0.0034482,-1.52835,-0.216282,-0.272792,315.779,0.1163968,
2,0,0,1,0,54393.1,0.102703,0.102375,-34.333,28,0.0145219,10,-0.00351484,-1.46429,-0.231922,-0.254396,339.786,0.102375,
2,0,0,1,0,54393.1,0.0887173,0.0883692,-39.0251,28,0.0140079,10,-0.00344861,-1.40866,-0.274908,-0.214617,325.752,0.0883692,
2,0,0,1,0,54393.2,0.0747341,0.0744344,-43.3425,28,0.0134302,10,-0.00322617,-1.36309,-0.347504,-0.169782,286.133,0.0744344,
2,0,0,1,0,54393.2,0.0607011,0.0604657,-46.979,28,0.0127969,10,-0.00284062,-1.3281,-0.458354,-0.128722,235.402,0.0604657,
2,0,0,1,0,54393.2,0.046718,0.046463,-49.9302,28,0.0121172,10,-0.00231991,-1.30164,-0.625267,-0.0943597,183.402,0.04646299,
2,0,0,1,0,54393.2,0.0327349,0.0324932,-52.1735,28,0.0114016,10,-0.00169528,-1.28255,-0.839701,-0.0702631,142.851,0.0324932,
2,0,0,1,0,54393.2,0.0187018,0.0183771,-54.0106,28,0.0106579,10,-0.000992557,-1.26752,-1.11647,-0.0528451,111.129,0.0183771,
2,0,0,1,0,54393.2,0.00471873,0.00440621,-55.2336,28,0.00989234,10,-0.000243371,-1.2578,-1.76991,-0.033335,71.7953,0.00440621,
2,0,0,1,0,54393.2,-0.00926438,-0.00962509,-56.0248,28,0.00911267,10,0.000539244,-1.25162,-3.61344,-0.0163279,35.6457,-0.00962509,
2,0,0,1,0,54393.3,-0.0232974,-0.0236818,-56.3446,28,0.00832582,10,0.00133434,-1.24915,-19.1208,-0.00308565,6.77239,-0.0236818,
2,0,0,1,0,54393.3,-0.0372805,-0.0376697,-56.1813,28,0.00753782,10,0.00211633,-1.25041,6.04332,0.00976284,-21.3916,-0.0376697,
2,0,0,1,0,54393.3,-0.0512637,-0.0516257,-55.7709,28,0.00675397,10,0.00287921,-1.25359,3.53607,0.0166852,-36.2999,-0.0516257,
2,0,0,1,0,54393.3,-0.0652967,-0.0656824,-55.2722,28,0.0059769,10,0.00363041,-1.25749,3.34378,0.0176447,-38.0329,-0.0656824,
2,0,0,1,0,54393.3,-0.0792798,-0.079647,-54.6847,28,0.00520728,10,0.00435547,-1.26213,3.32288,0.0177557,-37.9146,-0.079647,
2,0,0,1,0,54393.3,-0.0932629,-0.0936475,-54.2118,28,0.00444503,10,0.0050768,-1.26591,4.07807,0.0144676,-30.6242,-0.0936475,
2,0,0,1,0,54393.3,-0.107296,-0.107712,-53.9119,28,0.00368849,10,0.00580694,-1.26832,7.36272,0.00801334,-16.8576,-0.107712,
2,0,0,1,0,54393.3,-0.121279,-0.121649,-53.7064,28,0.00293545,10,0.00653331,-1.26997,16.7051,0.00353186,-7.40722,-0.121649,
2,0,0,1,0,54393.4,-0.135262,-0.135653,-53.6752,28,0.00218388,10,0.00728123,-1.27023,-32.6171,-0.00180886,3.79196,-0.135653,
2,0,0,1,0,54393.4,-0.149295,-0.149655,-53.87,28,0.00143126,10,0.00806192,-1.26865,-7.41617,-0.00795559,16.7203,-0.149655,
2,0,0,1,0,54393.4,-0.163278,-0.163644,-54.1126,28,0.000675525,10,0.0088552,-1.2667,-5.56981,-0.0105928,22.3774,-0.1636439,
2,0,0,1,0,54393.4,-0.177261,-0.177643,-54.4365,28,-8.44187e-05,10,0.00967028,-1.26411,-5.19247,-0.0113626,24.1467,-0.177643,
2,0,0,1,0,54393.4,-0.191295,-0.19162,-54.8328,28,-0.00084933,10,0.010507,-1.26096,-5.03222,-0.0117244,25.0718,-0.19162,
2,0,0,0,1,54393.4,-0.199984,-0.200609,-54.6579,28,-0.00135997,10,0.0109648,-1.26235,-0.0399107,-1.4783,2794.35,-0.200609,
2,0,0,1,1,54393.4,-0.186686,-0.187153,-35.9259,28,-0.0019301,10,0.00672365,-1.44459,-0.0841377,-0.701232,997.553,-0.187153,
2,0,0,1,1,54393.5,-0.172667,-0.173137,-24.6513,28,-0.00234842,10,0.00426805,-1.60816,-0.0820499,-0.719074,691.326,-0.173137,
2,0,0,1,1,54393.5,-0.158684,-0.159124,-16.0377,28,-0.00263022,10,0.00255199,-1.79486,-0.0653021,-0.903493,559.19,-0.159124,
2,0,0,1,1,54393.5,-0.14467,-0.145146,-8.8366,28,-0.00280262,10,0.0012826,-2.05371,-0.0406828,-1.45024,477.842,-0.145146,
2,0,0,1,1,54393.5,-0.130668,-0.1311,-2.61971,28,-0.00288124,10,0.000343443,-2.58175,-0.0161796,-3.64657,419.908,-0.1311,
2,1,0,1,1,54393.5,-0.116685,-0.117145,2.94059,28,-0.00287776,10,-0.000344476,-2.53157,0.010264,5.74824,379.203,-0.117145,
2,1,0,1,1,54393.5,-0.102654,-0.103172,8.06429,28,-0.00280002,10,-0.000832009,-2.09343,0.0502661,1.17375,349.582,-0.103172,
2,1,0,1,1,54393.5,-0.0886685,-0.0891461,12.7432,28,-0.00265352,10,-0.001136,-1.89472,0.0888492,0.664047,324.389,-0.0891461,
2,1,0,1,1,54393.6,-0.0746854,-0.0751392,17.1019,28,-0.0024437,10,-0.00128502,-1.76696,0.130162,0.453282,299.681,-0.07513915,
2,1,0,1,1,54393.6,-0.0606523,-0.0610803,21.1897,28,-0.00217519,10,-0.00129427,-1.67387,0.174934,0.337271,276.633,-0.0610803,
2,1,0,1,1,54393.6,-0.0466692,-0.047085,24.8716,28,-0.00185223,10,-0.00117108,-1.6043,0.223738,0.263701,254.838,-0.047085,
2,1,0,1,1,54393.6,-0.0326861,-0.033128,28.2748,28,-0.00147951,10,-0.000936686,-1.5486,0.278099,0.212155,233.442,-0.033128,
2,1,0,1,1,54393.6,-0.018653,-0.0191285,31.4366,28,-0.00106099,10,-0.000601333,-1.50257,0.339157,0.173961,212.706,-0.01912846,
2,1,0,1,1,54393.6,-0.00466992,-0.00510246,34.2471,28,-0.000600655,10,-0.000174744,-1.46538, , , ,-0.005102457,
2,1,0,0,1,54393.6,-0.000175352,-0.000649808,35.077,28,-0.000444625,10,-2.27933e-05,-1.45498, , , ,-0.000649808,