File: Figure_codes/Fig_3-5/rawdata_trumpetplot_data/after 10th/20221101_1-115_003_TrumpetPlot_ParaChange_from10_every3_13_CV_C01_3.csv
mode,ox/red,error,control changes,counter inc.,time/s,control/V,Ewe/V,<I>/mA,cycle number,(Q-Qo)/C,I Range,P/W,log(|I|),Tafel slope mV/dec,alpha_eff,dI/d(E-IR),E-IR/V,
2,1,0,1,0,7108.25,2.44065e-05,-0.000287149,26.2635,4,0.0000000E+000,10,-7.54153e-06,-1.58065, , , ,-0.0002871489,
2,1,0,1,0,7108.26,0.0122624,0.0118842,30.6073,4,0.00043495,10,0.000363744,-1.51417,0.271503,0.217309,257.914,0.0118842,
2,1,0,1,0,7108.28,0.0250636,0.0247363,33.3386,4,0.0009482,10,0.000824673,-1.47705,0.419373,0.140686,182.588,0.0247363,
2,1,0,1,0,7108.29,0.0378704,0.0375057,35.4574,4,0.00149918,10,0.00132985,-1.45029,0.528045,0.111733,154.417,0.0375057,
2,1,0,1,0,7108.31,0.0506632,0.0503176,37.3793,4,0.00208192,10,0.00188083,-1.42737,0.557521,0.105826,154.387,0.0503176,
2,1,0,1,0,7108.33,0.0634672,0.0631326,39.4308,4,0.00269636,10,0.00248937,-1.40416,0.537113,0.109846,169.125,0.0631326,
2,1,0,1,0,7108.34,0.0762629,0.0759137,41.7084,4,0.00334552,10,0.00316624,-1.37978,0.509742,0.115745,188.538,0.07591366,
2,1,0,1,0,7108.36,0.0890668,0.0887117,44.2415,4,0.00403317,10,0.00392474,-1.35417,0.489833,0.120449,208.124,0.0887117,
2,1,0,1,0,7108.37,0.10186,0.101512,46.9843,4,0.00476333,10,0.00476947,-1.32805,0.508981,0.115918,212.453,0.101512,
2,1,0,1,0,7108.39,0.114666,0.11426,49.8524,4,0.00553769,10,0.00569614,-1.30231,0.484851,0.121687,236.679,0.11426,
2,1,0,1,0,7108.41,0.127462,0.127084,52.883,4,0.00635994,10,0.00672057,-1.27668,0.496005,0.11895,245.721,0.127084,
2,1,0,1,0,7108.42,0.140263,0.139911,56.2396,4,0.00723288,10,0.00786855,-1.24996,0.464059,0.127139,279.27,0.139911,
2,1,0,1,0,7108.44,0.153064,0.152682,59.9834,4,0.00816271,10,0.00915838,-1.22197,0.464999,0.126882,296.984,0.152682,
2,1,0,1,0,7108.45,0.165866,0.165565,63.8172,4,0.00915367,10,0.0105659,-1.19506,0.50283,0.117336,291.917,0.165565,
2,1,0,1,0,7108.47,0.178667,0.178286,67.2912,4,0.0102036,10,0.0119971,-1.17204,0.641252,0.0920076,241.171,0.178286,
2,1,0,1,0,7108.49,0.191463,0.191084,69.8043,4,0.0113026,10,0.0133385,-1.15612,1.24769,0.0472875,128.341,0.1910844,
2,1,0,1,0,7108.5,0.204269,0.203934,70.1432,4,0.0124263,10,0.0143046,-1.15401,-1.46384,-0.040305,-109.575,0.203934,
2,1,0,1,0,7108.52,0.217062,0.216765,66.7466,4,0.0135266,10,0.0144683,-1.17557,-0.363639,-0.162249,-419.405,0.216765,
2,1,0,1,0,7108.53,0.229866,0.229612,59.7383,4,0.0145415,10,0.0137166,-1.22375,-0.217558,-0.271192,-629.441,0.229612,
2,1,0,1,0,7108.55,0.242662,0.242387,51.3775,4,0.0154295,10,0.0124532,-1.28923,-0.189481,-0.311377,-624.989,0.242387,
2,1,0,1,0,7108.57,0.255466,0.255151,44.1263,4,0.0161905,10,0.0112589,-1.3553,-0.208046,-0.283591,-490.397,0.255151,
2,1,0,1,0,7108.58,0.268259,0.267981,38.7994,4,0.016851,10,0.0103975,-1.41118,-0.258468,-0.228268,-347.238,0.267981,
2,1,0,1,0,7108.6,0.281065,0.280782,35.1477,4,0.0174406,10,0.00986884,-1.4541,-0.344413,-0.171306,-235.81,0.280782,
2,1,0,1,0,7108.61,0.293861,0.293513,32.6499,4,0.0179816,10,0.00958318,-1.48612,-0.462207,-0.127649,-163.314,0.2935133,
2,1,0,1,0,7108.62,0.298983,0.298886,28.8697,4,0.0182676,10,0.00862875,-1.53956,0.0224767,2.62494,2330.96,0.298886,
2,1,0,1,0,7108.64,0.286187,0.28596,7.0554,4,0.0185275,10,0.00201756,-2.15148,0.0108854,5.4201,1136.24,0.28596,
2,0,0,1,0,7108.66,0.273386,0.273134,-3.35291,4,0.0185473,10,-0.000915795,-2.47458,-0.0158754,-3.71645,599.441,0.273134,
2,0,0,1,0,7108.67,0.260585,0.260334,-9.18098,4,0.0184422,10,-0.00239012,-2.03711,-0.0566117,-1.04219,355.032,0.260334,
2,0,0,1,0,7108.69,0.247783,0.2475,-12.7962,4,0.0182638,10,-0.00316706,-1.89292,-0.126726,-0.46557,229.013,0.2475,
2,0,0,1,0,7108.7,0.234982,0.234657,-15.2811,4,0.0180379,10,-0.00358581,-1.81585,-0.211498,-0.278962,165.121,0.234657,
2,0,0,1,0,7108.72,0.222187,0.221915,-17.1306,4,0.0177779,10,-0.00380152,-1.76623,-0.299096,-0.197261,131.442,0.221915,
2,0,0,1,0,7108.74,0.20938,0.209052,-18.6712,4,0.017491,10,-0.00390324,-1.72883,-0.379145,-0.155613,113.234,0.209052,
2,0,0,1,0,7108.75,0.196587,0.196298,-20.0769,4,0.0171806,10,-0.00394107,-1.6973,-0.422655,-0.139594,109.358,0.196298,
2,0,0,1,0,7108.77,0.183783,0.183504,-21.4893,4,0.0168479,10,-0.00394337,-1.66778,-0.432304,-0.136478,114.55,0.183504,
2,0,0,1,0,7108.78,0.170987,0.170681,-23.0799,4,0.0164916,10,-0.0039393,-1.63677,-0.387301,-0.152336,137.449,0.170681,
2,0,0,1,0,7108.8,0.158183,0.157863,-25.1035,4,0.0161067,10,-0.00396291,-1.60027,-0.311962,-0.189126,185.845,0.157863,
2,0,0,1,0,7108.82,0.145385,0.145127,-27.904,4,0.0156835,10,-0.00404963,-1.55433,-0.243928,-0.241875,264.667,0.145127,
2,0,0,1,0,7108.83,0.132584,0.132298,-31.9484,4,0.0152059,10,-0.00422669,-1.49555,-0.198136,-0.297776,372.876,0.132298,
2,0,0,1,0,7108.85,0.119783,0.119538,-37.4735,4,0.0146518,10,-0.0044795,-1.42628,-0.180807,-0.326315,477.593,0.119538,
2,0,0,1,0,7108.86,0.106987,0.106693,-43.9368,4,0.0140005,10,-0.00468775,-1.35717,-0.198856,-0.296697,507.135,0.106693,
2,0,0,1,0,7108.88,0.0941801,0.0940137,-50.3328,4,0.0132457,10,-0.00473198,-1.29815,-0.23799,-0.247909,485.189,0.0940137,
2,0,0,1,0,7108.9,0.0813844,0.0811595,-56.0404,4,0.0123927,10,-0.00454821,-1.2515,-0.316083,-0.18666,407.025,0.08115948,
2,0,0,1,0,7108.91,0.0685832,0.0683583,-60.711,4,0.0114568,10,-0.0041501,-1.21673,-0.444503,-0.132733,313.456,0.0683583,
2,0,0,1,0,7108.93,0.0557876,0.0555008,-63.9403,4,0.0104568,10,-0.00354874,-1.19423,-0.802477,-0.0735223,182.82,0.0555008,
2,0,0,1,0,7108.94,0.0429808,0.0426689,-65.4522,4,0.00941925,10,-0.00279277,-1.18408,-2.64831,-0.0222784,56.7387,0.0426689,
2,0,0,1,0,7108.96,0.030188,0.0298729,-65.5053,4,0.00837007,10,-0.00195684,-1.18372,4.43334,0.0133083,-33.9705,0.0298729,
2,0,0,1,0,7108.98,0.017384,0.0170961,-64.7374,4,0.00732737,10,-0.00110676,-1.18884,1.97667,0.0298482,-75.3711,0.0170961,
2,0,0,1,0,7108.99,0.00458834,0.0042726,-63.5773,4,0.00630028,10,-0.00027164,-1.1967,1.45624,0.0405152,-100.518,0.0042726,
2,0,0,1,0,7109.01,-0.00821564,-0.00856469,-62.0943,4,0.00529389,10,0.000531819,-1.20695,1.00214,0.0588742,-142.49,-0.00856469,
2,0,0,1,0,7109.02,-0.0210196,-0.0214126,-59.9656,4,0.0043167,10,0.00128402,-1.2221,0.714673,0.0825553,-192.883,-0.0214126,
2,0,0,1,0,7109.04,-0.0338153,-0.0341852,-57.2286,4,0.00337882,10,0.00195637,-1.24239,0.587565,0.100414,-224.146,-0.0341852,
2,0,0,1,0,7109.06,-0.0466193,-0.0470034,-54.4022,4,0.00248644,10,0.00255709,-1.26438,0.619215,0.0952819,-202.531,-0.0470034,
2,0,0,1,0,7109.07,-0.0594121,-0.0597813,-52.14,4,0.00163526,10,0.003117,-1.28283,0.838246,0.070385,-143.528,-0.0597813,
2,0,0,1,0,7109.09,-0.0722189,-0.0725507,-50.7416,4,0.000813327,10,0.00368134,-1.29464,1.5055,0.0391896,-77.7565,-0.0725507,
2,0,0,1,0,7109.1,-0.0850146,-0.0853731,-50.1346,4,7.32922e-06,10,0.00428015,-1.29986,5.61339,0.0105106,-20.5968,-0.0853731,
2,0,0,1,0,7109.12,-0.0978158,-0.0981744,-50.1739,4,-0.000794371,10,0.00492579,-1.29952,-4.58509,-0.0128678,25.2315,-0.0981744,
2,0,0,1,0,7109.14,-0.110611,-0.110932,-50.7121,4,-0.0016011,10,0.0056256,-1.29489,-1.91397,-0.0308259,61.1067,-0.110932,
2,0,0,1,0,7109.15,-0.123418,-0.123783,-51.7201,4,-0.00242049,10,0.00640208,-1.28634,-1.29085,-0.0457061,92.3533,-0.123783,
2,0,0,1,0,7109.17,-0.136214,-0.136559,-53.0643,4,-0.00325865,10,0.00724641,-1.2752,-1.07527,-0.0548701,113.693,-0.136559,
2,0,0,1,0,7109.18,-0.149015,-0.149364,-54.6402,4,-0.00412028,10,0.00816131,-1.26249,-0.97574,-0.0604669,128.946,-0.149364,
2,0,0,1,0,7109.2,-0.161816,-0.162116,-56.3316,4,-0.00500812,10,0.00913225,-1.24925,-0.961673,-0.0613514,134.865,-0.162116,
2,0,0,1,0,7109.22,-0.174615,-0.174952,-58.0394,4,-0.00592345,10,0.0101541,-1.23628,-0.99155,-0.0595028,134.81,-0.174952,
2,0,0,1,0,7109.23,-0.187419,-0.187716,-59.7837,4,-0.00686639,10,0.0112224,-1.22342,-1.00933,-0.0584544,136.393,-0.187716,
2,0,0,1,0,7109.25,-0.199647,-0.199974,-61.4469,4,-0.00779416,10,0.0122878,-1.2115,0.314605,0.187537,-435.407,-0.199974,
2,0,0,1,1,7109.26,-0.192535,-0.192959,-44.6528,4,-0.00832707,10,0.00861614,-1.35015,-0.0563294,-1.04741,1852.74,-0.192959,
2,0,0,1,1,7109.27,-0.179739,-0.180156,-25.9272,4,-0.00888049,10,0.00467093,-1.58624,-0.0482985,-1.22157,1226.63,-0.180156,
2,0,0,1,1,7109.29,-0.166932,-0.167349,-12.2598,4,-0.00917991,10,0.00205166,-1.91152,-0.028197,-2.09242,945.147,-0.167349,
2,0,0,1,1,7109.3,-0.154139,-0.154575,-1.49054,4,-0.00928565,10,0.0002304,-2.82666,-0.0398404,-1.48091,761.995,-0.1545753,
2,1,0,1,1,7109.32,-0.141335,-0.141812,7.3567,4,-0.00923544,10,-0.00104327,-2.13332,0.0230979,2.55434,632.453,-0.141812,
2,1,0,1,1,7109.34,-0.12854,-0.129052,14.7977,4,-0.00905595,10,-0.00190968,-1.82981,0.0618252,0.954304,535.376,-0.129052,
2,1,0,1,1,7109.35,-0.115736,-0.116194,21.1399,4,-0.00876646,10,-0.00245633,-1.6749,0.105835,0.557471,453.957,-0.116194,
2,1,0,1,1,7109.37,-0.102932,-0.103362,26.4777,4,-0.00838389,10,-0.00273678,-1.57712,0.158282,0.372752,382.495,-0.103362,
2,1,0,1,1,7109.38,-0.0901362,-0.0905225,31.001,4,-0.00792259,10,-0.00280629,-1.50862,0.216459,0.272569,328.453,-0.0905225,
2,1,0,1,1,7109.4,-0.0773322,-0.0777075,34.8577,4,-0.00739438,10,-0.0027087,-1.4577,0.290492,0.203104,275.499,-0.0777075,
2,1,0,1,1,7109.42,-0.0645393,-0.064919,38.099,4,-0.00680962,10,-0.00247335,-1.41909,0.378154,0.156021,231.439,-0.06491895,
2,1,0,1,1,7109.43,-0.0517325,-0.0521145,40.8093,4,-0.00617744,10,-0.00212676,-1.38924,0.489685,0.120486,191.487,-0.0521145,
2,1,0,1,1,7109.45,-0.0389369,-0.0393398,42.9961,4,-0.00550617,10,-0.00169146,-1.36657,0.645785,0.0913616,153.08,-0.0393398,
2,1,0,1,1,7109.46,-0.0261357,-0.0265237,44.7127,4,-0.00480358,10,-0.00118595,-1.34957,0.879902,0.067053,116.881,-0.0265237,
2,1,0,1,1,7109.48,-0.01334,-0.0137225,45.9664,4,-0.00407728,10,-0.000630774,-1.33756,1.31543,0.0448523,80.399,-0.0137225,
2,1,0,1,1,7109.5,-0.000774628,-0.00115562,46.7938,4,-0.00334841,10,-5.40759e-05,-1.32981, , , ,-0.00115562,
2,1,0,0,1,7109.5,-0.000125413,-0.000535284,46.8302,4,-0.00331096,10,-2.50675e-05,-1.32947, , , ,-0.000535284,