File: Figure_codes/Fig_3-5/rawdata_trumpetplot_data/after 10th/20221101_1-115_003_TrumpetPlot_ParaChange_from10_every3_13_CV_C01_5.csv
mode,ox/red,error,control changes,counter inc.,time/s,control/V,Ewe/V,<I>/mA,cycle number,(Q-Qo)/C,I Range,P/W,log(|I|),Tafel slope mV/dec,alpha_eff,dI/d(E-IR),E-IR/V,
2,1,0,1,0,11048.5,2.44065e-05,-0.000401673,24.8464,6,0.0000000E+000,10,-9.98013e-06,-1.60474, , , ,-0.000401673,
2,1,0,1,0,11048.5,0.0122624,0.0119287,29.1977,6,0.000413494,10,0.000348291,-1.53465,0.254213,0.232089,262.62,0.0119287,
2,1,0,1,0,11048.5,0.0250636,0.0247278,32.0202,6,0.000904732,10,0.000791792,-1.49458,0.378545,0.15586,194.262,0.02472784,
2,1,0,1,0,11048.6,0.0378704,0.0374983,34.2641,6,0.00143582,10,0.00128484,-1.46516,0.481965,0.122416,163.564,0.0374983,
2,1,0,1,0,11048.6,0.0506632,0.0503589,36.2971,6,0.00200075,10,0.00182788,-1.44013,0.522405,0.112939,160.031,0.0503589,
2,1,0,1,0,11048.6,0.0634672,0.0631411,38.3991,6,0.0025984,10,0.00242456,-1.41568,0.5289,0.111552,167.168,0.06314107,
2,1,0,1,0,11048.6,0.0762629,0.0758978,40.6242,6,0.00323059,10,0.00308328,-1.39122,0.51311,0.114985,182.333,0.0758978,
2,1,0,1,0,11048.6,0.0890668,0.0886502,43.0302,6,0.0038999,10,0.00381464,-1.36623,0.505933,0.116616,195.908,0.0886502,
2,1,0,1,0,11048.6,0.10186,0.101485,45.6049,6,0.00460917,10,0.00462823,-1.34099,0.515011,0.114561,203.894,0.101485,
2,1,0,1,0,11048.7,0.114666,0.114266,48.2016,6,0.00536009,10,0.00550783,-1.31694,0.518722,0.113741,214.317,0.114266,
2,1,0,1,0,11048.7,0.127462,0.127142,51.087,6,0.0061549,10,0.00649529,-1.29169,0.520867,0.113273,225.895,0.127142,
2,1,0,1,0,11048.7,0.140263,0.139886,54.1386,6,0.00699656,10,0.00757323,-1.26649,0.495684,0.119028,251.594,0.139886,
2,1,0,1,0,11048.7,0.153064,0.152688,57.5043,6,0.00788971,10,0.00878023,-1.2403,0.491671,0.119999,269.271,0.152688,
2,1,0,1,0,11048.7,0.165866,0.165519,60.9196,6,0.00883777,10,0.0100833,-1.21524,0.543082,0.108639,258.105,0.165519,
2,1,0,1,0,11048.7,0.178667,0.178347,64.0044,6,0.00983829,10,0.011415,-1.19379,0.686305,0.0859676,214.404,0.178347,
2,1,0,1,0,11048.7,0.191463,0.191102,66.2767,6,0.0108824,10,0.0126656,-1.17864,1.2486,0.0472528,121.827,0.191102,
2,1,0,1,0,11048.8,0.204269,0.203921,66.8411,6,0.0119504,10,0.0136303,-1.17496,-2.51027,-0.0235035,-60.9575,0.203921,
2,1,0,1,0,11048.8,0.217062,0.216732,64.4819,6,0.0130051,10,0.0139753,-1.19056,-0.477409,-0.123584,-308.989,0.216732,
2,1,0,1,0,11048.8,0.229866,0.22959,59.0435,6,0.0139964,10,0.0135558,-1.22883,-0.266999,-0.220975,-507.071,0.22959,
2,1,0,1,0,11048.8,0.242662,0.242366,52.012,6,0.014885,10,0.0126059,-1.2839,-0.217513,-0.271248,-550.549,0.242366,
2,1,0,1,0,11048.8,0.255466,0.255188,45.3858,6,0.0156622,10,0.0115819,-1.34308,-0.223167,-0.264376,-469.354,0.255188,
2,1,0,1,0,11048.8,0.268259,0.267979,40.1041,6,0.0163435,10,0.010747,-1.39681,-0.261482,-0.225637,-354.335,0.267979,
2,1,0,1,0,11048.9,0.281065,0.280728,36.2373,6,0.0169523,10,0.0101728,-1.44084,-0.326914,-0.180475,-256.057,0.280728,
2,1,0,1,0,11048.9,0.293861,0.29353,33.4403,6,0.0175085,10,0.00981573,-1.47573,-0.414985,-0.142174,-186.413,0.29353,
2,1,0,1,0,11048.9,0.298983,0.298887,29.6813,6,0.0178011,10,0.00887138,-1.52752,0.025384,2.3243,2185.28,0.298887,
2,1,0,1,0,11048.9,0.286187,0.285917,9.1295,6,0.0180867,10,0.00261027,-2.03955,0.0174834,3.37463,1098.38,0.285917,
2,0,0,1,0,11048.9,0.273386,0.273138,-1.30012,6,0.0181405,10,-0.000355111,-2.88602,-0.0741544,-0.795637,617.329,0.273138,
2,0,0,1,0,11048.9,0.260585,0.260342,-7.481,6,0.0180658,10,-0.00194762,-2.12604,-0.0414427,-1.42365,384.427,0.260342,
2,0,0,1,0,11048.9,0.247783,0.247451,-11.4686,6,0.0179117,10,-0.00283791,-1.94049,-0.100056,-0.589668,258.662,0.247451,
2,0,0,1,0,11049,0.234982,0.234722,-14.2401,6,0.0177045,10,-0.00334246,-1.84649,-0.1762,-0.334848,184.608,0.234722,
2,0,0,1,0,11049,0.222187,0.221883,-16.3114,6,0.0174591,10,-0.00361922,-1.78751,-0.258193,-0.228512,144.928,0.221883,
2,0,0,1,0,11049,0.20938,0.209064,-18.002,6,0.0171839,10,-0.00376355,-1.74468,-0.341166,-0.172937,121.208,0.2090636,
2,0,0,1,0,11049,0.196587,0.196294,-19.4713,6,0.0168838,10,-0.0038221,-1.71061,-0.401484,-0.146955,111.549,0.196294,
2,0,0,1,0,11049,0.183783,0.18348,-20.8759,6,0.0165608,10,-0.00383032,-1.68035,-0.426636,-0.138291,112.722,0.18348,
2,0,0,1,0,11049,0.170987,0.170724,-22.3682,6,0.0162148,10,-0.00381877,-1.65037,-0.407674,-0.144724,126.634,0.170724,
2,0,0,1,0,11049.1,0.158183,0.157927,-24.2124,6,0.0158424,10,-0.00382378,-1.61596,-0.338294,-0.174405,165.272,0.157927,
2,0,0,1,0,11049.1,0.145385,0.145082,-26.6978,6,0.015436,10,-0.00387336,-1.57352,-0.268939,-0.219381,229.388,0.145082,
2,0,0,1,0,11049.1,0.132584,0.132285,-30.2171,6,0.014982,10,-0.00399726,-1.51975,-0.214187,-0.275461,326.002,0.132285,
2,0,0,1,0,11049.1,0.119783,0.119495,-35.0651,6,0.0144611,10,-0.00419011,-1.45513,-0.189553,-0.311259,426.547,0.1194953,
2,0,0,1,0,11049.1,0.106987,0.106731,-40.8724,6,0.0138535,10,-0.00436236,-1.38857,-0.201389,-0.292965,466.771,0.106731,
2,0,0,1,0,11049.1,0.0941801,0.0939915,-46.6989,6,0.0131516,10,-0.0043893,-1.33069,-0.243535,-0.242265,440.946,0.0939915,
2,0,0,1,0,11049.2,0.0813844,0.0811733,-52.0992,6,0.0123593,10,-0.00422906,-1.28317,-0.311228,-0.189571,384.108,0.0811733,
2,0,0,1,0,11049.2,0.0685832,0.068336,-56.5111,6,0.0114887,10,-0.00386174,-1.24787,-0.424311,-0.139049,305.807,0.068336,
2,0,0,1,0,11049.2,0.0557876,0.0555157,-59.7979,6,0.0105559,10,-0.00331972,-1.22331,-0.688037,-0.0857512,199.51,0.0555157,
2,0,0,1,0,11049.2,0.0429808,0.0426667,-61.6364,6,0.00958225,10,-0.00262982,-1.21016,-1.56234,-0.0377638,90.6155,0.0426667,
2,0,0,1,0,11049.2,0.030188,0.0298613,-62.1953,6,0.00859,10,-0.00185723,-1.20624,-21.001,-0.00280938,6.80974,0.0298613,
2,0,0,1,0,11049.2,0.017384,0.0170919,-61.9709,6,0.00759586,10,-0.0010592,-1.20781,3.80849,0.0154917,-37.4318,0.0170919,
2,0,0,1,0,11049.3,0.00458834,0.00429805,-61.291,6,0.00660933,10,-0.000263432,-1.2126,2.31235,0.0255152,-61.0206,0.004298049,
2,0,0,1,0,11049.3,-0.00821564,-0.008535,-60.3238,6,0.00563557,10,0.000514863,-1.21951,1.44165,0.0409253,-96.2642,-0.008535,
2,0,0,1,0,11049.3,-0.0210196,-0.0213543,-58.8314,6,0.00468168,10,0.0012563,-1.23039,0.961676,0.0613513,-140.68,-0.0213543,
2,0,0,1,0,11049.3,-0.0338153,-0.0341672,-56.7479,6,0.00375637,10,0.00193891,-1.24605,0.73583,0.0801816,-177.472,-0.0341672,
2,0,0,1,0,11049.3,-0.0466193,-0.0469864,-54.4064,6,0.00286727,10,0.00255636,-1.26435,0.686315,0.0859663,-182.538,-0.0469864,
2,0,0,1,0,11049.3,-0.0594121,-0.0597622,-52.2626,6,0.00201487,10,0.00312333,-1.28181,0.841018,0.0701531,-143.266,-0.0597622,
2,0,0,1,0,11049.3,-0.0722189,-0.0725603,-50.741,6,0.00119182,10,0.00368178,-1.29464,1.29,0.0457364,-90.7349,-0.0725603,
2,0,0,1,0,11049.4,-0.0850146,-0.0853456,-49.8852,6,0.000387491,10,0.00425748,-1.30203,2.7813,0.0212131,-41.3854,-0.0853456,
2,0,0,1,0,11049.4,-0.0978158,-0.0981882,-49.6692,6,-0.000408446,10,0.00487693,-1.30391,-63.6479,-0.000926975,1.79933,-0.0981882,
2,0,0,1,0,11049.4,-0.110611,-0.110942,-49.9479,6,-0.00120479,10,0.0055413,-1.30148,-3.01039,-0.0195988,38.2383,-0.110942,
2,0,0,1,0,11049.4,-0.123418,-0.123776,-50.6452,6,-0.00200909,10,0.00626865,-1.29546,-1.69531,-0.0348019,68.828,-0.123776,
2,0,0,1,0,11049.4,-0.136214,-0.13654,-51.658,6,-0.00282728,10,0.00705338,-1.28686,-1.31915,-0.0447257,90.2346,-0.13654,
2,0,0,1,0,11049.4,-0.149015,-0.149355,-52.9054,6,-0.00366393,10,0.00790168,-1.2765,-1.17727,-0.0501157,103.535,-0.149355,
2,0,0,1,0,11049.5,-0.161816,-0.162153,-54.275,6,-0.00452162,10,0.00880085,-1.2654,-1.16239,-0.0507576,107.529,-0.162153,
2,0,0,1,0,11049.5,-0.174615,-0.174964,-55.6813,6,-0.00540146,10,0.0097422,-1.25429,-1.18289,-0.049878,108.35,-0.174964,
2,0,0,1,0,11049.5,-0.187419,-0.187776,-57.0526,6,-0.00630343,10,0.0107131,-1.24372,-1.23118,-0.0479215,106.675,-0.187776,
2,0,0,1,0,11049.5,-0.199647,-0.199941,-58.3245,6,-0.0071864,10,0.0116614,-1.23415,0.290945,0.202788,-447.352,-0.199941,
2,0,0,1,1,11049.5,-0.192535,-0.19296,-42.7202,6,-0.00769334,10,0.00824329,-1.36937,-0.0589065,-1.00159,1698.81,-0.1929599,
2,0,0,1,1,11049.5,-0.179739,-0.180135,-25.7891,6,-0.00823075,10,0.00464552,-1.58856,-0.0533332,-1.10625,1107.91,-0.180135,
2,0,0,1,1,11049.5,-0.166932,-0.167328,-13.4469,6,-0.00853908,10,0.00225004,-1.87138,-0.0350962,-1.6811,853.083,-0.167328,
2,0,0,1,1,11049.6,-0.154139,-0.154553,-3.6487,6,-0.0086723,10,0.000563918,-2.43786,-0.0110213,-5.35327,696.048,-0.154553,
2,1,0,1,1,11049.6,-0.141335,-0.141801,4.47237,6,-0.00866308,10,-0.000634184,-2.34946,0.0111609,5.28629,585.38,-0.141801,
2,1,0,1,1,11049.6,-0.12854,-0.129015,11.3617,6,-0.00853433,10,-0.00146584,-1.94456,0.0502589,1.17392,502.017,-0.129015,
2,1,0,1,1,11049.6,-0.115736,-0.116174,17.3607,6,-0.00830263,10,-0.00201686,-1.76043,0.0907311,0.650273,434.692,-0.116174,
2,1,0,1,1,11049.6,-0.102932,-0.10331,22.5674,6,-0.00798154,10,-0.00233144,-1.64652,0.137349,0.429564,375.425,-0.10331,
2,1,0,1,1,11049.6,-0.0901362,-0.0905246,27.0748,6,-0.00758314,10,-0.00245093,-1.56743,0.187845,0.314088,330.283,-0.0905246,
2,1,0,1,1,11049.7,-0.0773322,-0.0777393,31.0116,6,-0.0071174,10,-0.00241082,-1.50848,0.250007,0.235993,284.629,-0.0777393,
2,1,0,1,1,11049.7,-0.0645393,-0.0649306,34.4183,6,-0.00659298,10,-0.0022348,-1.46321,0.317221,0.18599,249.222,-0.0649306,
2,1,0,1,1,11049.7,-0.0517325,-0.0520902,37.355,6,-0.00601782,10,-0.00194583,-1.42765,0.404205,0.145966,212.415,-0.0520902,
2,1,0,1,1,11049.7,-0.0389369,-0.0393218,39.8223,6,-0.00539945,10,-0.00156588,-1.39987,0.521676,0.113097,175.558,-0.0393218,
2,1,0,1,1,11049.7,-0.0261357,-0.0265418,41.8758,6,-0.00474494,10,-0.00111146,-1.37804,0.677434,0.0870933,142.133,-0.0265418,
2,1,0,1,1,11049.7,-0.01334,-0.0137405,43.4869,6,-0.00406132,10,-0.000597534,-1.36164,0.915626,0.0644368,109.211,-0.0137405,
2,1,0,1,1,11049.8,-0.000774628,-0.00119698,44.6779,6,-0.00336865,10,-5.34785e-05,-1.34991, , , ,-0.00119698,
2,1,0,0,1,11049.8,-0.000125413,-0.000478022,44.7536,6,-0.00333289,10,-2.13932e-05,-1.34917, , , ,-0.000478022,