File: Figure_codes/Fig_3-5/rawdata_trumpetplot_data/after 10th/20221101_1-115_003_TrumpetPlot_ParaChange_from10_every3_08_CV_C01_13.csv
mode,ox/red,error,control changes,counter inc.,time/s,control/V,Ewe/V,<I>/mA,cycle number,(Q-Qo)/C,I Range,P/W,log(|I|),Tafel slope mV/dec,alpha_eff,dI/d(E-IR),E-IR/V,
2,0,0,0,0,26786.7,2.44065e-05,-0.000363498,-4.01481,14,0.0000000E+000,10,1.45937e-06,-2.39634, , , ,-0.000363498,
2,1,0,1,0,26786.8,0.0072942,0.00698785,1.22896,14,-5.16531e-05,10,8.58781e-06,-2.91046,0.00788445,7.48309,299.295,0.006987846,
2,1,0,1,0,26786.9,0.0147816,0.0144731,2.54225,14,0.000136702,10,3.67944e-05,-2.59478,0.054183,1.0889,107.147,0.0144731,
2,1,0,1,0,26787,0.0222707,0.0219564,3.14515,14,0.000406569,10,6.90561e-05,-2.50236,0.119511,0.493678,60.3721,0.0219564,
2,1,0,1,0,26787.1,0.0297581,0.0294383,3.5466,14,0.000721255,10,0.000104406,-2.45019,0.156847,0.376163,52.0085,0.0294383,
2,1,0,1,0,26787.2,0.0372544,0.0369081,3.8964,14,0.00107162,10,0.000143809,-2.40934,0.205383,0.287268,43.7357,0.0369081,
2,1,0,1,0,26787.3,0.0447507,0.0444484,4.24073,14,0.00145451,10,0.000188494,-2.37256,0.232572,0.253685,42.0219,0.0444484,
2,1,0,1,0,26787.4,0.0522381,0.0519173,4.56484,14,0.00186811,10,0.000236994,-2.34057,0.2253,0.261873,46.6848,0.0519173,
2,1,0,1,0,26787.5,0.0597273,0.0594279,4.87681,14,0.00231169,10,0.000289818,-2.31186,0.286651,0.205825,39.1952,0.0594279,
2,1,0,1,0,26787.6,0.0672147,0.0669193,5.17679,14,0.00278332,10,0.000346427,-2.28594,0.324313,0.181923,36.6806,0.06691929,
2,1,0,1,0,26787.6,0.0747038,0.0743964,5.43576,14,0.00328103,10,0.000404401,-2.26474,0.370354,0.159307,33.7776,0.0743964,
2,1,0,1,0,26787.7,0.0822055,0.0818889,5.65624,14,0.00380287,10,0.000463183,-2.24747,0.461278,0.127906,28.2638,0.0818889,
2,1,0,1,0,26787.8,0.0896946,0.0893738,5.87072,14,0.00434394,10,0.000524689,-2.23131,0.536506,0.109971,25.2156,0.08937382,
2,1,0,1,0,26787.9,0.097182,0.0968622,6.12146,14,0.00490572,10,0.000592938,-2.21315,0.32692,0.180472,43.1129,0.0968622,
2,1,0,1,0,26788,0.104671,0.104374,6.47302,14,0.00549548,10,0.000675613,-2.18889,0.256663,0.229873,58.1487,0.104374,
2,1,0,1,0,26788.1,0.112159,0.111805,6.96276,14,0.00612513,10,0.00077847,-2.15722,0.240643,0.245177,66.6748,0.111805,
2,1,0,1,0,26788.2,0.119655,0.119351,7.48667,14,0.00680347,10,0.000893545,-2.12571,0.270367,0.218222,63.6739,0.119351,
2,1,0,1,0,26788.3,0.127149,0.126843,7.8829,14,0.00752566,10,0.000999887,-2.10331,0.388857,0.151727,46.6677,0.126843,
2,1,0,1,0,26788.4,0.134639,0.134338,8.16874,14,0.00827933,10,0.00109738,-2.08784,0.62687,0.0941184,30.0273,0.134338,
2,1,0,1,0,26788.5,0.142126,0.141826,8.34626,14,0.009055,10,0.00118372,-2.07851,1.68825,0.0349474,11.3688,0.141826,
2,1,0,1,0,26788.6,0.149615,0.149313,8.18339,14,0.009834,10,0.00122189,-2.08707,-0.302228,-0.195217,-62.1228,0.149313,
2,1,0,1,0,26788.7,0.157103,0.156777,7.33517,14,0.0105668,10,0.00114999,-2.13459,-0.106096,-0.556102,-158.687,0.156777,
2,1,0,1,0,26788.8,0.164606,0.16431,6.0486,14,0.0111957,10,0.000993843,-2.21835,-0.083098,-0.710005,-167.503,0.16431,
2,1,0,1,0,26788.9,0.172095,0.171792,4.96527,14,0.0117085,10,0.000852991,-2.30406,-0.101037,-0.583943,-113.484,0.171792,
2,1,0,1,0,26789,0.179582,0.179273,4.30347,14,0.0121408,10,0.000771497,-2.36618,-0.143592,-0.410885,-69.2009,0.179273,
2,1,0,1,0,26789.1,0.18707,0.186777,3.91593,14,0.0125248,10,0.000731406,-2.40716,-0.223141,-0.264407,-40.4238,0.1867771,
2,1,0,1,0,26789.1,0.194559,0.194271,3.67283,14,0.0128799,10,0.000713523,-2.435,-0.381499,-0.154653,-22.1791,0.194271,
2,1,0,1,0,26789.2,0.202062,0.201751,3.51044,14,0.0132172,10,0.000708235,-2.45464,-0.453356,-0.13014,-17.8213,0.201751,
2,1,0,1,0,26789.3,0.20955,0.209236,3.40895,14,0.0135419,10,0.000713274,-2.46738,-0.515244,-0.114509,-15.2318,0.2092357,
2,1,0,1,0,26789.4,0.217039,0.216792,3.32234,14,0.013858,10,0.000720256,-2.47856,-1.02555,-0.0575301,-7.47814,0.216792,
2,1,0,1,0,26789.5,0.224526,0.224229,3.26621,14,0.0141679,10,0.000732379,-2.48596,-1.14369,-0.0515874,-6.58509,0.224229,
2,1,0,1,0,26789.6,0.232016,0.231717,3.22969,14,0.0144731,10,0.000748374,-2.49084,-1.29311,-0.0456265,-5.7484,0.231717,
2,1,0,1,0,26789.7,0.23951,0.239198,3.19101,14,0.0147748,10,0.000763284,-2.49607,-3.64855,-0.0161708,-2.01413,0.239198,
2,1,0,1,0,26789.8,0.247006,0.246726,3.15856,14,0.0150734,10,0.000779298,-2.50051,-2.2064,-0.0267404,-3.29672,0.246726,
2,1,0,1,0,26789.9,0.254494,0.254211,3.12973,14,0.0153689,10,0.00079561,-2.50449,-1.09564,-0.0538497,-6.58452,0.2542105,
2,1,0,1,0,26790,0.261983,0.261643,3.11187,14,0.0156619,10,0.000814201,-2.50698,-2.30354,-0.0256127,-3.10436,0.261643,
2,1,0,1,0,26790.1,0.26947,0.269205,3.07761,14,0.0159526,10,0.000828507,-2.51179,-15.7128,-0.00375489,-0.45154,0.269205,
2,1,0,1,0,26790.2,0.276959,0.276687,3.05352,14,0.016241,10,0.000844869,-2.5152,-1.75116,-0.033692,-4.01818,0.276687,
2,1,0,1,0,26790.3,0.284461,0.284143,3.03498,14,0.0165275,10,0.000862368,-2.51784,-4.01572,-0.0146922,-1.73569,0.284143,
2,1,0,1,0,26790.4,0.29195,0.291622,3.00079,14,0.0168109,10,0.000875096,-2.52276,-2.63991,-0.0223492,-2.6185,0.291622,
2,1,0,1,0,26790.5,0.299438,0.299177,2.97066,14,0.0170918,10,0.000888752,-2.52715,-0.0266525,-2.21368,-234.302,0.299177,
2,0,0,1,0,26790.5,0.29424,0.293902,-0.515166,14,0.0171518,10,-0.000151408,-3.28805,-0.00285302,-20.6798,192.44,0.293902,
2,0,0,1,0,26790.6,0.286753,0.28639,-1.18427,14,0.0170641,10,-0.000339164,-2.92655,-0.0549119,-1.07445,49.348,0.28639,
2,0,0,1,0,26790.7,0.279264,0.278935,-1.46499,14,0.0169377,10,-0.000408637,-2.83417,-0.131901,-0.447305,25.4525,0.278935,
2,0,0,1,0,26790.8,0.271776,0.27145,-1.63729,14,0.0167912,10,-0.000444441,-2.78588,-0.152387,-0.387173,24.764,0.27145,
2,0,0,1,0,26790.9,0.26428,0.263918,-1.77378,14,0.0166298,10,-0.000468131,-2.7511,-0.229302,-0.257302,17.8661,0.263918,
2,0,0,1,0,26791,0.256786,0.256499,-1.89468,14,0.0164565,10,-0.000485985,-2.72246,-0.349163,-0.168975,12.4823,0.256499,
2,0,0,1,0,26791.1,0.249296,0.249006,-1.99717,14,0.0162732,10,-0.000497308,-2.69958,-0.360317,-0.163744,12.7621,0.249006,
2,0,0,1,0,26791.2,0.241809,0.241489,-2.07937,14,0.0160809,10,-0.000502144,-2.68207,-0.414434,-0.142363,11.6245,0.241489,
2,0,0,1,0,26791.3,0.23432,0.233999,-2.18206,14,0.0158803,10,-0.0005106,-2.66113,-0.507886,-0.116168,9.87709,0.233999,
2,0,0,1,0,26791.4,0.226833,0.226539,-2.264,14,0.0156717,10,-0.000512885,-2.64512,-0.38566,-0.152984,13.4587,0.226539,
2,0,0,1,0,26791.5,0.219329,0.219019,-2.34069,14,0.0154552,10,-0.000512655,-2.63066,-0.416299,-0.141725,12.9375,0.219019,
2,0,0,1,0,26791.6,0.21184,0.211488,-2.41853,14,0.0152316,10,-0.000511489,-2.61645,-0.65202,-0.090488,8.52592,0.211488,
2,0,0,1,0,26791.7,0.204353,0.204047,-2.51056,14,0.0150003,10,-0.000512273,-2.60023,-0.784715,-0.0751866,7.34011,0.204047,
2,0,0,1,0,26791.8,0.196863,0.196556,-2.5814,14,0.0147615,10,-0.000507391,-2.58814,-0.397615,-0.148385,14.9491,0.196556,
2,0,0,1,0,26791.8,0.189376,0.189019,-2.67528,14,0.0145143,10,-0.000505678,-2.57263,-0.614331,-0.0960395,10.0471,0.189019,
2,0,0,1,0,26791.9,0.18188,0.181562,-2.78681,14,0.0142576,10,-0.000505978,-2.55489,-0.399003,-0.147869,16.0491,0.181562,
2,0,0,1,0,26792,0.174385,0.174059,-2.90842,14,0.0139901,10,-0.000506237,-2.53634,-0.299699,-0.196864,22.3498,0.174059,
2,0,0,1,0,26792.1,0.166896,0.166546,-3.07362,14,0.0137095,10,-0.0005119,-2.51235,-0.297989,-0.197994,23.735,0.166546,
2,0,0,1,0,26792.2,0.159409,0.159041,-3.30462,14,0.0134109,10,-0.000525572,-2.48088,-0.22681,-0.260129,33.544,0.159041,
2,0,0,1,0,26792.3,0.151919,0.151584,-3.63703,14,0.0130865,10,-0.000551316,-2.43925,-0.147277,-0.400607,56.9786,0.151584,
2,0,0,1,0,26792.4,0.144425,0.144087,-4.17157,14,0.0127214,10,-0.00060107,-2.3797,-0.106792,-0.552478,90.2131,0.144087,
2,0,0,1,0,26792.5,0.136929,0.136621,-4.99922,14,0.0122929,10,-0.000682997,-2.3011,-0.0950244,-0.620893,120.987,0.136621,
2,0,0,1,0,26792.6,0.129441,0.129124,-6.00416,14,0.011778,10,-0.00077528,-2.22155,-0.0992725,-0.594324,139.179,0.129124,
2,0,0,1,0,26792.7,0.121952,0.121662,-6.97225,14,0.0111683,10,-0.000848258,-2.15663,-0.138728,-0.425292,115.501,0.121662,
2,0,0,1,0,26792.8,0.114465,0.114131,-7.73692,14,0.0104774,10,-0.000883021,-2.11143,-0.219101,-0.269282,81.1552,0.114131,
2,0,0,1,0,26792.9,0.106976,0.106676,-8.23727,14,0.00972717,10,-0.000878721,-2.08422,-0.385784,-0.152935,49.0698,0.106676,
2,0,0,1,0,26793,0.0994721,0.0991728,-8.43447,14,0.00894184,10,-0.00083647,-2.07394,-2.788,-0.0211621,6.95929,0.0991728,
2,0,0,1,0,26793.1,0.0919847,0.0916224,-8.33237,14,0.00815357,10,-0.000763431,-2.07923,0.583918,0.101042,-32.8448,0.0916224,
2,0,0,1,0,26793.2,0.0844973,0.0841947,-8.02414,14,0.00738597,10,-0.00067559,-2.0956,0.393912,0.14978,-46.8847,0.08419469,
2,0,0,1,0,26793.3,0.0770082,0.0766651,-7.67049,14,0.00665098,10,-0.000588059,-2.11518,0.413718,0.142609,-42.7244,0.0766651,
2,0,0,1,0,26793.3,0.0695208,0.069191,-7.40968,14,0.00594476,10,-0.000512684,-2.1302,0.523327,0.11274,-32.6205,0.069191,
2,0,0,1,0,26793.4,0.0620245,0.0617029,-7.22,14,0.00525889,10,-0.000445495,-2.14146,0.66169,0.0891657,-25.1107,0.0617029,
2,0,0,1,0,26793.5,0.0545282,0.0541884,-7.03247,14,0.00459049,10,-0.000381078,-2.15289,0.78186,0.0754611,-20.7146,0.0541884,
2,0,0,1,0,26793.6,0.0470408,0.046714,-6.83978,14,0.00394006,10,-0.000319513,-2.16496,0.560324,0.105296,-28.1087,0.046714,
2,0,0,1,0,26793.7,0.0395517,0.0392113,-6.65271,14,0.0033081,10,-0.000260862,-2.177,0.5152,0.114519,-29.6423,0.0392113,
2,0,0,1,0,26793.8,0.0320643,0.0317485,-6.40052,14,0.0026966,10,-0.000203207,-2.19378,0.453749,0.130028,-32.4808,0.0317485,
2,0,0,1,0,26793.9,0.0245751,0.0242898,-6.12772,14,0.00210862,10,-0.000148841,-2.2127,0.363842,0.162158,-38.8418,0.0242898,
2,0,0,1,0,26794,0.0170735,0.0167674,-5.8694,14,0.00154496,10,-9.84144e-05,-2.23141,0.376237,0.156816,-35.9345,0.01676737,
2,0,0,1,0,26794.1,0.00958429,0.00925174,-5.6266,14,0.00100637,10,-5.20559e-05,-2.24975,0.501944,0.117543,-25.8247,0.009251738,
2,0,0,1,0,26794.2,0.0020969,0.00175758,-5.50078,14,0.000487064,10,-9.66806e-06,-2.25958,1.03548,0.0569782,-12.1566,0.00175758,
2,0,0,1,0,26794.2,0.000199195,-0.000140177,-5.44302,14,0.000357146,10,7.62983e-07,-2.26416, , , ,-0.000140177,