File: Figure_codes/Fig_3-5/rawdata_trumpetplot_data/after 10th/20221101_1-115_003_TrumpetPlot_ParaChange_from10_every3_07_CV_C01_3.csv
mode,ox/red,error,control changes,counter inc.,time/s,control/V,Ewe/V,<I>/mA,cycle number,(Q-Qo)/C,I Range,P/W,log(|I|),Tafel slope mV/dec,alpha_eff,dI/d(E-IR),E-IR/V,
2,0,0,0,0,7075.41,2.44065e-05,-0.000287149,-2.70712,4,0.0000000E+000,10,7.77348e-07,-2.56749, , , ,-0.0002871489,
2,1,0,1,0,7075.53,0.007288,0.00700044,1.80605,4,6.42958e-05,10,1.26431e-05,-2.74327,0.0255044,2.31333,154.904,0.00700044,
2,1,0,1,0,7075.66,0.0147816,0.0144965,2.39651,4,0.00033576,10,3.4741e-05,-2.62042,0.10717,0.550528,51.454,0.0144965,
2,1,0,1,0,7075.78,0.0222712,0.0219679,2.70542,4,0.000657232,10,5.94324e-05,-2.56777,0.169523,0.348036,36.6862,0.0219679,
2,1,0,1,0,7075.91,0.0297648,0.0294783,2.97913,4,0.00101416,10,8.78195e-05,-2.52591,0.200542,0.294203,34.1042,0.0294783,
2,1,0,1,0,7076.03,0.0372518,0.0369359,3.24413,4,0.00140412,10,0.000119825,-2.4889,0.200169,0.294752,37.3329,0.0369359,
2,1,0,1,0,7076.15,0.0447467,0.0444886,3.51293,4,0.00182863,10,0.000156285,-2.45433,0.220678,0.267358,36.7458,0.0444886,
2,1,0,1,0,7076.28,0.052235,0.0519463,3.7831,4,0.00228665,10,0.000196518,-2.42215,0.245344,0.240479,35.5502,0.0519463,
2,1,0,1,0,7076.4,0.0597299,0.0594336,4.05405,4,0.00277845,10,0.000240947,-2.39211,0.266968,0.221,34.8681,0.05943355,
2,1,0,1,0,7076.53,0.0672156,0.0669085,4.30594,4,0.00330131,10,0.000288104,-2.36593,0.2729,0.216196,36.2228,0.0669085,
2,1,0,1,0,7076.65,0.0747105,0.0744307,4.51668,4,0.00385447,10,0.000336179,-2.34518,0.35709,0.165225,29.1684,0.0744307,
2,1,0,1,0,7076.78,0.0821988,0.0819002,4.7256,4,0.00443412,10,0.000387028,-2.32554,0.445064,0.132565,24.4701,0.0819002,
2,1,0,1,0,7076.9,0.0896937,0.0893647,4.94612,4,0.00504,10,0.000442008,-2.30574,0.404898,0.145716,28.0941,0.0893647,
2,1,0,1,0,7077.03,0.0971794,0.0968555,5.21099,4,0.00567464,10,0.000504713,-2.28308,0.260767,0.226256,46.0212,0.0968555,
2,1,0,1,0,7077.15,0.104674,0.104349,5.5953,4,0.00635027,10,0.000583865,-2.25218,0.202782,0.290953,63.5648,0.104349,
2,1,0,1,0,7077.28,0.112163,0.111875,6.07134,4,0.00708007,10,0.000679232,-2.21672,0.22459,0.2627,62.2484,0.111875,
2,1,0,1,0,7077.4,0.119657,0.11932,6.53197,4,0.00786984,10,0.000779392,-2.18496,0.304553,0.193726,49.2872,0.11932,
2,1,0,1,0,7077.53,0.127143,0.126815,6.86749,4,0.00870883,10,0.000870899,-2.1632,0.382389,0.154293,41.3423,0.1268148,
2,1,0,1,0,7077.65,0.134638,0.1343,7.1471,4,0.00958717,10,0.000959856,-2.14587,0.464937,0.126899,35.4495,0.1343,
2,1,0,1,0,7077.78,0.142126,0.141794,7.31662,4,0.0104951,10,0.00103745,-2.13569,5.86224,0.0100644,2.87077,0.141794,
2,1,0,1,0,7077.9,0.149621,0.149312,7.01306,4,0.0114001,10,0.00104713,-2.15409,-0.171601,-0.34382,-93.6187,0.149312,
2,1,0,1,0,7078.03,0.157107,0.156831,5.95642,4,0.0122171,10,0.000934154,-2.22501,-0.0787804,-0.748917,-173.291,0.156831,
2,1,0,1,0,7078.15,0.164602,0.164322,4.7387,4,0.012883,10,0.000778672,-2.32434,-0.0817549,-0.72167,-133.787,0.164322,
2,1,0,1,0,7078.28,0.17209,0.171837,3.94999,4,0.013423,10,0.000678756,-2.4034,-0.112876,-0.522696,-80.9466,0.171837,
2,1,0,1,0,7078.4,0.179585,0.179281,3.48468,4,0.0138875,10,0.000624737,-2.45784,-0.157614,-0.374331,-51.0621,0.1792808,
2,1,0,1,0,7078.53,0.187072,0.186801,3.19381,4,0.0143047,10,0.000596607,-2.49569,-0.234005,-0.252131,-31.3435,0.186801,
2,1,0,1,0,7078.65,0.194566,0.194243,2.98454,4,0.0146909,10,0.000579725,-2.52512,-0.344106,-0.171459,-19.9619,0.194243,
2,1,0,1,0,7078.78,0.202055,0.201734,2.83979,4,0.0150557,10,0.000572881,-2.54671,-0.4087,-0.14436,-16.0107,0.201734,
2,1,0,1,0,7078.9,0.209549,0.209246,2.74279,4,0.0154062,10,0.000573919,-2.56181,-0.373181,-0.1581,-16.945,0.209246,
2,1,0,1,0,7079.03,0.217036,0.216739,2.66762,4,0.0157455,10,0.000578177,-2.57388,-0.684091,-0.0862458,-8.98184,0.216739,
2,1,0,1,0,7079.15,0.224529,0.224235,2.60919,4,0.0160772,10,0.000585071,-2.58349,-1.87052,-0.0315421,-3.21921,0.224235,
2,1,0,1,0,7079.28,0.232019,0.231718,2.56681,4,0.0164025,10,0.000594775,-2.59061,-2.02261,-0.0291702,-2.92554,0.231718,
2,1,0,1,0,7079.4,0.239513,0.239247,2.53555,4,0.0167232,10,0.000606621,-2.59593,-0.841278,-0.0701314,-6.93656,0.239247,
2,1,0,1,0,7079.53,0.247001,0.246705,2.51137,4,0.0170395,10,0.000619567,-2.60009,-1.17089,-0.0503889,-4.91256,0.246705,
2,1,0,1,0,7079.65,0.254493,0.254213,2.47436,4,0.0173525,10,0.000629014,-2.60654,-2.71441,-0.0217358,-2.10069,0.2542133,
2,1,0,1,0,7079.78,0.261983,0.261741,2.4419,4,0.0176619,10,0.000639145,-2.61227,-1.98326,-0.0297491,-2.84968,0.261741,
2,1,0,1,0,7079.9,0.269477,0.269183,2.42223,4,0.0179683,10,0.000652021,-2.61579,-2.18936,-0.0269485,-2.55187,0.269183,
2,1,0,1,0,7080.03,0.276965,0.276657,2.40332,4,0.0182714,10,0.000664895,-2.61919,-1.23865,-0.0476326,-4.45777,0.276657,
2,1,0,1,0,7080.15,0.284457,0.284187,2.37965,4,0.0185717,10,0.000676266,-2.62349,-2.24065,-0.0263317,-2.43957,0.284187,
2,1,0,1,0,7080.27,0.291947,0.291638,2.34298,4,0.0188686,10,0.000683301,-2.63023,-1.73216,-0.0340614,-3.12663,0.2916379,
2,1,0,1,0,7080.4,0.29944,0.299169,2.31902,4,0.0191625,10,0.000693778,-2.6347,-0.00468387,-12.5964,-758.365,0.299169,
2,0,0,1,0,7080.51,0.293742,0.293403,-0.736778,4,0.0191755,10,-0.000216173,-3.13266,-0.02233,-2.64219,70.4139,0.293403,
2,0,0,1,0,7080.64,0.286254,0.285959,-1.02922,4,0.019061,10,-0.000294315,-2.98749,-0.0850678,-0.693565,27.6094,0.2859593,
2,0,0,1,0,7080.76,0.278761,0.278482,-1.1933,4,0.0189196,10,-0.000332311,-2.92325,-0.134279,-0.439383,20.437,0.278482,
2,0,0,1,0,7080.89,0.271272,0.270993,-1.31584,4,0.0187604,10,-0.000356583,-2.8808,-0.180807,-0.326316,16.7729,0.270993,
2,0,0,1,0,7081.01,0.263778,0.263537,-1.41709,4,0.0185871,10,-0.000373456,-2.8486,-0.298188,-0.197862,10.9302,0.263537,
2,0,0,1,0,7081.14,0.25629,0.255936,-1.51173,4,0.0184024,10,-0.000386907,-2.82053,-0.362652,-0.16269,9.52137,0.255936,
2,0,0,1,0,7081.26,0.248797,0.248484,-1.58561,4,0.0182073,10,-0.000393999,-2.7998,-0.360502,-0.163661,10.1139,0.248484,
2,0,0,1,0,7081.39,0.241308,0.241037,-1.64393,4,0.0180032,10,-0.000396247,-2.78412,-0.416645,-0.141608,9.15566,0.241037,
2,0,0,1,0,7081.51,0.233814,0.233476,-1.71801,4,0.0177903,10,-0.000401113,-2.76497,-0.455232,-0.129604,8.71583,0.233476,
2,0,0,1,0,7081.64,0.226326,0.226031,-1.79511,4,0.017569,10,-0.000405749,-2.74591,-0.590348,-0.0999411,6.97024,0.2260309,
2,0,0,1,0,7081.76,0.218834,0.218522,-1.86033,4,0.0173392,10,-0.000406521,-2.73041,-0.404761,-0.145765,10.5412,0.218522,
2,0,0,1,0,7081.89,0.211344,0.211051,-1.91961,4,0.0171015,10,-0.000405136,-2.71679,-0.576955,-0.102261,7.67422,0.211051,
2,0,0,1,0,7082.01,0.203856,0.203569,-1.99276,4,0.0168547,10,-0.000405665,-2.70054,-0.745038,-0.0791906,6.17187,0.203569,
2,0,0,1,0,7082.14,0.196362,0.196053,-2.07501,4,0.0165986,10,-0.000406811,-2.68298,-0.444409,-0.132761,10.7493,0.196053,
2,0,0,1,0,7082.26,0.18887,0.188548,-2.16811,4,0.0163317,10,-0.000408793,-2.66392,-0.30089,-0.196085,16.5588,0.1885483,
2,0,0,1,0,7082.39,0.18138,0.181068,-2.28058,4,0.0160522,10,-0.00041294,-2.64195,-0.265822,-0.221953,19.7959,0.181068,
2,0,0,1,0,7082.51,0.173892,0.173577,-2.42541,4,0.0157566,10,-0.000420995,-2.61522,-0.235589,-0.250436,23.7468,0.173577,
2,0,0,1,0,7082.64,0.166398,0.166082,-2.63723,4,0.0154392,10,-0.000437997,-2.57885,-0.208655,-0.282764,29.0778,0.166082,
2,0,0,1,0,7082.76,0.158905,0.158556,-2.93636,4,0.0150906,10,-0.000465578,-2.53219,-0.138543,-0.425861,48.8005,0.158556,
2,0,0,1,0,7082.89,0.151417,0.151094,-3.4029,4,0.0146948,10,-0.000514159,-2.46815,-0.0987507,-0.597464,79.6222,0.151094,
2,0,0,1,0,7083.01,0.143927,0.143576,-4.14165,4,0.0142243,10,-0.000594641,-2.38283,-0.0801761,-0.735881,119.242,0.143576,
2,0,0,1,0,7083.14,0.136435,0.136133,-5.14188,4,0.0136435,10,-0.00069998,-2.28888,-0.0847803,-0.695916,139.645,0.136133,
2,0,0,1,0,7083.26,0.128941,0.128659,-6.18441,4,0.0129328,10,-0.00079568,-2.2087,-0.111973,-0.526913,126.708,0.128659,
2,0,0,1,0,7083.38,0.121453,0.121149,-6.9732,4,0.0121063,10,-0.000844798,-2.15657,-0.191817,-0.307585,83.4557,0.1211492,
2,0,0,1,0,7083.51,0.113963,0.113606,-7.40088,4,0.0112033,10,-0.000840781,-2.13072,-0.496073,-0.118934,34.3234,0.113606,
2,0,0,1,0,7083.63,0.106471,0.10619,-7.49287,4,0.0102669,10,-0.000795669,-2.12535,1.49293,0.0395196,-11.5599,0.1061902,
2,0,0,1,0,7083.76,0.0989825,0.0986316,-7.30286,4,0.00933849,10,-0.000720293,-2.13651,0.396142,0.148937,-42.3601,0.0986316,
2,0,0,1,0,7083.88,0.0914889,0.0911785,-6.8859,4,0.00844932,10,-0.000627846,-2.16204,0.269047,0.219292,-58.8731,0.0911785,
2,0,0,1,0,7084.01,0.0839993,0.0837027,-6.42833,4,0.0076172,10,-0.000538069,-2.1919,0.265247,0.222434,-55.8262,0.0837027,
2,0,0,1,0,7084.13,0.076507,0.0761872,-6.09281,4,0.00683439,10,-0.000464194,-2.21518,0.352439,0.167405,-39.8441,0.0761872,
2,0,0,1,0,7084.26,0.0690187,0.0687137,-5.86497,4,0.00608686,10,-0.000403004,-2.23173,0.45869,0.128627,-29.4348,0.0687137,
2,0,0,1,0,7084.38,0.0615251,0.0611825,-5.67588,4,0.00536382,10,-0.000347264,-2.24597,0.565536,0.104326,-23.1284,0.0611825,
2,0,0,1,0,7084.51,0.0540355,0.0537429,-5.49719,4,0.00466427,10,-0.000295434,-2.25986,0.625598,0.0943098,-20.2199,0.0537429,
2,0,0,1,0,7084.63,0.0465432,0.0462656,-5.30007,4,0.00398753,10,-0.000245211,-2.27572,0.446834,0.13204,-27.3048,0.0462656,
2,0,0,1,0,7084.76,0.0390549,0.0387065,-5.08926,4,0.00333711,10,-0.000196987,-2.29335,0.346414,0.170316,-33.7632,0.0387065,
2,0,0,1,0,7084.88,0.0315613,0.0312268,-4.83507,4,0.00271555,10,-0.000150984,-2.3156,0.324675,0.18172,-34.2451,0.0312268,
2,0,0,1,0,7085.01,0.0240717,0.0237773,-4.56918,4,0.00212673,10,-0.000108643,-2.34016,0.332439,0.177476,-31.6951,0.0237773,
2,0,0,1,0,7085.13,0.0165781,0.0162842,-4.34174,4,0.00156797,10,-7.07016e-05,-2.36234,0.374982,0.157341,-26.7677,0.0162842,
2,0,0,1,0,7085.26,0.00909108,0.00877857,-4.19427,4,0.00103344,10,-3.68197e-05,-2.37734,0.555871,0.10614,-17.3658,0.008778573,
2,0,0,1,0,7085.38,0.00159616,0.00126589,-4.1429,4,0.000513898,10,-5.24444e-06,-2.3827, , , ,0.001265888,
2,0,0,1,0,7085.41,0.000199195,-0.00019553,-4.1036,4,0.000417405,10,8.02375e-07,-2.38684, , , ,-0.00019553,