File: Figure_codes/Fig_3-5/rawdata_trumpetplot_data/after 10th/20221101_1-115_003_TrumpetPlot_ParaChange_from10_every3_03_CV_C01_16.csv
mode,ox/red,error,control changes,counter inc.,time/s,control/V,Ewe/V,<I>/mA,cycle number,(Q-Qo)/C,I Range,P/W,log(|I|),Tafel slope mV/dec,alpha_eff,dI/d(E-IR),E-IR/V,
2,0,0,1,0,32462.1,2.44065e-05,-0.000344411,-0.114023,17,0.0000000E+000,10,3.92707e-08,-3.94301, , , ,-0.000344411,
2,1,0,1,0,32463.6,0.00729041,0.00696467,0.202878,17,0.000264687,10,1.41298e-06,-3.69277,0.0818589,0.720753,5.67565,0.00696467,
2,1,0,1,0,32465.1,0.0147815,0.0144333,0.236044,17,0.000620783,10,3.4069e-06,-3.62701,0.139003,0.42445,3.89802,0.01443334,
2,1,0,1,0,32466.6,0.0222725,0.021923,0.262829,17,0.00101988,10,5.76201e-06,-3.58033,0.172152,0.342721,3.4904,0.021923,
2,1,0,1,0,32468,0.0297635,0.0294507,0.289771,17,0.00145894,10,8.53397e-06,-3.53794,0.20505,0.287735,3.25011,0.0294507,
2,1,0,1,0,32469.5,0.0372545,0.0368992,0.316244,17,0.00193839,10,1.16692e-05,-3.49998,0.208703,0.282698,3.49376,0.0368992,
2,1,0,1,0,32471,0.0447456,0.0444124,0.342784,17,0.00245732,10,1.52239e-05,-3.46498,0.221249,0.266668,3.55849,0.0444124,
2,1,0,1,0,32472.5,0.0522367,0.0518883,0.36531,17,0.00301415,10,1.89553e-05,-3.43734,0.22311,0.264444,3.77904,0.05188835,
2,1,0,1,0,32474,0.0597277,0.0594111,0.388343,17,0.00360534,10,2.30719e-05,-3.41078,0.308773,0.191079,2.89019,0.05941112,
2,1,0,1,0,32475.5,0.0672187,0.0668785,0.408095,17,0.00422759,10,2.72928e-05,-3.38924,0.326632,0.180632,2.86661,0.0668785,
2,1,0,1,0,32477,0.0747092,0.0743421,0.4236,17,0.00487625,10,3.14914e-05,-3.37304,0.523797,0.112639,1.85855,0.0743421,
2,1,0,0,0,32478.5,0.0822001,0.0819028,0.438604,17,0.00554814,10,3.59229e-05,-3.35793,0.451636,0.130636,2.23727,0.0819028,
2,1,0,1,0,32480,0.0896911,0.0893543,0.45906,17,0.00624585,10,4.1019e-05,-3.33813,0.283544,0.208081,3.73328,0.0893543,
2,1,0,0,0,32481.5,0.097182,0.0968206,0.491862,17,0.00698477,10,4.76224e-05,-3.30816,0.17361,0.339843,6.52813,0.0968206,
2,1,0,1,0,32483,0.104673,0.104346,0.538316,17,0.00778161,10,5.61713e-05,-3.26896,0.193175,0.305422,6.3832,0.104346,
2,1,0,0,0,32484.5,0.112164,0.111834,0.574781,17,0.00864139,10,6.42799e-05,-3.2405,0.32122,0.183675,4.10481,0.111834,
2,1,0,1,0,32486,0.119655,0.119361,0.602152,17,0.00955052,10,7.18733e-05,-3.22029,0.580906,0.101565,2.3855,0.119361,
2,1,0,0,0,32487.5,0.127146,0.126865,0.619834,17,0.0104953,10,7.86354e-05,-3.20772,0.723515,0.0815463,1.9789,0.126865,
2,1,0,1,0,32489,0.134637,0.134328,0.620261,17,0.0114601,10,8.33186e-05,-3.20743,-0.364969,-0.161658,-3.90707,0.134328,
2,1,0,1,0,32490.5,0.142127,0.141778,0.555936,17,0.0123773,10,7.88195e-05,-3.25498,-0.0986198,-0.598257,-12.9029,0.141778,
2,1,0,1,0,32492,0.149618,0.149276,0.44375,17,0.0131525,10,6.62415e-05,-3.35286,-0.0747319,-0.789488,-13.7224,0.149276,
2,1,0,1,0,32493.5,0.157109,0.156801,0.366817,17,0.0137792,10,5.75172e-05,-3.43555,-0.11483,-0.513805,-7.3787,0.156801,
2,1,0,1,0,32495,0.1646,0.164304,0.332378,17,0.0143247,10,5.46108e-05,-3.47837,-0.213343,-0.27655,-3.5814,0.164304,
2,1,0,1,0,32496.5,0.172091,0.171768,0.314669,17,0.0148326,10,5.405e-05,-3.50215,-0.493246,-0.119616,-1.4704,0.171768,
2,1,0,1,0,32498,0.179582,0.179266,0.30452,17,0.0153206,10,5.45901e-05,-3.51638,-0.936491,-0.0630011,-0.749436,0.179266,
2,1,0,1,0,32499.5,0.187074,0.186721,0.299138,17,0.0157968,10,5.58554e-05,-3.52413,-2.17216,-0.027162,-0.316244,0.1867211,
2,1,0,1,0,32501,0.194564,0.194293,0.294301,17,0.0162656,10,5.71807e-05,-3.53121,-1.23984,-0.0475866,-0.546691,0.194293,
2,1,0,1,0,32502.5,0.202056,0.201755,0.291265,17,0.0167284,10,5.87641e-05,-3.53571,-1.21462,-0.0485749,-0.550788,0.2017546,
2,1,0,1,0,32504,0.209547,0.209245,0.28789,17,0.0171859,10,6.02397e-05,-3.54077,-1.10522,-0.0533831,-0.599115,0.209245,
2,1,0,1,0,32505.5,0.217038,0.216716,0.284315,17,0.0176384,10,6.16157e-05,-3.5462,-2.23665,-0.0263788,-0.293077,0.216716,
2,1,0,1,0,32507,0.224529,0.224236,0.283868,17,0.0180876,10,6.36535e-05,-3.54688,-3.71065,-0.0159002,-0.174814,0.224236,
2,1,0,1,0,32508.5,0.232019,0.231704,0.279771,17,0.0185331,10,6.48241e-05,-3.5532,4.21614,0.0139938,0.153298,0.231704,
2,1,0,0,0,32510,0.23951,0.239174,0.278316,17,0.0189757,10,6.65659e-05,-3.55546,-1.15908,-0.0509023,-0.552982,0.239174,
2,1,0,1,0,32511.5,0.247001,0.246686,0.277321,17,0.0194152,10,6.84111e-05,-3.55702,-1.04447,-0.0564881,-0.608965,0.246686,
2,1,0,0,0,32513,0.254492,0.254167,0.275095,17,0.0198519,10,6.992e-05,-3.56052,-1.67951,-0.0351292,-0.37772,0.254167,
2,1,0,1,0,32514.5,0.261983,0.261689,0.273369,17,0.0202862,10,7.15378e-05,-3.56325,-2.66958,-0.0221008,-0.235207,0.261689,
2,1,0,0,0,32516,0.269474,0.269194,0.271342,17,0.0207178,10,7.30436e-05,-3.56648,-2.66089,-0.022173,-0.235234,0.269194,
2,1,0,1,0,32517.5,0.276965,0.276689,0.269085,17,0.0211465,10,7.44528e-05,-3.57011,-1.49207,-0.0395425,-0.415606,0.276689,
2,1,0,0,0,32519,0.284456,0.284145,0.268175,17,0.0215722,10,7.62005e-05,-3.57158,-3.91584,-0.015067,-0.157147,0.284145,
2,1,0,1,0,32520.5,0.291947,0.291618,0.265065,17,0.0219945,10,7.7298e-05,-3.57665,-1.34259,-0.043945,-0.456112,0.291618,
2,1,0,1,0,32522,0.299437,0.299136,0.262693,17,0.0224142,10,7.85809e-05,-3.58055,-0.00243707,-24.2094,-121.804,0.299136,
2,0,0,1,0,32523.4,0.293744,0.293386,-0.0175873,17,0.0224476,10,-5.15985e-06,-4.7548,-0.0047988,-12.2947,5.65096,0.293386,
2,0,0,1,0,32524.9,0.286253,0.285913,-0.0457135,17,0.0223753,10,-1.30701e-05,-4.33996,-0.0363382,-1.62363,2.9425,0.285913,
2,0,0,0,0,32526.3,0.278763,0.278467,-0.0676754,17,0.0222661,10,-1.88454e-05,-4.16957,-0.0650955,-0.90636,2.34995,0.278467,
2,0,0,1,0,32527.8,0.271272,0.270972,-0.083106,17,0.0221298,10,-2.25194e-05,-4.08037,-0.0930931,-0.633774,2.04727,0.270972,
2,0,0,0,0,32529.3,0.263781,0.263473,-0.0962212,17,0.0219712,10,-2.53517e-05,-4.01673,-0.14769,-0.399486,1.50692,0.263473,
2,0,0,1,0,32530.8,0.25629,0.25598,-0.108637,17,0.0217937,10,-2.7809e-05,-3.96402,-0.198755,-0.296847,1.24793,0.25598,
2,0,0,0,0,32532.3,0.248799,0.248464,-0.118716,17,0.0215994,10,-2.94968e-05,-3.92549,-0.220722,-0.267304,1.25028,0.248464,
2,0,0,1,0,32533.8,0.241308,0.240979,-0.128945,17,0.02139,10,-3.10729e-05,-3.8896,-0.286412,-0.205997,1.03717,0.240979,
2,0,0,0,0,32535.3,0.233817,0.233526,-0.138073,17,0.0211664,10,-3.22436e-05,-3.85989,-0.257895,-0.228776,1.22579,0.233526,
2,0,0,1,0,32536.8,0.226326,0.226025,-0.146166,17,0.0209295,10,-3.30371e-05,-3.83515,-0.275288,-0.214321,1.22553,0.226025,
2,0,0,0,0,32538.3,0.218835,0.218513,-0.155652,17,0.0206791,10,-3.4012e-05,-3.80785,-0.284754,-0.207197,1.2535,0.218513,
2,0,0,1,0,32539.8,0.211344,0.211031,-0.163227,17,0.0204156,10,-3.44459e-05,-3.78721,-0.344142,-0.171441,1.09891,0.211031,
2,0,0,1,0,32541.3,0.203854,0.203514,-0.173613,17,0.0201382,10,-3.53326e-05,-3.76042,-0.314074,-0.187854,1.27193,0.203514,
2,0,0,1,0,32542.8,0.196363,0.196063,-0.182898,17,0.0198471,10,-3.58595e-05,-3.73779,-0.316108,-0.186645,1.32786,0.1960633,
2,0,0,1,0,32544.3,0.188871,0.188542,-0.193339,17,0.0195401,10,-3.64524e-05,-3.71368,-0.276462,-0.213411,1.60427,0.188542,
2,0,0,1,0,32545.8,0.181381,0.181112,-0.205491,17,0.0192163,10,-3.7217e-05,-3.68721,-0.291114,-0.20267,1.61686,0.181112,
2,0,0,1,0,32547.3,0.173889,0.173584,-0.220546,17,0.0188728,10,-3.82832e-05,-3.6565,-0.242584,-0.243214,2.08319,0.173584,
2,0,0,1,0,32548.8,0.166398,0.166068,-0.237574,17,0.0185046,10,-3.94536e-05,-3.6242,-0.202065,-0.291986,2.72806,0.166068,
2,0,0,1,0,32550.3,0.158907,0.1586,-0.261746,17,0.0181041,10,-4.15129e-05,-3.58212,-0.150552,-0.391892,4.03548,0.1586,
2,0,0,1,0,32551.8,0.151416,0.151073,-0.302694,17,0.0176561,10,-4.57288e-05,-3.519,-0.10762,-0.548228,6.48724,0.151073,
2,0,0,1,0,32553.3,0.143925,0.143588,-0.368255,17,0.0171307,10,-5.28772e-05,-3.43385,-0.0714622,-0.825612,11.8784,0.143588,
2,0,0,1,0,32554.8,0.136434,0.136102,-0.463917,17,0.0164829,10,-6.31401e-05,-3.33356,-0.0763419,-0.772839,13.9625,0.136102,
2,0,0,1,0,32556.3,0.128943,0.128644,-0.561309,17,0.0156853,10,-7.22091e-05,-3.2508,-0.120264,-0.490587,10.6706,0.128644,
2,0,0,0,0,32557.8,0.121453,0.121135,-0.620322,17,0.0147679,10,-7.51425e-05,-3.20738,-0.329498,-0.17906,4.32111,0.1211347,
2,0,0,1,0,32559.3,0.113962,0.113595,-0.629936,17,0.0137986,10,-7.15577e-05,-3.2007,1.73243,0.0340562,-0.839177,0.113595,
2,0,0,0,0,32560.8,0.106471,0.106146,-0.621336,17,0.012831,10,-6.59523e-05,-3.20667,0.846162,0.0697266,-1.6968,0.106146,
2,0,0,1,0,32562.3,0.0989799,0.09867,-0.606032,17,0.0118842,10,-5.97971e-05,-3.2175,0.586195,0.100649,-2.36936,0.09867,
2,0,0,0,0,32563.8,0.0914889,0.0911358,-0.58649,17,0.0109659,10,-5.34502e-05,-3.23174,0.472634,0.124832,-2.84609,0.0911358,
2,0,0,1,0,32565.3,0.083998,0.0836918,-0.562548,17,0.0100792,10,-4.70806e-05,-3.24984,0.370248,0.159353,-3.49535,0.0836918,
2,0,0,0,0,32566.8,0.076507,0.0761533,-0.544169,17,0.00922453,10,-4.14403e-05,-3.26427,0.45165,0.130632,-2.76673,0.0761533,
2,0,0,1,0,32568.3,0.0690161,0.0687061,-0.521983,17,0.00839927,10,-3.58634e-05,-3.28234,0.55938,0.105474,-2.1589,0.06870608,
2,0,0,0,0,32569.8,0.0615251,0.0611973,-0.507409,17,0.00759961,10,-3.10521e-05,-3.29464,0.488272,0.120834,-2.39753,0.0611973,
2,0,0,1,0,32571.3,0.0540342,0.0536759,-0.490168,17,0.00682526,10,-2.63102e-05,-3.30966,0.502216,0.117479,-2.25331,0.0536759,
2,0,0,1,0,32572.8,0.0465436,0.0462026,-0.47385,17,0.00607601,10,-2.18931e-05,-3.32436,0.453949,0.12997,-2.40149,0.0462026,
2,0,0,1,0,32574.3,0.0390526,0.0386822,-0.457516,17,0.00535265,10,-1.76977e-05,-3.33959,0.385681,0.152976,-2.71989,0.0386822,
2,0,0,1,0,32575.8,0.0315615,0.03124,-0.441043,17,0.00465506,10,-1.37782e-05,-3.35552,0.492978,0.119681,-2.05237,0.03124,
2,0,0,1,0,32577.3,0.0240706,0.0237622,-0.423202,17,0.00398134,10,-1.00562e-05,-3.37345,0.586636,0.100573,-1.67236,0.0237622,
2,0,0,1,0,32578.8,0.0165795,0.0162702,-0.414998,17,0.0033262,10,-6.75208e-06,-3.38195,0.945124,0.0624257,-1.01083,0.0162702,
2,0,0,1,0,32580.3,0.00908846,0.0087538,-0.410359,17,0.00268243,10,-3.5922e-06,-3.38684,2.25449,0.0261699,-0.42015,0.0087538,
2,0,0,1,0,32581.8,0.00159739,0.00119849,-0.416655,17,0.00203922,10,-4.99359e-07,-3.38022, , , ,0.00119849,
2,0,0,0,0,32582.1,0.000199195,-0.000205073,-0.41343,17,0.00191852,10,8.47834e-08,-3.3836, , , ,-0.000205073,