File: Figure_codes/Fig_3-5/rawdata_trumpetplot_data/after 10th/20221101_1-115_003_TrumpetPlot_ParaChange_from10_every3_14_CV_C01_14.csv
mode,ox/red,error,control changes,counter inc.,time/s,control/V,Ewe/V,<I>/mA,cycle number,(Q-Qo)/C,I Range,P/W,log(|I|),Tafel slope mV/dec,alpha_eff,dI/d(E-IR),E-IR/V,
2,1,0,1,0,28780.9,2.44065e-05,-0.000306236,35.1813,15,0.0000000E+000,10,-1.07738e-05,-1.45369, , , ,-0.000306236,
2,1,0,1,0,28780.9,0.0133084,0.0129139,38.8479,15,0.000489129,10,0.000501676,-1.41063,0.418181,0.141087,213.136,0.0129139,
2,1,0,1,0,28781,0.0273414,0.026978,41.4573,15,0.00105234,10,0.00111844,-1.3824,0.571181,0.103295,166.704,0.026978,
2,1,0,1,0,28781,0.0413245,0.0409552,43.5668,15,0.00164814,10,0.00178429,-1.36084,0.718548,0.0821101,139.41,0.0409552,
2,1,0,1,0,28781,0.0553076,0.0549473,45.3868,15,0.00227121,10,0.00249388,-1.34307,0.821561,0.0718145,127.182,0.0549473,
2,1,0,1,0,28781,0.0693407,0.0689839,47.0801,15,0.00291886,10,0.00324777,-1.32716,0.912014,0.064692,118.807,0.0689839,
2,1,0,1,0,28781,0.0833238,0.0829611,48.7264,15,0.0035896,10,0.00404239,-1.31224,0.943108,0.0625591,118.971,0.0829611,
2,1,0,1,0,28781,0.0973069,0.096898,50.4352,15,0.00428383,10,0.00488707,-1.29727,0.921846,0.064002,126.001,0.096898,
2,1,0,1,0,28781,0.11134,0.110913,52.2939,15,0.00500272,10,0.00580009,-1.28155,0.854181,0.069072,141.036,0.110913,
2,1,0,1,0,28781.1,0.125323,0.124961,54.3259,15,0.0057493,10,0.0067886,-1.26499,0.849189,0.069478,147.353,0.124961,
2,1,0,1,0,28781.1,0.139306,0.138972,56.4949,15,0.00652499,10,0.0078512,-1.24799,0.790631,0.074624,164.654,0.138972,
2,1,0,1,0,28781.1,0.153339,0.152979,58.9174,15,0.00733295,10,0.00901311,-1.22976,0.755227,0.0781222,179.748,0.152979,
2,1,0,1,0,28781.1,0.167322,0.166908,61.5259,15,0.00817632,10,0.0102692,-1.21094,0.747113,0.0789707,189.633,0.166908,
2,1,0,1,0,28781.1,0.181305,0.180949,64.1474,15,0.00905654,10,0.0116074,-1.19282,0.816291,0.0722781,180.821,0.180949,
2,1,0,1,0,28781.1,0.195338,0.19496,66.488,15,0.00997183,10,0.0129625,-1.17726,1.06926,0.0551783,142.937,0.19496,
2,1,0,1,0,28781.1,0.209322,0.209012,68.116,15,0.0109152,10,0.014237,-1.16675,1.96964,0.0299547,79.411,0.209012,
2,1,0,1,0,28781.2,0.223305,0.222936,68.6271,15,0.0118739,10,0.0152994,-1.1635,-15.1601,-0.0038918,-10.3906,0.222936,
2,1,0,1,0,28781.2,0.237338,0.23698,67.771,15,0.0128304,10,0.0160604,-1.16896,-1.34728,-0.0437921,-115.423,0.23698,
2,1,0,1,0,28781.2,0.251321,0.250997,65.4476,15,0.0137643,10,0.0164272,-1.18411,-0.713961,-0.0826376,-210.405,0.250997,
2,1,0,1,0,28781.2,0.265304,0.264983,61.9245,15,0.0146568,10,0.0164089,-1.20814,-0.508587,-0.116008,-279.786,0.264983,
2,1,0,1,0,28781.2,0.279337,0.278996,57.7082,15,0.0154944,10,0.0161004,-1.23876,-0.423443,-0.139334,-313.495,0.278996,
2,1,0,1,0,28781.2,0.29332,0.293001,53.3194,15,0.016271,10,0.0156226,-1.27311,-0.405396,-0.145537,-304.284,0.293001,
2,1,0,1,0,28781.2,0.298714,0.298575,48.3971,15,0.0166852,10,0.0144501,-1.31518,0.0497176,1.1867,1990.99,0.298575,
2,1,0,1,0,28781.2,0.28473,0.284505,28.1458,15,0.0172042,10,0.00800761,-1.55059,0.0586208,1.00647,1110.22,0.284505,
2,1,0,1,0,28781.3,0.270747,0.270493,15.3208,15,0.017502,10,0.00414417,-1.81472,0.0447499,1.31844,774.432,0.270493,
2,1,0,1,0,28781.3,0.256714,0.256449,6.09467,15,0.0176476,10,0.00156297,-2.21505,0.021215,2.78105,565.89,0.256449,
2,0,0,1,0,28781.3,0.242731,0.242425,-0.77539,15,0.0176819,10,-0.000187974,-3.11048,-0.121422,-0.48591,428.391,0.242425,
2,0,0,1,0,28781.3,0.228748,0.228472,-6.05509,15,0.0176321,10,-0.00138342,-2.21788,-0.0373386,-1.58013,336.405,0.2284722,
2,0,0,1,0,28781.3,0.214715,0.214427,-10.258,15,0.0175162,10,-0.00219959,-1.98894,-0.0854648,-0.690343,268.958,0.214427,
2,0,0,1,0,28781.3,0.200732,0.200417,-13.6583,15,0.0173477,10,-0.00273736,-1.8646,-0.139034,-0.424356,223.547,0.200417,
2,0,0,1,0,28781.3,0.186735,0.186442,-16.5563,15,0.0171355,10,-0.00308679,-1.78104,-0.195014,-0.302542,194.256,0.186442,
2,0,0,1,0,28781.4,0.172716,0.172413,-19.1384,15,0.0168851,10,-0.00329971,-1.71809,-0.246689,-0.239168,178.146,0.172413,
2,0,0,1,0,28781.4,0.158733,0.15841,-21.6104,15,0.0165997,10,-0.0034233,-1.66534,-0.273271,-0.215903,182.164,0.1584101,
2,0,0,1,0,28781.4,0.144719,0.144462,-24.3395,15,0.0162783,10,-0.00351611,-1.61369,-0.263975,-0.223506,212.762,0.144462,
2,0,0,1,0,28781.4,0.130717,0.130419,-27.6624,15,0.0159148,10,-0.0036077,-1.55811,-0.237552,-0.248366,269.158,0.130419,
2,0,0,1,0,28781.4,0.116733,0.116403,-31.9362,15,0.0154983,10,-0.00371748,-1.49572,-0.21801,-0.270629,337.961,0.116403,
2,0,0,1,0,28781.4,0.102703,0.102446,-37.0502,15,0.0150157,10,-0.00379565,-1.43121,-0.227638,-0.259184,373.785,0.102446,
2,0,0,1,0,28781.4,0.0887173,0.088418,-42.2522,15,0.0144601,10,-0.00373585,-1.37415,-0.26722,-0.220792,362.786,0.088418,
2,0,0,1,0,28781.5,0.0747341,0.0744715,-47.0952,15,0.0138337,10,-0.00350725,-1.32702,-0.336179,-0.175502,321.21,0.0744715,
2,0,0,1,0,28781.5,0.0607011,0.0604635,-51.2984,15,0.0131443,10,-0.00310168,-1.2899,-0.429477,-0.137376,273.975,0.06046354,
2,0,0,1,0,28781.5,0.046718,0.0464895,-54.6389,15,0.0124014,10,-0.00254014,-1.2625,-0.60742,-0.0971322,206.475,0.0464895,
2,0,0,1,0,28781.5,0.0327349,0.0324635,-57.1212,15,0.0116182,10,-0.00185435,-1.2432,-0.84757,-0.0696108,154.872,0.0324635,
2,0,0,1,0,28781.5,0.0187018,0.0184237,-59.0025,15,0.0108046,10,-0.00108704,-1.22913,-1.25888,-0.0468672,107.663,0.0184237,
2,0,0,1,0,28781.5,0.00471873,0.00444014,-60.1612,15,0.00996961,10,-0.000267124,-1.22068,-2.11232,-0.0279314,65.5144,0.00444014,
2,0,0,1,0,28781.5,-0.00926438,-0.00957843,-60.8475,15,0.00912169,10,0.000582824,-1.21576,-4.98774,-0.011829,28.0515,-0.00957843,
2,0,0,1,0,28781.6,-0.0232974,-0.02365,-61.0428,15,0.00826807,10,0.00144366,-1.21437,30.8377,0.00191324,-4.54963,-0.02365,
2,0,0,1,0,28781.6,-0.0372805,-0.037605,-60.6841,15,0.00741547,10,0.00228203,-1.21692,3.39571,0.0173749,-41.1029,-0.037605,
2,0,0,1,0,28781.6,-0.0512636,-0.0516162,-59.927,15,0.00657094,10,0.0030932,-1.22238,2.13103,0.0276862,-64.6974,-0.0516162,
2,0,0,1,0,28781.6,-0.0652967,-0.0656315,-58.9674,15,0.00573887,10,0.00387012,-1.22939,1.91697,0.0307777,-70.789,-0.0656315,
2,0,0,1,0,28781.6,-0.0792798,-0.0796554,-57.9262,15,0.00492077,10,0.00461414,-1.23712,1.94799,0.0302877,-68.5138,-0.0796554,
2,0,0,1,0,28781.6,-0.0932629,-0.0935966,-57.0717,15,0.00411608,10,0.00534172,-1.24358,2.46449,0.0239401,-53.3574,-0.0935966,
2,0,0,1,0,28781.6,-0.107296,-0.107666,-56.5076,15,0.00332156,10,0.00608395,-1.24789,4.22853,0.0139528,-30.7788,-0.107666,
2,0,0,1,0,28781.7,-0.121279,-0.121644,-56.167,15,0.00253324,10,0.0068324,-1.25052,9.49193,0.0062158,-13.6388,-0.121644,
2,0,0,1,0,28781.7,-0.135262,-0.135616,-56.1124,15,0.00174752,10,0.00760975,-1.25094,-25.7452,-0.00229169,5.0229,-0.135616,
2,0,0,1,0,28781.7,-0.149295,-0.149636,-56.3561,15,0.000960515,10,0.0084329,-1.24906,-5.70761,-0.0103371,22.7371,-0.149636,
2,0,0,1,0,28781.7,-0.163278,-0.163591,-56.7186,15,0.000169092,10,0.00927864,-1.24627,-4.04581,-0.014583,32.2958,-0.163591,
2,0,0,1,0,28781.7,-0.177261,-0.177625,-57.2197,15,-0.00062852,10,0.0101637,-1.24245,-3.44574,-0.0171226,38.2471,-0.177625,
2,0,0,1,0,28781.7,-0.191295,-0.191629,-57.8367,15,-0.00143382,10,0.0110832,-1.2378,-3.02646,-0.0194947,43.975,-0.1916291,
2,0,0,0,1,28781.7,-0.199984,-0.200456,-57.8644,15,-0.00197326,10,0.0115993,-1.23759,-0.0420967,-1.40154,2816.62,-0.200456,
2,0,0,1,1,28781.7,-0.186686,-0.187133,-38.2849,15,-0.00258224,10,0.00716436,-1.41697,-0.081017,-0.728243,1099.67,-0.187133,
2,0,0,1,1,28781.8,-0.172667,-0.173047,-25.5494,15,-0.00302298,10,0.00442124,-1.59262,-0.0741242,-0.795962,791.227,-0.173047,
2,0,0,1,1,28781.8,-0.158684,-0.159135,-15.7116,15,-0.00330838,10,0.00250027,-1.80378,-0.0556785,-1.05966,637.749,-0.159135,
2,0,0,1,1,28781.8,-0.14467,-0.145083,-7.50789,15,-0.00346878,10,0.00108926,-2.12448,-0.0288849,-2.04259,542.976,-0.145083,
2,0,0,1,1,28781.8,-0.130668,-0.131092,-0.486419,15,-0.00352284,10,6.37655e-05,-3.31299,-0.110804,-0.532473,471.625,-0.131092,
2,1,0,1,1,28781.8,-0.116685,-0.117143,5.70895,15,-0.0034849,10,-0.000668764,-2.24344,0.0266356,2.21508,419.216,-0.117143,
2,1,0,1,1,28781.8,-0.102654,-0.1031,11.3293,15,-0.00336491,10,-0.00116805,-1.9458,0.0659012,0.895279,381.713,-0.1031,
2,1,0,1,1,28781.8,-0.0886685,-0.0891259,16.3771,15,-0.00316994,10,-0.00145963,-1.78576,0.107632,0.548165,345.764,-0.0891259,
2,1,0,1,1,28781.9,-0.0746854,-0.0751773,21.0074,15,-0.00290716,10,-0.00157928,-1.67763,0.152827,0.386056,313.927,-0.0751773,
2,1,0,1,1,28781.9,-0.0606523,-0.0610718,25.2636,15,-0.00258277,10,-0.00154289,-1.59751,0.201236,0.293188,287.036,-0.0610718,
2,1,0,1,1,28781.9,-0.0466692,-0.047085,29.0525,15,-0.00220188,10,-0.00136794,-1.53682,0.256186,0.230301,260.181,-0.047085,
2,1,0,1,1,28781.9,-0.0326861,-0.0330919,32.499,15,-0.00177023,10,-0.00107545,-1.48813,0.31969,0.184554,233.419,-0.0330919,
2,1,0,1,1,28781.9,-0.018653,-0.0190945,35.6343,15,-0.00129276,10,-0.00068042,-1.44813,0.39146,0.150718,208.926,-0.0190945,
2,1,0,1,1,28781.9,-0.00466992,-0.00507701,38.352,15,-0.000774254,10,-0.000194713,-1.41621, , , ,-0.00507701,
2,1,0,0,1,28781.9,-0.000175352,-0.000554371,39.166,15,-0.000599826,10,-2.17125e-05,-1.40709, , , ,-0.000554371,