File: Figure_codes/Fig_3-5/rawdata_trumpetplot_data/after 10th/20221101_1-115_003_TrumpetPlot_ParaChange_from10_every3_08_CV_C01_6.csv
mode,ox/red,error,control changes,counter inc.,time/s,control/V,Ewe/V,<I>/mA,cycle number,(Q-Qo)/C,I Range,P/W,log(|I|),Tafel slope mV/dec,alpha_eff,dI/d(E-IR),E-IR/V,
2,0,0,0,0,12995.8,2.44065e-05,-0.000478022,-4.04979,7,0.0000000E+000,10,1.93589e-06,-2.39257, , , ,-0.000478022,
2,1,0,1,0,12995.9,0.0072942,0.00698444,1.41366,7,-3.85156e-05,10,9.8736e-06,-2.84966,0.010205,5.78146,277.923,0.00698444,
2,1,0,1,0,12996,0.0147816,0.0144513,2.63701,7,0.000162307,10,3.81083e-05,-2.57889,0.0624059,0.945423,96.3634,0.0144513,
2,1,0,1,0,12996.1,0.0222707,0.0220041,3.19332,7,0.000438304,10,7.02662e-05,-2.49576,0.114523,0.515178,64.0526,0.0220041,
2,1,0,1,0,12996.2,0.0297581,0.0294097,3.59713,7,0.000757696,10,0.00010579,-2.44404,0.164449,0.358774,50.3566,0.0294097,
2,1,0,1,0,12996.3,0.0372544,0.0369351,3.97348,7,0.00111348,10,0.000146761,-2.40083,0.197458,0.298797,46.2398,0.0369351,
2,1,0,1,0,12996.4,0.0447507,0.0444413,4.32408,7,0.00150301,10,0.000192167,-2.36411,0.203708,0.289631,48.8435,0.0444413,
2,1,0,1,0,12996.5,0.0522381,0.05193,4.65196,7,0.00192448,10,0.000241576,-2.33236,0.234036,0.252098,45.8257,0.05193,
2,1,0,1,0,12996.5,0.0597273,0.0594159,4.9884,7,0.00237703,10,0.00029639,-2.30204,0.282128,0.209125,40.6447,0.0594159,
2,1,0,1,0,12996.6,0.0672147,0.0669179,5.2888,7,0.00285854,10,0.000353915,-2.27664,0.289539,0.203772,41.996,0.0669179,
2,1,0,1,0,12996.7,0.0747038,0.0743933,5.55108,7,0.00336724,10,0.000412963,-2.25562,0.365623,0.161368,34.9912,0.0743933,
2,1,0,1,0,12996.8,0.0822055,0.0818575,5.80528,7,0.00390156,10,0.000475206,-2.23618,0.460703,0.128065,29.0188,0.0818575,
2,1,0,1,0,12996.9,0.0896946,0.0893779,6.03885,7,0.0044568,10,0.00053974,-2.21905,0.399252,0.147776,34.8336,0.08937791,
2,1,0,1,0,12997,0.097182,0.0968492,6.31611,7,0.0050361,10,0.000611711,-2.19955,0.320932,0.183839,45.4019,0.0968492,
2,1,0,1,0,12997.1,0.104671,0.104392,6.7353,7,0.00564676,10,0.00070311,-2.17164,0.244866,0.240948,63.2927,0.1043918,
2,1,0,1,0,12997.2,0.112159,0.111852,7.26248,7,0.00630191,10,0.000812325,-2.13891,0.226822,0.260115,73.6459,0.111852,
2,1,0,1,0,12997.3,0.119655,0.119352,7.79024,7,0.00700838,10,0.000929784,-2.10845,0.267501,0.22056,67.0122,0.119352,
2,1,0,1,0,12997.4,0.127149,0.126825,8.20451,7,0.00776015,10,0.00104054,-2.08595,0.40918,0.144191,46.1749,0.126825,
2,1,0,1,0,12997.5,0.134639,0.134348,8.53816,7,0.00854555,10,0.00114708,-2.06864,0.501754,0.117587,39.1746,0.134348,
2,1,0,1,0,12997.6,0.142126,0.141802,8.77409,7,0.00935815,10,0.00124418,-2.0568,0.965966,0.0610787,20.8936,0.141802,
2,1,0,1,0,12997.7,0.149615,0.149323,8.65662,7,0.0101799,10,0.00129263,-2.06265,-0.304679,-0.193646,-65.1943,0.149323,
2,1,0,1,0,12997.8,0.157103,0.156774,7.75915,7,0.0109553,10,0.00121643,-2.11019,-0.103195,-0.571734,-172.35,0.156774,
2,1,0,1,0,12997.9,0.164606,0.164273,6.33681,7,0.0116174,10,0.00104097,-2.19813,-0.0795036,-0.742105,-183.557,0.164273,
2,1,0,1,0,12998,0.172095,0.17176,5.20026,7,0.0121544,10,0.000893198,-2.28397,-0.10271,-0.57443,-117.131,0.17176,
2,1,0,1,0,12998,0.179582,0.179275,4.53152,7,0.0126085,10,0.000812389,-2.34376,-0.144137,-0.409332,-72.5717,0.1792751,
2,1,0,1,0,12998.1,0.18707,0.186786,4.12083,7,0.0130129,10,0.000769712,-2.38502,-0.216143,-0.272967,-43.9047,0.186786,
2,1,0,1,0,12998.2,0.194559,0.194238,3.8483,7,0.0133858,10,0.000747487,-2.41473,-0.334128,-0.176579,-26.5277,0.194238,
2,1,0,1,0,12998.3,0.202062,0.201771,3.66021,7,0.0137385,10,0.000738523,-2.43649,-0.369387,-0.159724,-22.7986,0.201771,
2,1,0,1,0,12998.4,0.20955,0.20927,3.53745,7,0.014076,10,0.000740285,-2.45131,-0.491147,-0.120127,-16.5696,0.20927,
2,1,0,1,0,12998.5,0.217039,0.216727,3.42678,7,0.0144027,10,0.000742676,-2.46511,-0.711115,-0.0829683,-11.1255,0.216727,
2,1,0,1,0,12998.6,0.224526,0.224271,3.36195,7,0.0147218,10,0.000753987,-2.47341,-0.719298,-0.0820244,-10.7688,0.224271,
2,1,0,1,0,12998.7,0.232016,0.231751,3.31271,7,0.0150349,10,0.000767723,-2.47982,-1.48705,-0.0396757,-5.12262,0.231751,
2,1,0,1,0,12998.8,0.23951,0.239184,3.25678,7,0.0153436,10,0.000778967,-2.48721,-2.49296,-0.0236666,-3.01309,0.239184,
2,1,0,1,0,12998.9,0.247006,0.246715,3.22303,7,0.0156484,10,0.000795169,-2.49174,-0.902136,-0.0654004,-8.21919,0.246715,
2,1,0,1,0,12999,0.254494,0.254205,3.19386,7,0.0159495,10,0.000811894,-2.49568,-1.21606,-0.0485172,-6.04021,0.254205,
2,1,0,1,0,12999.1,0.261983,0.261697,3.15757,7,0.0162474,10,0.000826327,-2.50065,-2.86802,-0.0205717,-2.53646,0.261697,
2,1,0,1,0,12999.2,0.26947,0.269165,3.12131,7,0.0165425,10,0.000840146,-2.50566,-1.69658,-0.0347759,-4.24465,0.269165,
2,1,0,1,0,12999.3,0.276959,0.276692,3.09434,7,0.016835,10,0.000856181,-2.50943,-2.0311,-0.0290483,-3.51268,0.276692,
2,1,0,1,0,12999.4,0.284461,0.284195,3.07268,7,0.0171252,10,0.000873239,-2.51248,-17.0784,-0.00345466,-0.413677,0.284195,
2,1,0,1,0,12999.4,0.29195,0.291648,3.03106,7,0.017412,10,0.000884005,-2.5184,-1.47612,-0.0399698,-4.73829,0.291648,
2,1,0,1,0,12999.5,0.299438,0.299146,3.00388,7,0.0176958,10,0.0008986,-2.52232,-0.0258767,-2.28004,-242.534,0.2991465,
2,0,0,1,0,12999.6,0.29424,0.293931,-0.607567,7,0.0177477,10,-0.000178583,-3.21641,-0.00593331,-9.94385,166.811,0.293931,
2,0,0,1,0,12999.7,0.286753,0.286416,-1.17984,7,0.017657,10,-0.000337924,-2.92818,-0.065121,-0.906006,41.5889,0.286416,
2,0,0,1,0,12999.8,0.279264,0.27897,-1.44567,7,0.0175321,10,-0.000403299,-2.83993,-0.127422,-0.46303,26.0545,0.27897,
2,0,0,1,0,12999.9,0.271776,0.271455,-1.62036,7,0.0173875,10,-0.000439855,-2.79039,-0.140141,-0.421006,26.5598,0.271455,
2,0,0,1,0,13000,0.26428,0.263955,-1.75846,7,0.0172279,10,-0.000464155,-2.75487,-0.226256,-0.260767,17.9198,0.263955,
2,0,0,1,0,13000.1,0.256786,0.256476,-1.88284,7,0.0170562,10,-0.000482904,-2.72519,-0.378641,-0.15582,11.3965,0.256476,
2,0,0,1,0,13000.2,0.249296,0.248979,-1.99032,7,0.0168744,10,-0.000495548,-2.70108,-0.362408,-0.1628,12.6071,0.248979,
2,0,0,1,0,13000.3,0.241809,0.241516,-2.06844,7,0.0166831,10,-0.000499561,-2.68436,-0.453306,-0.130155,10.576,0.241516,
2,0,0,1,0,13000.4,0.23432,0.234036,-2.17048,7,0.0164833,10,-0.00050797,-2.66344,-0.597728,-0.0987071,8.36935,0.234036,
2,0,0,1,0,13000.5,0.226833,0.226501,-2.25772,7,0.0162753,10,-0.000511375,-2.64633,-0.392755,-0.150221,13.2147,0.226501,
2,0,0,1,0,13000.6,0.219329,0.219008,-2.3412,7,0.016059,10,-0.000512742,-2.63056,-0.393029,-0.150116,13.6963,0.219008,
2,0,0,1,0,13000.7,0.21184,0.211542,-2.42326,7,0.0158354,10,-0.000512622,-2.6156,-0.837827,-0.0704202,6.64753,0.2115422,
2,0,0,1,0,13000.7,0.204353,0.204033,-2.5173,7,0.0156037,10,-0.000513611,-2.59907,-0.559529,-0.105446,10.3332,0.2040327,
2,0,0,1,0,13000.8,0.196863,0.196521,-2.59417,7,0.0153639,10,-0.000509809,-2.586,-0.424931,-0.138846,14.0765,0.196521,
2,0,0,1,0,13000.9,0.189376,0.189058,-2.69451,7,0.0151151,10,-0.000509419,-2.56952,-0.555955,-0.106124,11.1949,0.189058,
2,0,0,1,0,13001,0.18188,0.181552,-2.82378,7,0.0148558,10,-0.000512663,-2.54917,-0.370205,-0.159371,17.5303,0.181552,
2,0,0,1,0,13001.1,0.174385,0.174062,-2.96233,7,0.0145843,10,-0.000515627,-2.52837,-0.268771,-0.219518,25.3768,0.174062,
2,0,0,1,0,13001.2,0.166896,0.166578,-3.15635,7,0.0142974,10,-0.000525776,-2.50082,-0.267203,-0.220806,27.1821,0.166578,
2,0,0,1,0,13001.3,0.159409,0.1591,-3.43537,7,0.013989,10,-0.000546569,-2.46403,-0.193423,-0.305031,40.8318,0.1591,
2,0,0,1,0,13001.4,0.151919,0.151565,-3.8355,7,0.0136494,10,-0.000581327,-2.41618,-0.126996,-0.464582,69.7866,0.151565,
2,0,0,1,0,13001.5,0.144425,0.144109,-4.47892,7,0.0132607,10,-0.000645455,-2.34883,-0.0965839,-0.610868,107.24,0.1441094,
2,0,0,1,0,13001.6,0.136929,0.1366,-5.43628,7,0.0127969,10,-0.000742594,-2.2647,-0.0882098,-0.66886,141.922,0.1366,
2,0,0,1,0,13001.7,0.129441,0.129156,-6.55717,7,0.0122348,10,-0.000846898,-2.18328,-0.0995712,-0.592541,151.712,0.129156,
2,0,0,1,0,13001.8,0.121952,0.121622,-7.60282,7,0.011569,10,-0.000924668,-2.11903,-0.14571,-0.404913,119.959,0.121622,
2,0,0,1,0,13001.9,0.114465,0.114155,-8.37435,7,0.0108177,10,-0.000955977,-2.07705,-0.247101,-0.238769,77.9252,0.1141553,
2,0,0,1,0,13002,0.106976,0.106686,-8.82238,7,0.0100097,10,-0.000941222,-2.05441,-0.504863,-0.116863,40.1807,0.106686,
2,0,0,1,0,13002.1,0.0994721,0.0991656,-8.94338,7,0.00917274,10,-0.000886876,-2.0485,6.06405,0.00972947,-3.3933,0.0991656,
2,0,0,1,0,13002.2,0.0919847,0.091605,-8.75366,7,0.00834101,10,-0.000801879,-2.05781,0.456268,0.12931,-44.1417,0.091605,
2,0,0,1,0,13002.2,0.0844973,0.0842039,-8.34842,7,0.00753898,10,-0.00070297,-2.0784,0.317019,0.186109,-60.5552,0.0842039,
2,0,0,1,0,13002.3,0.0770082,0.0766651,-7.90629,7,0.00677833,10,-0.000606137,-2.10203,0.366069,0.161172,-49.776,0.0766651,
2,0,0,1,0,13002.4,0.0695208,0.069174,-7.597,7,0.00605243,10,-0.000525515,-2.11936,0.470502,0.125398,-37.2066,0.069174,
2,0,0,1,0,13002.5,0.0620245,0.0617081,-7.38105,7,0.00535031,10,-0.000455471,-2.13188,0.600633,0.0982296,-28.2878,0.0617081,
2,0,0,1,0,13002.6,0.0545282,0.0541553,-7.18225,7,0.00466755,10,-0.000388957,-2.14374,0.835494,0.0706169,-19.791,0.0541553,
2,0,0,1,0,13002.7,0.0470408,0.0467215,-6.97871,7,0.00400355,10,-0.000326056,-2.15622,0.583728,0.101074,-27.5449,0.0467215,
2,0,0,1,0,13002.8,0.0395517,0.0392263,-6.78436,7,0.00335869,10,-0.000266126,-2.16849,0.516948,0.114131,-30.1625,0.0392263,
2,0,0,1,0,13002.9,0.0320643,0.0317427,-6.53165,7,0.00273491,10,-0.000207332,-2.18498,0.434059,0.135926,-34.6152,0.0317427,
2,0,0,1,0,13003,0.0245751,0.0242527,-6.23972,7,0.00213592,10,-0.00015133,-2.20483,0.350899,0.168139,-40.967,0.0242527,
2,0,0,1,0,13003.1,0.0170735,0.0167742,-5.95325,7,0.00156289,10,-9.98609e-05,-2.22525,0.35631,0.165586,-38.5019,0.0167742,
2,0,0,1,0,13003.2,0.00958429,0.00924969,-5.70453,7,0.00101679,10,-5.27651e-05,-2.24378,0.471228,0.125205,-27.8617,0.00924969,
2,0,0,1,0,13003.3,0.0020969,0.00172997,-5.55612,7,0.00049157,10,-9.61192e-06,-2.25523,1.04823,0.0562854,-12.1398,0.00172997,
2,0,0,1,0,13003.3,0.000199195,-0.000151629,-5.50287,7,0.000360336,10,8.34394e-07,-2.25941, , , ,-0.000151629,