File: Figure_codes/Fig_3-5/rawdata_trumpetplot_data/after 10th/20221101_1-115_003_TrumpetPlot_ParaChange_from10_every3_04_CV_C01_28.csv
mode,ox/red,error,control changes,counter inc.,time/s,control/V,Ewe/V,<I>/mA,cycle number,(Q-Qo)/C,I Range,P/W,log(|I|),Tafel slope mV/dec,alpha_eff,dI/d(E-IR),E-IR/V,
2,0,0,1,0,56223.7,2.44065e-05,-0.000344411,-0.395149,29,0.0000000E+000,10,1.36094e-07,-3.40324, , , ,-0.000344411,
2,1,0,1,0,56224.4,0.00729063,0.00697664,0.333493,29,0.000154737,10,2.32666e-06,-3.47691,0.0507225,1.16319,14.9121,0.00697664,
2,1,0,1,0,56225.1,0.0147814,0.0144192,0.409259,29,0.00044608,10,5.90117e-06,-3.388,0.111722,0.528096,8.43285,0.0144192,
2,1,0,1,0,56225.9,0.0222725,0.0219178,0.463862,29,0.000783866,10,1.01668e-05,-3.33361,0.163579,0.360683,6.51518,0.0219178,
2,1,0,1,0,56226.6,0.0297635,0.0294105,0.514114,29,0.00116013,10,1.51204e-05,-3.28894,0.182203,0.323815,6.49432,0.0294105,
2,1,0,1,0,56227.4,0.0372544,0.0368483,0.562647,29,0.00157372,10,2.07326e-05,-3.24976,0.209747,0.281292,6.18713,0.0368483,
2,1,0,1,0,56228.1,0.0447458,0.0444166,0.610421,29,0.00202344,10,2.71128e-05,-3.21437,0.223516,0.263963,6.29829,0.0444166,
2,1,0,1,0,56228.9,0.0522363,0.0519103,0.654681,29,0.00250835,10,3.39847e-05,-3.18397,0.226997,0.259915,6.64391,0.0519103,
2,1,0,1,0,56229.6,0.0597282,0.059386,0.696956,29,0.00302516,10,4.13895e-05,-3.15679,0.301445,0.195724,5.315,0.059386,
2,1,0,1,0,56230.4,0.0672182,0.0668917,0.731358,29,0.00357006,10,4.89218e-05,-3.13587,0.367439,0.160571,4.58003,0.0668917,
2,1,0,1,0,56231.1,0.0747092,0.0743135,0.7606,29,0.00413941,10,5.65229e-05,-3.11884,0.535876,0.1101,3.26753,0.0743135,
2,1,0,1,0,56231.9,0.0822001,0.0818169,0.78618,29,0.00472965,10,6.43229e-05,-3.10448,0.486129,0.121367,3.72734,0.0818169,
2,1,0,1,0,56232.6,0.0896911,0.0892875,0.819221,29,0.00534065,10,7.31462e-05,-3.0866,0.344429,0.171298,5.48507,0.0892875,
2,1,0,1,0,56233.4,0.097182,0.0968164,0.872704,29,0.0059833,10,8.44921e-05,-3.05913,0.216779,0.272166,9.26904,0.0968164,
2,1,0,1,0,56234.1,0.104673,0.104298,0.946946,29,0.00667341,10,9.87642e-05,-3.02367,0.203095,0.290505,10.7076,0.104298,
2,1,0,1,0,56234.9,0.112164,0.111795,1.02045,29,0.00742126,10,0.000114081,-2.99121,0.267263,0.220756,8.77381,0.111795,
2,1,0,1,0,56235.6,0.119655,0.11925,1.06851,29,0.00821565,10,0.00012742,-2.97122,0.668355,0.0882765,3.68369,0.11925,
2,1,0,1,0,56236.4,0.127146,0.126718,1.0915,29,0.00903715,10,0.000138312,-2.96198,0.9955,0.0592667,2.53009,0.126718,
2,1,0,1,0,56237.1,0.134637,0.134266,1.09335,29,0.00987046,10,0.0001468,-2.96124,-0.551747,-0.106933,-4.55629,0.134266,
2,1,0,1,0,56237.9,0.142127,0.141778,1.00591,29,0.0106744,10,0.000142615,-2.99744,-0.120615,-0.489159,-19.1116,0.1417775,
2,1,0,1,0,56238.6,0.149619,0.149255,0.826721,29,0.0113727,10,0.000123392,-3.08264,-0.0773476,-0.76279,-24.6007,0.149255,
2,1,0,1,0,56239.4,0.157109,0.156731,0.677788,29,0.0119403,10,0.00010623,-3.16891,-0.109333,-0.539638,-14.3246,0.156731,
2,1,0,1,0,56240.1,0.164601,0.164217,0.601887,29,0.0124261,10,9.884e-05,-3.22049,-0.201998,-0.292081,-6.88037,0.164217,
2,1,0,1,0,56240.9,0.172091,0.171726,0.565413,29,0.0128721,10,9.70964e-05,-3.24763,-0.390401,-0.151127,-3.34349,0.171726,
2,1,0,1,0,56241.6,0.179582,0.179186,0.547347,29,0.0132984,10,9.80767e-05,-3.26174,-0.885067,-0.0666616,-1.42774,0.179186,
2,1,0,1,0,56242.4,0.187074,0.186748,0.536199,29,0.013713,10,0.000100134,-3.27067,-1.02224,-0.0577163,-1.20511,0.186748,
2,1,0,1,0,56243.1,0.194564,0.194175,0.527247,29,0.0141203,10,0.000102379,-3.27799,-1.11751,-0.0527961,-1.08842,0.194175,
2,1,0,1,0,56243.9,0.202056,0.201717,0.522592,29,0.0145224,10,0.000105416,-3.28184,-1.29726,-0.0454805,-0.924618,0.201717,
2,1,0,1,0,56244.6,0.209546,0.209229,0.517,29,0.0149207,10,0.000108171,-3.28651,-0.980564,-0.0601694,-1.21598,0.209229,
2,1,0,1,0,56245.4,0.217038,0.216676,0.511886,29,0.0153154,10,0.000110913,-3.29083,-2.63876,-0.022359,-0.448055,0.216676,
2,1,0,1,0,56246.1,0.224528,0.224186,0.509153,29,0.0157076,10,0.000114145,-3.29315,-2.4242,-0.024338,-0.483816,0.224186,
2,1,0,1,0,56246.9,0.232019,0.231663,0.506241,29,0.0160971,10,0.000117277,-3.29564,-2.21524,-0.0266337,-0.526104,0.231663,
2,1,0,1,0,56247.6,0.23951,0.239155,0.50327,29,0.0164845,10,0.000120359,-3.2982,-5.36981,-0.0109874,-0.216203,0.239155,
2,1,0,1,0,56248.4,0.247001,0.246648,0.500614,29,0.0168698,10,0.000123475,-3.3005,-2.68892,-0.0219419,-0.428486,0.246648,
2,1,0,1,0,56249.1,0.254492,0.25413,0.496965,29,0.0172527,10,0.000126294,-3.30367,-1.16601,-0.0505999,-0.983714,0.25413,
2,1,0,1,0,56249.9,0.261983,0.261619,0.49312,29,0.0176331,10,0.00012901,-3.30705,-7.52656,-0.0078389,-0.151265,0.261619,
2,1,0,1,0,56250.6,0.269474,0.269071,0.489766,29,0.0180111,10,0.000131782,-3.31001,-32.1664,-0.00183421,-0.0351041,0.269071,
2,1,0,1,0,56251.4,0.276965,0.276593,0.486606,29,0.0183865,10,0.000134592,-3.31282,-7.5843,-0.00777923,-0.147695,0.276593,
2,1,0,1,0,56252.1,0.284456,0.284084,0.483479,29,0.0187591,10,0.000137349,-3.31562,-2.06936,-0.0285112,-0.537424,0.284084,
2,1,0,1,0,56252.9,0.291947,0.29161,0.479813,29,0.0191285,10,0.000139918,-3.31893,-1.36189,-0.0433221,-0.810746,0.29161,
2,1,0,1,0,56253.6,0.299437,0.29913,0.473674,29,0.0194952,10,0.00014169,-3.32452,-0.00319741,-18.4524,-196.168,0.29913,
2,0,0,1,0,56254.3,0.293745,0.293363,-0.06342,29,0.0195303,10,-1.86051e-05,-4.19777,-0.0110515,-5.33863,11.7364,0.293363,
2,0,0,1,0,56255,0.286253,0.28585,-0.120724,29,0.0194498,10,-3.4509e-05,-3.91821,-0.0454887,-1.29703,6.14993,0.28585,
2,0,0,1,0,56255.8,0.278763,0.278436,-0.159794,29,0.0193353,10,-4.44923e-05,-3.79644,-0.0933502,-0.632029,3.88728,0.278436,
2,0,0,1,0,56256.5,0.271272,0.270908,-0.186392,29,0.0191967,10,-5.0495e-05,-3.72957,-0.122606,-0.481218,3.50155,0.270908,
2,0,0,1,0,56257.3,0.263781,0.263462,-0.209869,29,0.0190381,10,-5.52927e-05,-3.67805,-0.178176,-0.331133,2.72595,0.263462,
2,0,0,1,0,56258,0.25629,0.255909,-0.232366,29,0.0188627,10,-5.94646e-05,-3.63383,-0.221765,-0.266048,2.40122,0.255909,
2,0,0,1,0,56258.8,0.248799,0.248421,-0.250101,29,0.0186726,10,-6.21303e-05,-3.60188,-0.255371,-0.231036,2.2584,0.248421,
2,0,0,1,0,56259.5,0.241308,0.240945,-0.266461,29,0.0184695,10,-6.42025e-05,-3.57437,-0.351037,-0.168074,1.75177,0.2409447,
2,0,0,1,0,56260.3,0.233817,0.233427,-0.283354,29,0.0182545,10,-6.61427e-05,-3.54767,-0.329959,-0.17881,1.97489,0.233427,
2,0,0,1,0,56261,0.226326,0.225971,-0.296858,29,0.0180281,10,-6.70813e-05,-3.52745,-0.341914,-0.172558,1.9947,0.225971,
2,0,0,1,0,56261.8,0.218835,0.218501,-0.312509,29,0.0177905,10,-6.82836e-05,-3.50514,-0.321867,-0.183305,2.22796,0.218501,
2,0,0,1,0,56262.5,0.211344,0.210963,-0.325721,29,0.0175421,10,-6.87151e-05,-3.48715,-0.477179,-0.123643,1.56547,0.210963,
2,0,0,1,0,56263.3,0.203854,0.203495,-0.339716,29,0.0172825,10,-6.91305e-05,-3.46888,-0.352747,-0.167259,2.22966,0.203495,
2,0,0,1,0,56264,0.196362,0.195978,-0.355812,29,0.0170119,10,-6.97314e-05,-3.44878,-0.401917,-0.146796,2.03503,0.195978,
2,0,0,1,0,56264.8,0.188872,0.188497,-0.372469,29,0.0167294,10,-7.02092e-05,-3.42891,-0.292933,-0.201411,2.91572,0.188497,
2,0,0,1,0,56265.5,0.18138,0.18103,-0.389884,29,0.0164346,10,-7.05805e-05,-3.40906,-0.340866,-0.173088,2.63662,0.18103,
2,0,0,1,0,56266.3,0.17389,0.173512,-0.409792,29,0.0161261,10,-7.11037e-05,-3.38744,-0.293548,-0.200989,3.20907,0.173512,
2,0,0,1,0,56267,0.166398,0.166026,-0.433299,29,0.0158008,10,-7.19389e-05,-3.36321,-0.31521,-0.187177,3.17491,0.166026,
2,0,0,1,0,56267.8,0.158907,0.158525,-0.465433,29,0.0154538,10,-7.37828e-05,-3.33214,-0.200766,-0.293875,5.36586,0.158525,
2,0,0,1,0,56268.5,0.151417,0.151035,-0.51848,29,0.0150759,10,-7.83086e-05,-3.28527,-0.149097,-0.395715,8.02375,0.151035,
2,0,0,1,0,56269.3,0.143925,0.143547,-0.602798,29,0.0146492,10,-8.65298e-05,-3.21983,-0.0895488,-0.658859,15.4913,0.143547,
2,0,0,1,0,56270,0.136435,0.136064,-0.735108,29,0.0141416,10,-0.000100022,-3.13365,-0.0835783,-0.705925,20.1605,0.136064,
2,0,0,1,0,56270.8,0.128943,0.128589,-0.886116,29,0.0135247,10,-0.000113944,-3.05251,-0.108237,-0.545099,18.7895,0.128589,
2,0,0,1,0,56271.5,0.121453,0.121116,-1.01825,29,0.012799,10,-0.000123326,-2.99215,-0.165157,-0.357236,14.1547,0.1211156,
2,0,0,1,0,56272.3,0.113962,0.113581,-1.09255,29,0.0119929,10,-0.000124094,-2.96156,-0.419695,-0.140578,5.9941,0.113581,
2,0,0,1,0,56273,0.106471,0.106129,-1.1099,29,0.0111533,10,-0.000117792,-2.95472,7.68843,0.00767387,-0.332885,0.106129,
2,0,0,1,0,56273.8,0.0989798,0.0986053,-1.0933,29,0.0103162,10,-0.000107805,-2.96126,1.10898,0.0532021,-2.26599,0.09860529,
2,0,0,1,0,56274.5,0.0914889,0.0911146,-1.07154,29,0.0094952,10,-9.76326e-05,-2.96999,0.84875,0.069514,-2.90191,0.0911146,
2,0,0,1,0,56275.3,0.083998,0.0836568,-1.0465,29,0.00869182,10,-8.75472e-05,-2.98026,0.601708,0.0980543,-4.00256,0.0836568,
2,0,0,1,0,56276,0.076507,0.0761321,-1.02223,29,0.0079067,10,-7.78245e-05,-2.99045,0.636923,0.0926329,-3.69219,0.0761321,
2,0,0,1,0,56276.8,0.069016,0.0687082,-0.991679,29,0.00714207,10,-6.81365e-05,-3.00363,0.587578,0.100412,-3.89642,0.0687082,
2,0,0,1,0,56277.5,0.0615251,0.0611772,-0.963296,29,0.00639828,10,-5.89318e-05,-3.01624,0.592891,0.0995123,-3.74974,0.06117719,
2,0,0,1,0,56278.3,0.0540342,0.0536918,-0.935782,29,0.00567636,10,-5.02438e-05,-3.02883,0.65372,0.0902527,-3.29271,0.0536918,
2,0,0,1,0,56279,0.0465441,0.0462267,-0.904927,29,0.00497652,10,-4.18318e-05,-3.04339,0.570479,0.103422,-3.656,0.0462267,
2,0,0,1,0,56279.8,0.0390523,0.0386701,-0.874216,29,0.00429994,10,-3.3806e-05,-3.05838,0.370497,0.159246,-5.42311,0.0386701,
2,0,0,1,0,56280.5,0.0315618,0.0312277,-0.84206,29,0.00364722,10,-2.62956e-05,-3.07466,0.472019,0.124995,-4.11082,0.0312277,
2,0,0,1,0,56281.3,0.0240704,0.023695,-0.810042,29,0.00301771,10,-1.91939e-05,-3.09149,0.486568,0.121257,-3.84873,0.023695,
2,0,0,1,0,56282,0.0165796,0.0162024,-0.788788,29,0.0024088,10,-1.27802e-05,-3.10304,0.69461,0.0849398,-2.61376,0.0162024,
2,0,0,1,0,56282.8,0.00908846,0.00871994,-0.773202,29,0.00181434,10,-6.74228e-06,-3.11171,1.23759,0.0476733,-1.44012,0.00871994,
2,0,0,1,0,56283.5,0.00159728,0.00121295,-0.777361,29,0.00122656,10,-9.42901e-07,-3.10938, , , ,0.00121295,
2,0,0,1,0,56283.6,0.000199195,-0.000203165,-0.771166,29,0.0011165,10,1.56674e-07,-3.11285, , , ,-0.0002031647,