File: Figure_codes/Fig_3-5/rawdata_trumpetplot_data/after 10th/20221101_1-115_003_TrumpetPlot_ParaChange_from10_every3_10_CV_C01_25.csv
mode,ox/red,error,control changes,counter inc.,time/s,control/V,Ewe/V,<I>/mA,cycle number,(Q-Qo)/C,I Range,P/W,log(|I|),Tafel slope mV/dec,alpha_eff,dI/d(E-IR),E-IR/V,
2,1,0,0,0,50443.8,-2.44065e-05,-0.000306236,5.15105,26,0.0000000E+000,10,-1.57744e-06,-2.2881, , , ,-0.000306236,
2,1,0,1,0,50443.8,0.00977853,0.00941702,7.46396,26,0.000319247,10,7.02883e-05,-2.12703,0.120672,0.488928,141.992,0.009417017,
2,1,0,1,0,50443.9,0.0197755,0.0194379,8.55171,26,0.000722056,10,0.000166227,-2.06795,0.235419,0.250617,83.5977,0.0194379,
2,1,0,1,0,50443.9,0.0297726,0.0294387,9.28339,26,0.00116902,10,0.000273291,-2.03229,0.342723,0.172151,62.3388,0.0294387,
2,1,0,1,0,50444,0.0397514,0.0394097,9.8868,26,0.00164758,10,0.000389636,-2.00494,0.374231,0.157657,60.8351,0.0394097,
2,1,0,1,0,50444,0.0497393,0.0493919,10.4764,26,0.00215557,10,0.00051745,-1.97979,0.408066,0.144584,59.0812,0.0493919,
2,1,0,1,0,50444.1,0.0597364,0.0593581,11.0715,26,0.0026941,10,0.000657186,-1.95579,0.409026,0.144245,62.3115,0.0593581,
2,1,0,1,0,50444.1,0.0697152,0.0693561,11.6935,26,0.0032621,10,0.000811013,-1.93206,0.438895,0.134429,61.3641,0.0693561,
2,1,0,1,0,50444.2,0.0796941,0.0793382,12.3161,26,0.00386138,10,0.000977134,-1.90953,0.476087,0.123927,59.538,0.0793382,
2,1,0,1,0,50444.2,0.0896911,0.0893373,12.9081,26,0.00449235,10,0.00115318,-1.88914,0.504521,0.116943,58.9527,0.0893373,
2,1,0,1,0,50444.3,0.099679,0.0993208,13.488,26,0.00515115,10,0.00133963,-1.87005,0.555208,0.106266,55.8951,0.0993208,
2,1,0,1,0,50444.3,0.109658,0.109296,14.0837,26,0.0058385,10,0.00153929,-1.85128,0.488977,0.12066,66.348,0.109296,
2,1,0,1,0,50444.4,0.119655,0.11931,14.8535,26,0.00656118,10,0.00177216,-1.82817,0.408702,0.144359,83.6885,0.11931,
2,1,0,1,0,50444.4,0.129652,0.129249,15.7566,26,0.00732629,10,0.00203652,-1.80254,0.38959,0.151441,93.1351,0.129249,
2,1,0,1,0,50444.5,0.139631,0.139265,16.6358,26,0.00813529,10,0.00231679,-1.77896,0.472711,0.124812,81.0522,0.139265,
2,1,0,1,0,50444.5,0.149619,0.149265,17.3431,26,0.0089842,10,0.00258873,-1.76087,0.701886,0.0840592,56.8392,0.149265,
2,1,0,1,0,50444.6,0.159616,0.159273,17.6336,26,0.00986123,10,0.00280856,-1.75366,-6.92258,-0.00852283,-5.86396,0.1592733,
2,1,0,1,0,50444.6,0.169595,0.169259,17.14,26,0.0107329,10,0.0029011,-1.76599,-0.376389,-0.156753,-104.647,0.169259,
2,1,0,1,0,50444.7,0.179573,0.179259,15.6328,26,0.0115537,10,0.00280232,-1.80596,-0.191638,-0.307872,-187.747,0.1792594,
2,1,0,1,0,50444.7,0.18957,0.18922,13.6675,26,0.0122862,10,0.00258615,-1.86431,-0.163156,-0.361618,-192.796,0.18922,
2,1,0,1,0,50444.8,0.199558,0.199182,11.935,26,0.0129228,10,0.00237724,-1.92318,-0.187602,-0.314495,-146.612,0.199182,
2,1,0,1,0,50444.8,0.209537,0.209184,10.6829,26,0.0134849,10,0.0022347,-1.97131,-0.227155,-0.259735,-108.198,0.209184,
2,1,0,1,0,50444.9,0.219534,0.219168,9.77699,26,0.0139948,10,0.00214281,-2.00979,-0.306728,-0.192353,-73.5055,0.219168,
2,1,0,1,0,50444.9,0.229531,0.22921,9.14916,26,0.0144673,10,0.00209708,-2.03862,-0.38049,-0.155063,-55.3484,0.22921,
2,1,0,1,0,50445,0.23951,0.23915,8.68002,26,0.0149117,10,0.00207582,-2.06148,-0.515306,-0.114495,-38.8598,0.23915,
2,1,0,1,0,50445,0.249498,0.249178,8.3459,26,0.0153361,10,0.00207961,-2.07853,-0.601571,-0.0980765,-31.8983,0.249178,
2,1,0,1,0,50445.1,0.259495,0.259165,8.06655,26,0.0157461,10,0.00209057,-2.09331,-0.694998,-0.0848923,-26.7397,0.259165,
2,1,0,1,0,50445.1,0.269474,0.269162,7.85421,26,0.0161431,10,0.00211406,-2.1049,-0.897776,-0.065718,-20.1372,0.269162,
2,1,0,1,0,50445.2,0.279453,0.279135,7.66739,26,0.0165304,10,0.00214024,-2.11535,-1.08339,-0.0544587,-16.3143,0.279135,
2,1,0,1,0,50445.2,0.28945,0.289112,7.51343,26,0.0169098,10,0.00217222,-2.12416,-1.31119,-0.0449973,-13.1827,0.289112,
2,1,0,1,0,50445.3,0.299438,0.299076,7.37179,26,0.0172811,10,0.00220473,-2.13243,-0.0714143,-0.826166,-229.85,0.299076,
2,1,0,1,0,50445.3,0.291747,0.291413,1.2213,26,0.017449,10,0.000355902,-2.91318,0.00650142,9.07494,394.246,0.291413,
2,0,0,1,0,50445.4,0.28175,0.281438,-1.35741,26,0.0174362,10,-0.000382026,-2.86729,-0.0173826,-3.3942,172.164,0.2814382,
2,0,0,1,0,50445.4,0.27178,0.271444,-2.60714,26,0.0173342,10,-0.000707692,-2.58384,-0.0615027,-0.959307,97.2929,0.2714442,
2,0,0,1,0,50445.5,0.261783,0.261458,-3.37283,26,0.0171833,10,-0.000881854,-2.47201,-0.130993,-0.450404,59.0937,0.261458,
2,0,0,1,0,50445.5,0.251786,0.251462,-3.90028,26,0.0170007,10,-0.000980773,-2.4089,-0.198672,-0.296972,45.2002,0.2514624,
2,0,0,1,0,50445.6,0.241807,0.241476,-4.30614,26,0.0167955,10,-0.00103983,-2.36591,-0.272587,-0.216445,36.4237,0.241476,
2,0,0,1,0,50445.6,0.231824,0.231465,-4.64696,26,0.0165719,10,-0.00107561,-2.33283,-0.320998,-0.183802,33.3148,0.231465,
2,0,0,1,0,50445.7,0.221822,0.22151,-4.93616,26,0.0163321,10,-0.00109341,-2.30661,-0.395229,-0.14928,28.7306,0.22151,
2,0,0,1,0,50445.7,0.211843,0.211505,-5.20682,26,0.0160789,10,-0.00110127,-2.28343,-0.489532,-0.120523,24.4833,0.211505,
2,0,0,1,0,50445.8,0.201865,0.201571,-5.46218,26,0.0158127,10,-0.00110102,-2.26263,-0.515018,-0.114559,24.4284,0.201571,
2,0,0,1,0,50445.8,0.191868,0.191529,-5.71816,26,0.0155331,10,-0.00109519,-2.24274,-0.507428,-0.116273,25.947,0.191529,
2,0,0,1,0,50445.9,0.18188,0.181496,-5.99322,26,0.0152413,10,-0.00108774,-2.22234,-0.458868,-0.128577,30.0134,0.1814957,
2,0,0,1,0,50445.9,0.171901,0.171532,-6.28707,26,0.0149353,10,-0.00107843,-2.20155,-0.466947,-0.126353,30.991,0.171532,
2,0,0,1,0,50446,0.161904,0.161533,-6.65531,26,0.0146121,10,-0.00107505,-2.17683,-0.360238,-0.163781,42.5764,0.1615334,
2,0,0,1,0,50446,0.151907,0.151565,-7.17052,26,0.0142671,10,-0.0010868,-2.14445,-0.268382,-0.219836,61.5625,0.151565,
2,0,0,1,0,50446.1,0.141928,0.141573,-7.98741,26,0.0138905,10,-0.0011308,-2.09759,-0.174667,-0.337785,105.468,0.141573,
2,0,0,1,0,50446.1,0.13194,0.13158,-9.30066,26,0.0134614,10,-0.00122378,-2.03149,-0.137833,-0.428054,155.354,0.13158,
2,0,0,1,0,50446.2,0.121943,0.121611,-11.0437,26,0.0129538,10,-0.00134303,-1.95688,-0.144889,-0.407209,175.337,0.121611,
2,0,0,1,0,50446.2,0.111964,0.111658,-12.8193,26,0.012358,10,-0.00143137,-1.89214,-0.176027,-0.335176,167.577,0.111658,
2,0,0,1,0,50446.3,0.101985,0.101637,-14.3686,26,0.0116782,10,-0.00146038,-1.84259,-0.245863,-0.239971,134.463,0.101637,
2,0,0,1,0,50446.3,0.0919883,0.0916426,-15.5435,26,0.0109286,10,-0.00142445,-1.80845,-0.362037,-0.162967,98.8067,0.0916426,
2,0,0,1,0,50446.4,0.0820004,0.0816833,-16.2312,26,0.0101332,10,-0.00132582,-1.78965,-0.904355,-0.0652399,41.3112,0.08168333,
2,0,0,1,0,50446.4,0.0720215,0.0716998,-16.3941,26,0.00931719,10,-0.00117546,-1.78531,7.62403,0.00773869,-4.94888,0.0716998,
2,0,0,1,0,50446.5,0.0620245,0.0616798,-16.2172,26,0.00850112,10,-0.00100028,-1.79002,1.44189,0.0409185,-25.9012,0.0616798,
2,0,0,1,0,50446.5,0.0520275,0.0516772,-15.9641,26,0.00769652,10,-0.000824981,-1.79686,1.24595,0.0473536,-29.4813,0.0516772,
2,0,0,1,0,50446.6,0.0420486,0.0417042,-15.6718,26,0.0069071,10,-0.000653581,-1.80488,1.31774,0.0447736,-27.4098,0.0417042,
2,0,0,1,0,50446.6,0.0320607,0.0316858,-15.3686,26,0.00613235,10,-0.000486966,-1.81337,1.03362,0.0570808,-34.2016,0.0316858,
2,0,0,1,0,50446.7,0.0220637,0.021711,-14.9545,26,0.00537405,10,-0.000324676,-1.82523,0.749345,0.0787354,-45.9704,0.021711,
2,0,0,1,0,50446.7,0.0120848,0.0117156,-14.4527,26,0.00464006,10,-0.000169322,-1.84005,0.562327,0.104921,-59.1128,0.0117156,
2,0,0,1,0,50446.8,0.00210598,0.00164935,-13.8703,26,0.00393435,10,-2.2877e-05,-1.85791,0.585085,0.10084,-54.5271,0.00164935,
2,0,0,1,0,50446.8,-0.00789103,-0.00827086,-13.275,26,0.00325602,10,0.000109796,-1.87697,0.589602,0.100068,-51.8686,-0.008270856,
2,0,0,1,0,50446.9,-0.017879,-0.0182634,-12.8391,26,0.00260511,10,0.000234487,-1.89146,0.880584,0.067001,-33.5836,-0.0182634,
2,0,0,1,0,50446.9,-0.0278578,-0.0282692,-12.5768,26,0.00197194,10,0.000355537,-1.90043,1.4338,0.0411494,-20.1905,-0.0282692,
2,0,0,1,0,50447,-0.0378548,-0.0381963,-12.4582,26,0.0013467,10,0.000475857,-1.90454,5.10136,0.0115655,-5.62634,-0.0381963,
2,0,0,1,0,50447,-0.0478519,-0.0482276,-12.4986,26,0.00072318,10,0.000602777,-1.90314,-2.33048,-0.0253167,12.3447,-0.0482276,
2,0,0,1,0,50447.1,-0.0578126,-0.0581894,-12.6314,26,9.76904e-05,10,0.000735012,-1.89855,-1.56354,-0.037735,18.6201,-0.0581894,
2,0,0,1,0,50447.1,-0.0678187,-0.0682701,-12.8747,26,-0.000539699,10,0.000878957,-1.89026,-1.04497,-0.0564612,28.3477,-0.0682701,
2,0,0,1,0,50447.2,-0.0778157,-0.0782172,-13.1763,26,-0.00119093,10,0.00103062,-1.88021,-0.869964,-0.0678189,34.9233,-0.0782172,
2,0,0,1,0,50447.2,-0.0877945,-0.0882153,-13.6,26,-0.00185878,10,0.00119973,-1.86646,-0.705661,-0.0836096,44.3511,-0.0882153,
2,0,0,1,0,50447.3,-0.0977734,-0.0981973,-14.072,26,-0.0025489,10,0.00138183,-1.85164,-0.609339,-0.0968262,53.2073,-0.0981973,
2,0,0,1,1,50447.3,-0.0936874,-0.0940759,-7.27495,26,-0.00302573,10,0.000684397,-2.13817,-0.0225803,-2.61289,743.318,-0.0940759,
2,0,0,1,1,50447.4,-0.0837086,-0.0841473,-1.70973,26,-0.00323689,10,0.000143869,-2.76707,-0.00838032,-7.0403,432.876,-0.0841473,
2,1,0,1,1,50447.4,-0.0737025,-0.074077,1.88714,26,-0.00322617,10,-0.000139793,-2.7242,0.0138145,4.27088,297.74,-0.074077,
2,1,0,1,1,50447.5,-0.0637236,-0.0641096,4.37007,26,-0.00306644,10,-0.000280163,-2.35951,0.0476001,1.23949,210.736,-0.0641096,
2,1,0,1,1,50447.5,-0.0537448,-0.0541039,6.17995,26,-0.00280051,10,-0.000334359,-2.20902,0.0939662,0.627885,150.733,-0.05410387,
2,1,0,1,1,50447.6,-0.0437477,-0.0441785,7.45343,26,-0.00245756,10,-0.000329281,-2.12764,0.159304,0.37036,107.771,-0.0441785,
2,1,0,1,1,50447.6,-0.0337507,-0.0340986,8.37265,26,-0.0020602,10,-0.000285496,-2.07714,0.251733,0.234375,76.4905,-0.0340986,
2,1,0,1,1,50447.7,-0.0237809,-0.0241619,8.98674,26,-0.00162684,10,-0.000217137,-2.0464,0.405704,0.145426,51.0163,-0.0241619,
2,1,0,1,1,50447.7,-0.0137839,-0.0141419,9.39643,26,-0.0011665,10,-0.000132884,-2.02704,0.751585,0.0785008,28.7472,-0.0141419,
2,1,0,1,1,50447.8,-0.0037869,-0.00417402,9.62806,26,-0.000690402,10,-4.01878e-05,-2.01646,1.16235,0.0507591,19.0882,-0.00417402,
2,1,0,1,1,50447.8,-2.55332e-05,-0.000439847,9.6796,26,-0.000509663,10,-4.25755e-06,-2.01414, , , ,-0.000439847,