File: Figure_codes/Fig_3-5/rawdata_trumpetplot_data/after 10th/20221101_1-115_003_TrumpetPlot_ParaChange_from10_every3_10_CV_C01_8.csv
mode,ox/red,error,control changes,counter inc.,time/s,control/V,Ewe/V,<I>/mA,cycle number,(Q-Qo)/C,I Range,P/W,log(|I|),Tafel slope mV/dec,alpha_eff,dI/d(E-IR),E-IR/V,
2,1,0,0,0,16951.6,-2.44065e-05,-0.000363498,5.36539,9,0.0000000E+000,10,-1.95031e-06,-2.2704, , , ,-0.000363498,
2,1,0,1,0,16951.6,0.00977853,0.00941875,8.58575,9,0.000358522,10,8.08671e-05,-2.06622,0.113001,0.522119,173.944,0.009418752,
2,1,0,1,0,16951.7,0.0197755,0.0194639,9.7957,9,0.000821471,10,0.000190662,-2.00896,0.259685,0.227198,86.8918,0.0194639,
2,1,0,1,0,16951.7,0.0297726,0.0294752,10.5851,9,0.00133184,10,0.000311999,-1.9753,0.362663,0.162686,67.0911,0.0294752,
2,1,0,1,0,16951.8,0.0397514,0.0394328,11.2767,9,0.00187732,10,0.000444671,-1.94782,0.334483,0.176391,77.7097,0.03943276,
2,1,0,1,0,16951.8,0.0497393,0.0494015,12.0325,9,0.00245867,10,0.000594421,-1.91965,0.359489,0.164122,76.9467,0.0494015,
2,1,0,1,0,16951.9,0.0597364,0.0594215,12.802,9,0.00307929,10,0.000760711,-1.89272,0.361454,0.16323,81.5729,0.05942145,
2,1,0,1,0,16951.9,0.0697152,0.0694245,13.5839,9,0.00373744,10,0.000943058,-1.86697,0.398357,0.148108,78.4893,0.06942451,
2,1,0,1,0,16952,0.0796941,0.0793634,14.3342,9,0.00443463,10,0.00113761,-1.84363,0.457589,0.128937,72.209,0.0793634,
2,1,0,1,0,16952,0.0896911,0.0893634,15.0346,9,0.00516945,10,0.00134354,-1.82291,0.504459,0.116957,68.6112,0.0893634,
2,1,0,1,0,16952.1,0.099679,0.0993391,15.7035,9,0.00593632,10,0.00155997,-1.804,0.520867,0.113273,69.4381,0.0993391,
2,1,0,1,0,16952.1,0.109658,0.109326,16.5339,9,0.00673928,10,0.00180758,-1.78163,0.385562,0.153024,98.7146,0.109326,
2,1,0,1,0,16952.2,0.119655,0.119372,17.6739,9,0.00759321,10,0.00210977,-1.75267,0.326987,0.180435,124.541,0.119372,
2,1,0,1,0,16952.2,0.129652,0.129291,18.974,9,0.00850973,10,0.00245316,-1.72184,0.342451,0.172288,127.512,0.1292906,
2,1,0,1,0,16952.3,0.139631,0.139327,20.1005,9,0.00948628,10,0.00280055,-1.69679,0.468429,0.125953,98.8307,0.139327,
2,1,0,1,0,16952.3,0.149619,0.149271,20.9187,9,0.0105113,10,0.00312255,-1.67946,0.841487,0.070114,57.1556,0.149271,
2,1,0,1,0,16952.4,0.159616,0.159259,20.9418,9,0.0115628,10,0.00333516,-1.67899,-0.659076,-0.0895193,-73.0816,0.159259,
2,1,0,1,0,16952.4,0.169595,0.169293,19.1953,9,0.0125731,10,0.00324962,-1.71681,-0.153423,-0.384558,-287.142,0.169293,
2,1,0,1,0,16952.5,0.179573,0.179251,15.6813,9,0.0134462,10,0.00281089,-1.80462,-0.0993476,-0.593875,-363.811,0.179251,
2,1,0,1,0,16952.5,0.18957,0.189221,12.5607,9,0.0141468,10,0.00237676,-1.90098,-0.118757,-0.496814,-243.777,0.189221,
2,1,0,1,0,16952.6,0.199558,0.199227,10.716,9,0.0147227,10,0.00213492,-1.96997,-0.187821,-0.314128,-131.582,0.199227,
2,1,0,1,0,16952.6,0.209537,0.209253,9.72777,9,0.0152301,10,0.00203556,-2.01199,-0.27547,-0.21418,-81.2536,0.209253,
2,1,0,1,0,16952.7,0.219534,0.219233,9.09333,9,0.0156992,10,0.00199356,-2.04128,-0.445817,-0.132341,-47.0155,0.219233,
2,1,0,1,0,16952.7,0.229531,0.229228,8.67738,9,0.0161432,10,0.0019891,-2.06161,-0.555508,-0.106209,-35.9954,0.2292283,
2,1,0,1,0,16952.8,0.23951,0.239187,8.38108,9,0.0165687,10,0.00200465,-2.0767,-0.796524,-0.0740718,-24.2677,0.239187,
2,1,0,1,0,16952.8,0.249498,0.249207,8.16463,9,0.0169812,10,0.00203469,-2.08806,-1.03026,-0.0572674,-18.2159,0.2492075,
2,1,0,1,0,16952.9,0.259495,0.259225,7.9721,9,0.0173843,10,0.00206657,-2.09843,-0.990156,-0.0595866,-18.5464,0.259225,
2,1,0,1,0,16952.9,0.269474,0.269177,7.82025,9,0.0177782,10,0.00210503,-2.10678,-1.16336,-0.0507151,-15.4785,0.269177,
2,1,0,1,0,16953,0.279453,0.279172,7.67881,9,0.0181648,10,0.00214371,-2.11471,-1.25831,-0.0468883,-14.0641,0.279172,
2,1,0,1,0,16953,0.28945,0.28913,7.54973,9,0.0185456,10,0.00218286,-2.12207,-1.57724,-0.0374072,-11.0176,0.28913,
2,1,0,1,0,16953.1,0.299438,0.299174,7.42531,9,0.0189193,10,0.00222146,-2.12929,-0.0514205,-1.1474,-317.033,0.2991738,
2,0,0,1,0,16953.1,0.291747,0.291438,-0.770596,9,0.0190251,10,-0.000224581,-3.11317,-0.00382491,-15.4252,393.578,0.291438,
2,0,0,1,0,16953.2,0.28175,0.281442,-2.8473,9,0.0189237,10,-0.000801348,-2.54557,-0.0566871,-1.0408,114.675,0.281442,
2,0,0,1,0,16953.2,0.27178,0.271459,-3.66158,9,0.0187595,10,-0.000993968,-2.43633,-0.134541,-0.438529,62.3299,0.271459,
2,0,0,1,0,16953.3,0.261783,0.261488,-4.14965,9,0.0185635,10,-0.00108508,-2.38199,-0.241265,-0.244545,39.6196,0.2614876,
2,0,0,1,0,16953.3,0.251786,0.251456,-4.53323,9,0.0183461,10,-0.00113991,-2.34359,-0.299585,-0.196939,34.749,0.251456,
2,0,0,1,0,16953.4,0.241807,0.241506,-4.83749,9,0.0181119,10,-0.00116828,-2.31538,-0.379265,-0.155564,29.4728,0.241506,
2,0,0,1,0,16953.4,0.231824,0.231477,-5.13415,9,0.0178631,10,-0.00118844,-2.28953,-0.410917,-0.143581,28.6755,0.231477,
2,0,0,1,0,16953.5,0.221822,0.221507,-5.38428,9,0.0176002,10,-0.00119266,-2.26887,-0.486766,-0.121208,25.4966,0.221507,
2,0,0,1,0,16953.5,0.211843,0.21154,-5.64855,9,0.017325,10,-0.00119489,-2.24806,-0.563456,-0.104711,23.0569,0.21154,
2,0,0,1,0,16953.6,0.201865,0.201551,-5.89914,9,0.0170369,10,-0.00118898,-2.22921,-0.602182,-0.097977,22.5918,0.201551,
2,0,0,1,0,16953.6,0.191868,0.191523,-6.19057,9,0.0167347,10,-0.00118564,-2.20827,-0.453058,-0.130226,31.4353,0.191523,
2,0,0,1,0,16953.7,0.18188,0.181528,-6.51726,9,0.0164183,10,-0.00118306,-2.18593,-0.367833,-0.160399,40.7937,0.181528,
2,0,0,1,0,16953.7,0.171901,0.171543,-6.92954,9,0.0160835,10,-0.00118871,-2.1593,-0.347917,-0.169581,45.7578,0.171543,
2,0,0,1,0,16953.8,0.161904,0.161601,-7.49419,9,0.0157239,10,-0.00121107,-2.12528,-0.245441,-0.240384,70.4087,0.161601,
2,0,0,1,0,16953.8,0.151907,0.1516,-8.38546,9,0.0153283,10,-0.00127124,-2.07647,-0.176654,-0.333985,109.409,0.1516,
2,0,0,1,0,16953.9,0.141928,0.14161,-9.85928,9,0.0148761,10,-0.00139617,-2.00615,-0.119395,-0.49416,190.464,0.14161,
2,0,0,1,0,16953.9,0.13194,0.13164,-12.1107,9,0.0143307,10,-0.00159425,-1.91683,-0.10796,-0.5465,258.12,0.13164,
2,0,0,1,0,16954,0.121943,0.121635,-14.7322,9,0.0136591,10,-0.00179195,-1.83173,-0.132925,-0.443858,255.399,0.121635,
2,0,0,1,0,16954,0.111964,0.111657,-17.1489,9,0.0128609,10,-0.00191479,-1.76576,-0.18429,-0.320148,213.918,0.111657,
2,0,0,1,0,16954.1,0.101985,0.101701,-18.8935,9,0.0119587,10,-0.00192149,-1.72369,-0.311384,-0.189477,139.585,0.101701,
2,0,0,1,0,16954.1,0.0919883,0.0916816,-19.9055,9,0.0109851,10,-0.00182497,-1.70103,-0.765495,-0.0770743,59.7977,0.0916816,
2,0,0,1,0,16954.2,0.0820004,0.0816873,-19.9848,9,0.00998575,10,-0.0016325,-1.6993,1.24553,0.0473693,-36.929,0.0816873,
2,0,0,1,0,16954.2,0.0720215,0.071685,-19.2989,9,0.00900354,10,-0.00138344,-1.71447,0.474118,0.124441,-93.6413,0.071685,
2,0,0,1,0,16954.3,0.0620245,0.0616755,-18.3672,9,0.0080624,10,-0.00113281,-1.73596,0.500261,0.117939,-84.6192,0.0616755,
2,0,0,1,0,16954.3,0.0520275,0.0517102,-17.6521,9,0.0071628,10,-0.000912792,-1.7532,0.612883,0.0962663,-66.2594,0.0517102,
2,0,0,1,0,16954.4,0.0420486,0.0417384,-17.0302,9,0.00629776,10,-0.000710814,-1.76878,0.681484,0.0865757,-57.616,0.0417384,
2,0,0,1,0,16954.4,0.0320607,0.03175,-16.4738,9,0.0054619,10,-0.000523043,-1.78321,0.611269,0.0965206,-61.9298,0.03175,
2,0,0,1,0,16954.5,0.0220637,0.0217674,-15.7727,9,0.00465558,10,-0.000343329,-1.8021,0.473552,0.12459,-76.7268,0.02176738,
2,0,0,1,0,16954.5,0.0120848,0.0117896,-14.9596,9,0.00388834,10,-0.000176367,-1.82508,0.366189,0.161119,-93.9695,0.0117896,
2,0,0,1,0,16954.6,0.00210598,0.00174044,-14.1106,9,0.00316485,10,-2.45587e-05,-1.85046,0.443592,0.133005,-73.1189,0.00174044,
2,0,0,1,0,16954.6,-0.00789103,-0.00825784,-13.3496,9,0.00247948,10,0.000110239,-1.87453,0.538019,0.109661,-57.1478,-0.00825784,
2,0,0,1,0,16954.7,-0.017879,-0.0182412,-12.9145,9,0.00182534,10,0.000235576,-1.88892,1.10746,0.0532753,-26.867,-0.0182412,
2,0,0,1,0,16954.7,-0.0278578,-0.0282171,-12.7519,9,0.00118622,10,0.000359823,-1.89442,4.54433,0.0129832,-6.4588,-0.0282171,
2,0,0,1,0,16954.8,-0.0378549,-0.0381764,-12.7812,9,0.00054868,10,0.000487938,-1.89343,-2.38047,-0.024785,12.3712,-0.0381764,
2,0,0,1,0,16954.8,-0.0478519,-0.048205,-12.9822,9,-9.48767e-05,10,0.000625809,-1.88665,-0.983092,-0.0600147,30.3789,-0.048205,
2,0,0,1,0,16954.9,-0.0578126,-0.0581703,-13.2719,9,-0.000748243,10,0.000772033,-1.87707,-0.866511,-0.0680892,35.3044,-0.0581703,
2,0,0,1,0,16954.9,-0.0678187,-0.0682354,-13.6926,9,-0.00142206,10,0.000934318,-1.86352,-0.679421,-0.0868386,46.3529,-0.0682354,
2,0,0,1,0,16955,-0.0778157,-0.07816,-14.1851,9,-0.00211865,10,0.00110871,-1.84817,-0.612811,-0.0962777,53.3627,-0.07816,
2,0,0,1,0,16955,-0.0877945,-0.0881851,-14.8199,9,-0.00284185,10,0.00130689,-1.82916,-0.49413,-0.119402,69.0005,-0.0881851,
2,0,0,1,0,16955.1,-0.0977734,-0.0981236,-15.5186,9,-0.00359858,10,0.00152274,-1.80915,-0.461147,-0.127942,77.5761,-0.0981236,
2,0,0,1,1,16955.1,-0.0936874,-0.0940521,-5.79589,9,-0.00408424,10,0.000545116,-2.23688,-0.0128575,-4.58877,1026.18,-0.0940521,
2,1,0,1,1,16955.1,-0.0837086,-0.0840823,1.37919,9,-0.00417279,10,-0.000115966,-2.86038,0.0045183,13.058,506.534,-0.0840823,
2,1,0,1,1,16955.2,-0.0737025,-0.0740458,5.27925,9,-0.00399742,10,-0.000390906,-2.27743,0.040343,1.46246,297.555,-0.0740458,
2,1,0,1,1,16955.2,-0.0637236,-0.0640794,7.58944,9,-0.00367154,10,-0.000486326,-2.11979,0.0983784,0.599725,177.159,-0.0640794,
2,1,0,1,1,16955.3,-0.0537447,-0.0540917,8.98013,9,-0.00325501,10,-0.000485751,-2.04672,0.196698,0.299952,104.913,-0.0540917,
2,1,0,1,1,16955.3,-0.0437477,-0.0441221,9.80208,9,-0.00278341,10,-0.000432488,-2.00868,0.375781,0.157006,60.0416,-0.0441221,
2,1,0,1,1,16955.4,-0.0337507,-0.0340917,10.2672,9,-0.00228017,10,-0.000350027,-1.98855,0.716488,0.0823461,33.0023,-0.03409167,
2,1,0,1,1,16955.4,-0.0237809,-0.0241628,10.4903,9,-0.00176275,10,-0.000253475,-1.97921,1.54463,0.038197,15.6145,-0.0241628,
2,1,0,1,1,16955.5,-0.0137839,-0.0140925,10.5586,9,-0.00123628,10,-0.000148797,-1.97639,55.924,0.001055,0.434565,-0.0140925,
2,1,0,1,1,16955.5,-0.0037869,-0.00413932,10.5686,9,-0.000708218,10,-4.37468e-05,-1.97598,111.685,0.000528272,0.217735,-0.00413932,
2,1,0,1,1,16955.6,-2.55332e-05,-0.00042076,10.5491,9,-0.000510731,10,-4.43862e-06,-1.97679, , , ,-0.00042076,