File: Figure_codes/Fig_3-5/rawdata_trumpetplot_data/after 10th/20221101_1-115_003_TrumpetPlot_ParaChange_from10_every3_02_CV_C01_12.csv
mode,ox/red,error,control changes,counter inc.,time/s,control/V,Ewe/V,<I>/mA,cycle number,(Q-Qo)/C,I Range,P/W,log(|I|),Tafel slope mV/dec,alpha_eff,dI/d(E-IR),E-IR/V,
2,0,0,1,0,23981.6,2.44065e-05,-0.0002108,-0.384972,13,0.0000000E+000,10,8.1152e-08,-3.41457, , , ,-0.0002108,
2,0,0,1,0,23988.9,0.00729061,0.00694482,-0.0939595,13,-0.00092537,10,-6.52531e-07,-4.02706,-0.0306356,-1.92586,7.18409,0.006944818,
2,0,0,1,0,23996.4,0.0147815,0.0144439,-0.058552,13,-0.00138836,10,-8.45721e-07,-4.23246,-0.041997,-1.40486,3.21976,0.0144439,
2,0,0,1,0,24003.8,0.0222725,0.0219506,-0.0378877,13,-0.00165255,10,-8.31658e-07,-4.4215,-0.038414,-1.5359,2.26318,0.0219506,
2,0,0,1,0,24011.3,0.0297635,0.029435,-0.0223763,13,-0.00178324,10,-6.58648e-07,-4.65021,-0.0267966,-2.20177,1.87143,0.029435,
2,0,0,1,0,24018.8,0.0372544,0.0369076,-0.00987075,13,-0.00180511,10,-3.64306e-07,-5.00565,-0.0140559,-4.19752,1.46212,0.0369076,
2,0,0,1,0,24026.3,0.0447454,0.0444249,0.00214634,13,-0.00173546,10,9.53511e-08,-5.6683,0.00658051,8.96588,1.56516,0.0444249,
2,1,0,1,0,24033.8,0.0522363,0.0518997,0.0122412,13,-0.00158152,10,6.35313e-07,-4.91218,0.0197056,2.99407,1.4096,0.0518997,
2,1,0,1,0,24041.3,0.0597273,0.0594063,0.022429,13,-0.0013525,10,1.33242e-06,-4.64919,0.0363956,1.62108,1.3863,0.0594063,
2,1,0,1,0,24048.8,0.0672183,0.0669321,0.0304041,13,-0.00105456,10,2.03501e-06,-4.51707,0.0601265,0.981265,1.16027,0.0669321,
2,1,0,1,0,24056.3,0.0747092,0.0743761,0.0378935,13,-0.000697618,10,2.81837e-06,-4.42144,0.0807985,0.730211,1.08943,0.0743761,
2,1,0,1,0,24063.8,0.0822001,0.0818752,0.0445757,13,-0.000283327,10,3.64965e-06,-4.3509,0.132459,0.445421,0.787452,0.0818752,
2,1,0,1,0,24071.3,0.0896911,0.0893427,0.0529997,13,0.000185038,10,4.73514e-06,-4.27573,0.0806632,0.731437,1.53356,0.0893427,
2,1,0,1,0,24078.8,0.0971821,0.0968228,0.0635475,13,0.000726549,10,6.15285e-06,-4.1969,0.0874462,0.674701,1.67702,0.0968228,
2,1,0,1,0,24086.2,0.104673,0.104371,0.0754221,13,0.00135054,10,7.87185e-06,-4.1225,0.112563,0.524149,1.5318,0.104371,
2,1,0,1,0,24093.7,0.112164,0.111846,0.0844459,13,0.00205798,10,9.4449e-06,-4.07342,0.287431,0.205267,0.68134,0.111846,
2,1,0,1,0,24101.2,0.119655,0.119338,0.0937031,13,0.00283052,10,1.11824e-05,-4.02825,0.180939,0.326076,1.19038,0.119338,
2,1,0,1,0,24108.7,0.127146,0.126814,0.100682,13,0.00366875,10,1.27679e-05,-3.99705,0.668727,0.0882273,0.347166,0.126814,
2,1,0,1,0,24116.2,0.134637,0.134349,0.100756,13,0.00454052,10,1.35366e-05,-3.99673,-0.271978,-0.216929,-0.855223,0.134349,
2,1,0,1,0,24123.7,0.142128,0.141785,0.0850614,13,0.0053533,10,1.20604e-05,-4.07027,-0.0734248,-0.803543,-2.66738,0.141785,
2,1,0,1,0,24131.2,0.149619,0.149297,0.065135,13,0.0060154,10,9.72446e-06,-4.18619,-0.0801405,-0.736207,-1.89451,0.149297,
2,1,0,1,0,24138.7,0.15711,0.156754,0.0557959,13,0.00656321,10,8.74622e-06,-4.2534,-0.126465,-0.466532,-1.01402,0.156754,
2,1,0,1,0,24146.2,0.164601,0.164239,0.0519106,13,0.00705778,10,8.52576e-06,-4.28474,-0.362189,-0.162899,-0.330821,0.164239,
2,1,0,1,0,24153.7,0.172091,0.171763,0.0501879,13,0.00753117,10,8.6204e-06,-4.2994,-0.926703,-0.0636666,-0.125197,0.171763,
2,1,0,1,0,24161.2,0.179582,0.179291,0.048956,13,0.00799488,10,8.77735e-06,-4.31019,3.64121,0.0162034,0.0313014,0.179291,
2,1,0,1,0,24168.6,0.187073,0.186775,0.0496672,13,0.00845699,10,9.2766e-06,-4.30393,-1.54902,-0.0380886,-0.0739737,0.186775,
2,1,0,1,0,24176.1,0.194564,0.194198,0.0498776,13,0.00891818,10,9.68611e-06,-4.30209,0.341161,0.172939,0.33774,0.1941977,
2,1,0,1,0,24183.6,0.202055,0.201747,0.0507823,13,0.00938515,10,1.02452e-05,-4.29429,-1.25374,-0.0470592,-0.0931344,0.201747,
2,1,0,1,0,24191.1,0.209546,0.209245,0.0508088,13,0.00985523,10,1.06315e-05,-4.29406,6.65575,0.00886452,0.0177518,0.209245,
2,1,0,1,0,24198.6,0.217037,0.216765,0.0519106,13,0.0103295,10,1.12524e-05,-4.28474,0.821295,0.0718377,0.146837,0.216765,
2,1,0,1,0,24206.1,0.224528,0.224249,0.053038,13,0.0108084,10,1.18937e-05,-4.27541,0.393282,0.15002,0.3083,0.224249,
2,1,0,1,0,24213.6,0.232019,0.231693,0.0542533,13,0.0112953,10,1.25701e-05,-4.26557,-2.08822,-0.0282537,-0.0594896,0.231693,
2,1,0,1,0,24221.1,0.23951,0.239224,0.0544044,13,0.0117859,10,1.30148e-05,-4.26437,0.649253,0.0908737,0.194616,0.239224,
2,1,0,1,0,24228.6,0.247001,0.246689,0.0557404,13,0.0122848,10,1.37505e-05,-4.25383,-1.88737,-0.0312605,-0.0679419,0.246689,
2,1,0,1,0,24236.1,0.254492,0.254204,0.0564571,13,0.0127886,10,1.43516e-05,-4.24828,0.452516,0.130382,0.287782,0.254204,
2,1,0,1,0,24243.6,0.261983,0.26171,0.057226,13,0.0132988,10,1.49766e-05,-4.24241,0.856915,0.0688516,0.153912,0.26171,
2,1,0,1,0,24251,0.269474,0.269166,0.0582522,13,0.0138134,10,1.56795e-05,-4.23469,0.394066,0.149721,0.339257,0.269166,
2,1,0,1,0,24258.5,0.276965,0.276659,0.0594263,13,0.0143354,10,1.64408e-05,-4.22602,2.17767,0.0270932,0.0624378,0.276659,
2,1,0,1,0,24266,0.284456,0.284161,0.0600365,13,0.0148616,10,1.706e-05,-4.22158,1.47117,0.040104,0.0939889,0.284161,
2,1,0,1,0,24273.5,0.291947,0.29169,0.0613342,13,0.0153958,10,1.78906e-05,-4.2123,1.31367,0.0449122,0.106508,0.29169,
2,1,0,1,0,24281,0.299438,0.299133,0.0613626,13,0.0159328,10,1.83556e-05,-4.2121,-0.00467817,-12.6118,-19.9875,0.299133,
2,1,0,1,0,24287.9,0.293745,0.293418,0.0100833,13,0.016019,10,2.95863e-06,-4.9964,0.0144282,4.08922,1.62248,0.293418,
2,0,0,1,0,24295.3,0.286254,0.285935,0.00194918,13,0.0159816,10,5.57339e-07,-5.71015,0.00452707,13.0327,0.716,0.285935,
2,0,0,1,0,24302.8,0.278763,0.278475,-0.00349135,13,0.0158956,10,-9.72252e-07,-5.45701,-0.0123214,-4.78843,0.640226,0.278475,
2,0,0,1,0,24310.3,0.271272,0.270961,-0.00813943,13,0.0157722,10,-2.20546e-06,-5.08941,-0.0244698,-2.41114,0.762995,0.270961,
2,0,0,1,0,24317.8,0.263781,0.263454,-0.0118431,13,0.0156156,10,-3.1201e-06,-4.92654,-0.0698335,-0.844867,0.400641,0.263454,
2,0,0,1,0,24325.3,0.25629,0.255968,-0.0159519,13,0.0154314,10,-4.08318e-06,-4.79719,-0.0591031,-0.998255,0.629334,0.255968,
2,0,0,1,0,24332.8,0.248799,0.24851,-0.0196663,13,0.0152171,10,-4.88727e-06,-4.70628,-0.123683,-0.477026,0.361434,0.24851,
2,0,0,1,0,24340.3,0.241308,0.240998,-0.0220777,13,0.0149807,10,-5.32069e-06,-4.65605,-0.129254,-0.456467,0.38942,0.240998,
2,0,0,1,0,24347.8,0.233817,0.233483,-0.024678,13,0.0147216,10,-5.76189e-06,-4.60769,-0.280632,-0.21024,0.202936,0.233483,
2,0,0,1,0,24355.3,0.226326,0.226028,-0.0274872,13,0.0144422,10,-6.21287e-06,-4.56087,-0.170724,-0.345587,0.370521,0.226028,
2,0,0,1,0,24362.8,0.218835,0.218486,-0.0304114,13,0.0141413,10,-6.64448e-06,-4.51696,-0.250382,-0.23564,0.279168,0.218486,
2,0,0,1,0,24370.3,0.211344,0.211017,-0.0329948,13,0.0138189,10,-6.96246e-06,-4.48155,-0.155865,-0.378533,0.489579,0.211017,
2,0,0,1,0,24377.7,0.203853,0.203513,-0.0357923,13,0.0134731,10,-7.28421e-06,-4.44621,-0.215166,-0.274207,0.384266,0.203513,
2,0,0,1,0,24385.2,0.196362,0.196043,-0.0390197,13,0.0131056,10,-7.64954e-06,-4.40872,-0.177608,-0.332192,0.504808,0.196043,
2,0,0,1,0,24392.7,0.188871,0.188534,-0.0418964,13,0.0127112,10,-7.8989e-06,-4.37782,-0.224639,-0.262644,0.432397,0.188534,
2,0,0,1,0,24400.2,0.18138,0.181079,-0.0461422,13,0.0122919,10,-8.35541e-06,-4.3359,-0.218971,-0.269442,0.483105,0.181079,
2,0,0,1,0,24407.7,0.173889,0.173536,-0.0503491,13,0.0118407,10,-8.73738e-06,-4.29801,-0.189168,-0.311892,0.615022,0.173536,
2,0,0,1,0,24415.2,0.166398,0.166097,-0.0561285,13,0.0113495,10,-9.32278e-06,-4.25082,-0.165484,-0.35653,0.779164,0.166097,
2,0,0,1,0,24422.7,0.158907,0.158593,-0.0626873,13,0.0108107,10,-9.94179e-06,-4.20282,-0.11847,-0.498015,1.22275,0.158593,
2,0,0,1,0,24430.2,0.151417,0.151101,-0.0739039,13,0.0102012,10,-1.11669e-05,-4.13133,-0.0938522,-0.628648,1.82928,0.151101,
2,0,0,1,0,24437.7,0.143926,0.14363,-0.0918554,13,0.00948447,10,-1.31932e-05,-4.0369,-0.0688608,-0.856801,3.0706,0.14363,
2,0,0,1,0,24445.2,0.136435,0.136112,-0.116933,13,0.0086018,10,-1.5916e-05,-3.93206,-0.0777501,-0.758841,3.44937,0.136112,
2,0,0,1,0,24452.7,0.128944,0.128633,-0.138862,13,0.0075308,10,-1.78623e-05,-3.85742,-0.167552,-0.352129,1.89981,0.128633,
2,0,0,1,0,24460.1,0.121453,0.121094,-0.147093,13,0.00634426,10,-1.78121e-05,-3.83241,-1.58716,-0.0371733,0.212932,0.121094,
2,0,0,1,0,24467.6,0.113962,0.113636,-0.14586,13,0.00513633,10,-1.65749e-05,-3.83606,1.54952,0.0380764,-0.218539,0.113636,
2,0,0,1,0,24475.1,0.106471,0.10613,-0.143774,13,0.00394056,10,-1.52588e-05,-3.84232,1.71386,0.0344253,-0.194638,0.10613,
2,0,0,1,0,24482.6,0.0989798,0.0986562,-0.141337,13,0.0027668,10,-1.39438e-05,-3.84974,0.650339,0.0907219,-0.496667,0.0986562,
2,0,0,1,0,24490.1,0.0914889,0.091158,-0.135164,13,0.00162946,10,-1.23213e-05,-3.86914,0.404174,0.145977,-0.769907,0.091158,
2,0,0,1,0,24497.6,0.083998,0.0836812,-0.129544,13,0.000536999,10,-1.08404e-05,-3.88758,0.409966,0.143914,-0.7242,0.0836812,
2,0,0,1,0,24505.1,0.076507,0.0761947,-0.125118,13,-0.00051682,10,-9.53332e-06,-3.90268,0.579878,0.101746,-0.494249,0.0761947,
2,0,0,1,0,24512.6,0.069016,0.0686901,-0.12108,13,-0.00153879,10,-8.31701e-06,-3.91693,0.590098,0.0999834,-0.473813,0.0686901,
2,0,0,1,0,24520.1,0.0615251,0.0612111,-0.117631,13,-0.00253548,10,-7.2003e-06,-3.92948,1.05716,0.0558099,-0.256591,0.06121112,
2,0,0,1,0,24527.6,0.0540342,0.0537141,-0.115343,13,-0.00350912,10,-6.19556e-06,-3.93801,0.784001,0.075255,-0.33789,0.0537141,
2,0,0,1,0,24535.1,0.0465432,0.0461915,-0.112118,13,-0.00446199,10,-5.17889e-06,-3.95033,0.782477,0.0754016,-0.332538,0.04619154,
2,0,0,1,0,24542.5,0.0390522,0.0386902,-0.10954,13,-0.00539384,10,-4.23813e-06,-3.96043,0.723712,0.0815242,-0.34943,0.0386902,
2,0,0,1,0,24550,0.0315613,0.0312409,-0.107173,13,-0.00630458,10,-3.34819e-06,-3.96991,0.762922,0.0773343,-0.324698,0.0312409,
2,0,0,1,0,24557.5,0.0240703,0.0237681,-0.105031,13,-0.00719732,10,-2.49639e-06,-3.97868,1.3779,0.0428189,-0.176064,0.0237681,
2,0,0,1,0,24565,0.0165794,0.0162679,-0.104971,13,-0.00807905,10,-1.70767e-06,-3.97893,27.6929,0.00213051,-0.00869334,0.0162679,
2,0,0,1,0,24572.5,0.00908843,0.00873792,-0.10546,13,-0.00896178,10,-9.21503e-07,-3.97691,-1.06524,-0.0553867,0.228266,0.00873792,
2,0,0,1,0,24580,0.00159744,0.00123339,-0.109167,13,-0.00986052,10,-1.34645e-07,-3.96191, , , ,0.00123339,
2,0,0,1,0,24581.4,0.000199235,-0.00014971,-0.109446,13,-0.0100309,10,1.63851e-08,-3.9608, , , ,-0.00014971,