File: Figure_codes/Fig_3-5/rawdata_trumpetplot_data/after 10th/20221101_1-115_003_TrumpetPlot_ParaChange_from10_every3_10_CV_C01_24.csv
mode,ox/red,error,control changes,counter inc.,time/s,control/V,Ewe/V,<I>/mA,cycle number,(Q-Qo)/C,I Range,P/W,log(|I|),Tafel slope mV/dec,alpha_eff,dI/d(E-IR),E-IR/V,
2,1,0,0,0,48473.6,-2.44065e-05,-0.000344411,5.13769,25,0.0000000E+000,10,-1.76948e-06,-2.28923, , , ,-0.000344411,
2,1,0,1,0,48473.7,0.00977853,0.00944825,7.43667,25,0.000318097,10,7.02635e-05,-2.12862,0.119339,0.494388,143.169,0.00944825,
2,1,0,1,0,48473.7,0.0197755,0.0194205,8.53659,25,0.000719863,10,0.000165785,-2.06872,0.231866,0.254458,84.6928,0.0194205,
2,1,0,1,0,48473.8,0.0297726,0.0294656,9.26347,25,0.00116591,10,0.000272954,-2.03323,0.343646,0.171688,62.0552,0.0294656,
2,1,0,1,0,48473.8,0.0397514,0.0394232,9.86923,25,0.00164365,10,0.000389077,-2.00572,0.362392,0.162807,62.7106,0.03942322,
2,1,0,1,0,48473.9,0.0497393,0.0493451,10.4673,25,0.00215099,10,0.00051651,-1.98017,0.399411,0.147717,60.3173,0.0493451,
2,1,0,1,0,48473.9,0.0597364,0.059405,11.0689,25,0.0026891,10,0.00065755,-1.95589,0.398648,0.148,63.8823,0.059405,
2,1,0,1,0,48474,0.0697152,0.0693832,11.6976,25,0.00325714,10,0.000811618,-1.9319,0.437768,0.134775,61.5711,0.0693832,
2,1,0,1,0,48474,0.0796941,0.0793356,12.3291,25,0.00385694,10,0.000978139,-1.90907,0.460631,0.128085,61.6239,0.0793356,
2,1,0,1,0,48474.1,0.0896911,0.0893304,12.9448,25,0.00448925,10,0.00115636,-1.88791,0.497527,0.118586,59.9583,0.0893304,
2,1,0,1,0,48474.1,0.099679,0.0993518,13.5299,25,0.0051499,10,0.00134422,-1.86871,0.559633,0.105426,55.6044,0.0993518,
2,1,0,1,0,48474.2,0.109658,0.109324,14.111,25,0.00583907,10,0.00154267,-1.85044,0.501168,0.117725,64.8914,0.109324,
2,1,0,1,0,48474.2,0.119655,0.119298,14.873,25,0.00656299,10,0.00177433,-1.8276,0.417566,0.141295,81.9913,0.119298,
2,1,0,1,0,48474.3,0.129652,0.129307,15.7671,25,0.00732874,10,0.0020388,-1.80225,0.38151,0.154649,95.2035,0.129307,
2,1,0,1,0,48474.3,0.139631,0.139291,16.6755,25,0.00813891,10,0.00232275,-1.77792,0.45968,0.12835,83.5068,0.139291,
2,1,0,1,0,48474.4,0.149619,0.149255,17.4079,25,0.00899036,10,0.00259822,-1.75925,0.643161,0.0917344,62.2938,0.149255,
2,1,0,1,0,48474.4,0.159616,0.159291,17.7682,25,0.00987206,10,0.00283031,-1.75036,21.8686,0.00269793,1.86923,0.159291,
2,1,0,1,0,48474.5,0.169595,0.16927,17.3401,25,0.0107521,10,0.00293517,-1.76095,-0.41879,-0.140882,-95.2221,0.16927,
2,1,0,1,0,48474.5,0.179573,0.179226,15.874,25,0.0115844,10,0.00284503,-1.79931,-0.194308,-0.303641,-187.967,0.179226,
2,1,0,1,0,48474.6,0.18957,0.189233,13.8427,25,0.0123279,10,0.00261948,-1.85878,-0.157809,-0.373869,-202.081,0.189233,
2,1,0,1,0,48474.6,0.199558,0.199221,12.0212,25,0.012971,10,0.00239487,-1.92005,-0.176859,-0.333599,-156.418,0.199221,
2,1,0,1,0,48474.7,0.209537,0.209181,10.6663,25,0.0135347,10,0.00223119,-1.97199,-0.215874,-0.273307,-113.895,0.209181,
2,1,0,1,0,48474.7,0.219534,0.219189,9.72903,25,0.0140429,10,0.0021325,-2.01193,-0.296695,-0.198858,-75.5123,0.219189,
2,1,0,1,0,48474.8,0.229531,0.229188,9.06095,25,0.014512,10,0.00207666,-2.04283,-0.368389,-0.160157,-56.734,0.229188,
2,1,0,1,0,48474.8,0.23951,0.239201,8.60767,25,0.0149523,10,0.00205896,-2.06511,-0.517902,-0.113921,-38.2776,0.239201,
2,1,0,1,0,48474.9,0.249498,0.249174,8.25934,25,0.0153727,10,0.00205801,-2.08305,-0.623205,-0.094672,-30.5334,0.249174,
2,1,0,1,0,48474.9,0.259495,0.259155,8.00143,25,0.0157787,10,0.00207361,-2.09683,-0.719472,-0.0820046,-25.5741,0.259155,
2,1,0,1,0,48475,0.269474,0.269155,7.77916,25,0.0161722,10,0.0020938,-2.10907,-0.91345,-0.0645903,-19.6365,0.269155,
2,1,0,1,0,48475,0.279453,0.279137,7.6135,25,0.0165562,10,0.00212521,-2.11842,-1.04433,-0.0564957,-16.7804,0.279137,
2,1,0,1,0,48475.1,0.28945,0.289138,7.45299,25,0.0169329,10,0.00215494,-2.12767,-1.31331,-0.0449246,-13.0817,0.289138,
2,1,0,1,0,48475.1,0.299438,0.299159,7.3284,25,0.0173017,10,0.00219235,-2.13499,-0.0752522,-0.78403,-216.865,0.299159,
2,1,0,1,0,48475.2,0.291747,0.291377,1.18892,25,0.0174684,10,0.000346423,-2.92485,0.00628742,9.38382,392.527,0.291377,
2,0,0,1,0,48475.2,0.28175,0.28141,-1.40048,25,0.0174536,10,-0.000394111,-2.85372,-0.018342,-3.21667,168.558,0.28141,
2,0,0,1,0,48475.3,0.27178,0.271438,-2.64653,25,0.0173495,10,-0.000718369,-2.57732,-0.0637261,-0.925838,95.3193,0.271438,
2,0,0,1,0,48475.3,0.261783,0.261452,-3.40756,25,0.0171968,10,-0.000890912,-2.46756,-0.132137,-0.446508,59.0858,0.261452,
2,0,0,1,0,48475.4,0.251786,0.251484,-3.91994,25,0.0170129,10,-0.000985802,-2.40672,-0.200872,-0.29372,44.9583,0.2514841,
2,0,0,1,0,48475.4,0.241807,0.241476,-4.32804,25,0.0168065,10,-0.00104512,-2.36371,-0.268878,-0.21943,37.0467,0.241476,
2,0,0,1,0,48475.5,0.231824,0.231521,-4.65757,25,0.0165822,10,-0.00107833,-2.33184,-0.336601,-0.175282,31.8775,0.231521,
2,0,0,1,0,48475.5,0.221822,0.221509,-4.94438,25,0.016342,10,-0.00109523,-2.30589,-0.436005,-0.13532,26.0765,0.2215092,
2,0,0,1,0,48475.6,0.211843,0.211515,-5.21142,25,0.0160885,10,-0.0011023,-2.28304,-0.501576,-0.117629,23.9309,0.211515,
2,0,0,1,0,48475.6,0.201865,0.201539,-5.46428,25,0.0158222,10,-0.00110126,-2.26247,-0.522377,-0.112945,24.0647,0.201539,
2,0,0,1,0,48475.7,0.191868,0.191523,-5.70571,25,0.0155428,10,-0.00109278,-2.24369,-0.518248,-0.113845,25.4118,0.191523,
2,0,0,1,0,48475.7,0.18188,0.181531,-5.99312,25,0.0152511,10,-0.00108793,-2.22235,-0.440903,-0.133816,31.2105,0.1815307,
2,0,0,1,0,48475.8,0.171901,0.17154,-6.27902,25,0.0149454,10,-0.00107711,-2.20211,-0.434246,-0.135868,33.3224,0.17154,
2,0,0,1,0,48475.8,0.161904,0.161547,-6.65521,25,0.0146224,10,-0.00107513,-2.17684,-0.355036,-0.16618,43.133,0.161547,
2,0,0,1,0,48475.9,0.151907,0.151575,-7.16652,25,0.0142775,10,-0.00108627,-2.14469,-0.263288,-0.224089,62.8143,0.151575,
2,0,0,1,0,48475.9,0.141928,0.141567,-7.99468,25,0.0139008,10,-0.00113179,-2.0972,-0.174524,-0.338062,105.458,0.141567,
2,0,0,1,0,48476,0.13194,0.131641,-9.2962,25,0.0134716,10,-0.00122376,-2.03169,-0.135423,-0.435673,158.301,0.131641,
2,0,0,1,0,48476,0.121943,0.121623,-11.0519,25,0.0129638,10,-0.00134416,-1.95656,-0.141096,-0.418155,180.12,0.121623,
2,0,0,1,0,48476.1,0.111964,0.11162,-12.8285,25,0.0123676,10,-0.00143192,-1.89182,-0.174624,-0.337869,169.105,0.11162,
2,0,0,1,0,48476.1,0.101985,0.101695,-14.3981,25,0.0116869,10,-0.00146421,-1.84169,-0.240616,-0.245204,137.59,0.101695,
2,0,0,1,0,48476.2,0.0919883,0.0917068,-15.5792,25,0.0109355,10,-0.00142872,-1.80745,-0.349764,-0.168685,102.612,0.0917068,
2,0,0,1,0,48476.2,0.0820004,0.0816626,-16.3159,25,0.010137,10,-0.0013324,-1.78739,-0.860264,-0.0685836,43.6221,0.0816626,
2,0,0,1,0,48476.3,0.0720215,0.0716911,-16.4986,25,0.00931629,10,-0.0011828,-1.78255,10.892,0.00541683,-3.48838,0.0716911,
2,0,0,1,0,48476.3,0.0620245,0.0617024,-16.3435,25,0.00849426,10,-0.00100843,-1.78665,1.44988,0.040693,-25.9483,0.0617024,
2,0,0,1,0,48476.4,0.0520275,0.0517215,-16.073,25,0.00768351,10,-0.000831319,-1.7939,1.3034,0.0452662,-28.4062,0.0517215,
2,0,0,1,0,48476.4,0.0420486,0.0417296,-15.7889,25,0.00688825,10,-0.000658867,-1.80165,1.25195,0.0471265,-29.0402,0.0417296,
2,0,0,1,0,48476.5,0.0320607,0.03175,-15.4553,25,0.00610842,10,-0.000490706,-1.81092,0.999667,0.0590197,-35.5927,0.03175,
2,0,0,1,0,48476.5,0.0220637,0.0217353,-15.0405,25,0.00534574,10,-0.000326909,-1.82274,0.736838,0.0800718,-46.9671,0.0217353,
2,0,0,1,0,48476.6,0.0120848,0.0117331,-14.4992,25,0.00460826,10,-0.000170121,-1.83865,0.532513,0.110795,-62.7116,0.01173309,
2,0,0,1,0,48476.6,0.00210598,0.00171268,-13.9118,25,0.00390016,10,-2.38265e-05,-1.85662,0.544225,0.108411,-58.7339,0.00171268,
2,0,0,1,0,48476.7,-0.00789103,-0.00827606,-13.2775,25,0.0032209,10,0.000109886,-1.87688,0.586694,0.100564,-52.1693,-0.00827606,
2,0,0,1,0,48476.7,-0.017879,-0.0182777,-12.8282,25,0.00257035,10,0.000234471,-1.89183,0.821131,0.0718521,-35.9419,-0.0182777,
2,0,0,1,0,48476.8,-0.0278578,-0.028251,-12.528,25,0.00193867,10,0.000353928,-1.90212,1.24431,0.047416,-23.2062,-0.028251,
2,0,0,1,0,48476.8,-0.0378548,-0.0382345,-12.4189,25,0.00131563,10,0.000474831,-1.90592,5.38474,0.0109569,-5.30764,-0.0382345,
2,0,0,1,0,48476.9,-0.0478519,-0.0482432,-12.4383,25,0.000694599,10,0.000600062,-1.90524,-2.34656,-0.0251431,12.216,-0.0482432,
2,0,0,1,0,48476.9,-0.0578126,-0.0581729,-12.5928,25,7.16944e-05,10,0.000732558,-1.89988,-1.49832,-0.0393774,19.3402,-0.0581729,
2,0,0,1,0,48477,-0.0678187,-0.0682033,-12.8218,25,-0.000563253,10,0.00087449,-1.89205,-1.00718,-0.0585791,29.3165,-0.06820333,
2,0,0,1,0,48477,-0.0778157,-0.0782216,-13.148,25,-0.00121219,10,0.00102846,-1.88114,-0.890316,-0.0662686,33.9942,-0.0782216,
2,0,0,1,0,48477.1,-0.0877945,-0.0881787,-13.551,25,-0.0018779,10,0.00119491,-1.86803,-0.666697,-0.088496,46.8296,-0.0881787,
2,0,0,1,0,48477.1,-0.0977734,-0.0981591,-14.0429,25,-0.00256616,10,0.00137844,-1.85254,-0.617054,-0.0956156,52.3976,-0.0981591,
2,0,0,1,1,48477.2,-0.0936874,-0.0940719,-7.33125,25,-0.00304389,10,0.000689665,-2.13482,-0.022656,-2.60416,744.626,-0.09407194,
2,0,0,1,1,48477.2,-0.0837086,-0.0840779,-1.72103,25,-0.00325686,10,0.000144701,-2.76421,-0.00842726,-7.00109,439.659,-0.08407791,
2,1,0,1,1,48477.3,-0.0737025,-0.0741239,1.87888,25,-0.00324681,10,-0.00013927,-2.7261,0.0136971,4.30747,301.723,-0.0741239,
2,1,0,1,1,48477.3,-0.0637236,-0.0641374,4.39205,25,-0.00308671,10,-0.000281695,-2.35733,0.0477723,1.23502,210.268,-0.0641374,
2,1,0,1,1,48477.4,-0.0537447,-0.0541125,6.19343,25,-0.00281988,10,-0.000335142,-2.20807,0.0956441,0.61687,148.848,-0.0541125,
2,1,0,1,1,48477.4,-0.0437477,-0.044116,7.48809,25,-0.00247567,10,-0.000330345,-2.12563,0.159209,0.370583,108.12,-0.044116,
2,1,0,1,1,48477.5,-0.0337507,-0.0341186,8.39134,25,-0.00207698,10,-0.000286301,-2.07617,0.254277,0.232031,76.0385,-0.0341186,
2,1,0,1,1,48477.5,-0.0237809,-0.0241142,9.02059,25,-0.00164226,10,-0.000217524,-2.04476,0.397973,0.148251,52.1128,-0.0241142,
2,1,0,1,1,48477.6,-0.0137839,-0.0141714,9.40525,25,-0.00118071,10,-0.000133286,-2.02663,0.762164,0.0774112,28.4377,-0.0141714,
2,1,0,1,1,48477.6,-0.0037869,-0.00414539,9.65426,25,-0.00070359,10,-4.00207e-05,-2.01528,1.18794,0.0496658,18.6916,-0.00414539,
2,1,0,1,1,48477.6,-2.55332e-05,-0.000439847,9.69232,25,-0.00052256,10,-4.26314e-06,-2.01357, , , ,-0.000439847,