File: Figure_codes/Fig_S3_S4/20221101_1-115_002_TrumpetPlot_ParaChange_15_CV_C01_1.csv
mode,ox/red,error,control changes,counter inc.,time/s,control/V,Ewe/V,<I>/mA,cycle number,(Q-Qo)/C,I Range,P/W,log(|I|),Tafel slope mV/dec,alpha_eff,E-IR/V,
2,1,0,0,0,2449.36,2.44065e-05,-0.00112699,33.2134,2,0.0000000E+000,10,-3.74312e-05,-1.47869, , ,-0.0276977,
2,1,0,1,0,2449.37,0.0121015,0.0117633,36.9252,2,0.00053322,10,0.000434363,-1.43268,0.258832,0.227947,-0.0177769,
2,1,0,1,0,2449.39,0.0249027,0.0246091,39.5025,2,0.00114705,10,0.000972121,-1.40338,0.560803,0.105206,-0.00699295,
2,1,0,1,0,2449.4,0.0377094,0.03737,40.7108,2,0.00179028,10,0.00152136,-1.39029,1.48586,0.0397076,0.00480136,
2,1,0,1,0,2449.42,0.0505051,0.0501744,41.1996,2,0.00244624,10,0.00206717,-1.38511,3.06284,0.0192631,0.0172147,
2,1,0,1,0,2449.43,0.0633063,0.0629725,41.6604,2,0.00310886,10,0.00262346,-1.38028,1.86375,0.0316566,0.0296442,
2,1,0,1,0,2449.45,0.0761019,0.0757652,42.6397,2,0.00378225,10,0.0032306,-1.37019,0.814973,0.072395,0.0416535,
2,1,0,1,0,2449.47,0.0889087,0.088577,44.4845,2,0.00447827,10,0.0039403,-1.35179,0.492934,0.119691,0.0529894,
2,1,0,1,0,2449.48,0.101702,0.101333,47.356,2,0.00521136,10,0.00479871,-1.32462,0.313775,0.188033,0.0634479,
2,1,0,1,0,2449.5,0.114506,0.11417,51.2122,2,0.0059997,10,0.00584689,-1.29063,0.263956,0.223522,0.0732002,
2,1,0,1,0,2449.51,0.127301,0.126931,55.8357,2,0.00685568,10,0.00708728,-1.25309,0.224709,0.262562,0.0822623,
2,1,0,1,0,2449.53,0.140105,0.139758,61.2798,2,0.007792,10,0.00856432,-1.21268,0.194044,0.304055,0.0907337,
2,1,0,1,0,2449.55,0.152904,0.152549,67.7296,2,0.00882325,10,0.0103321,-1.16922,0.158428,0.37241,0.0983656,
2,1,0,1,0,2449.56,0.165705,0.165338,75.3056,2,0.00996719,10,0.0124509,-1.12317,0.13868,0.425441,0.105093,
2,1,0,1,0,2449.58,0.178506,0.178156,83.4825,2,0.0112382,10,0.0148729,-1.0784,0.150207,0.392791,0.11137,
2,1,0,1,0,2449.59,0.191302,0.19094,91.1395,2,0.0126377,10,0.0174022,-1.04029,0.232424,0.253846,0.118029,
2,1,0,1,0,2449.61,0.204108,0.203814,96.2552,2,0.0141425,10,0.0196181,-1.01658,0.890965,0.0662204,0.126809,
2,1,0,1,0,2449.63,0.216904,0.216669,95.481,2,0.0156866,10,0.0206878,-1.02008,-0.730088,-0.0808122,0.140284,
2,1,0,1,0,2449.64,0.229705,0.229546,85.735,2,0.017148,10,0.0196802,-1.06684,-0.332087,-0.177664,0.160958,
2,1,0,1,0,2449.66,0.242501,0.242313,68.2605,2,0.0183852,10,0.0165404,-1.16583,-0.229349,-0.25725,0.187704,
2,1,0,1,0,2449.67,0.255308,0.255093,49.3956,2,0.0193217,10,0.0126005,-1.30631,-0.177017,-0.333301,0.215576,
2,1,0,1,0,2449.69,0.268101,0.267893,35.4045,2,0.0199896,10,0.00948461,-1.45094,-0.16688,-0.353548,0.239569,
2,1,0,1,0,2449.71,0.280905,0.280616,28.245,2,0.0204901,10,0.00792598,-1.54906,-0.24328,-0.242519,0.25802,
2,1,0,1,0,2449.72,0.2937,0.293417,25.6202,2,0.020917,10,0.00751739,-1.59142,-0.580678,-0.101605,0.272921,
2,1,0,1,0,2449.73,0.298983,0.299001,21.5205,2,0.0211465,10,0.00643464,-1.66715,-0.0117447,-5.02352,0.281785,
2,0,0,1,0,2449.75,0.286187,0.286012,-7.43818,2,0.0212122,10,-0.00212741,-2.12853,5.54808e-05,1063.43,0.291963,
2,0,0,1,0,2449.76,0.273386,0.273167,-16.6256,2,0.0210055,10,-0.00454158,-1.77922,-0.0583932,-1.01039,0.286468,
2,0,0,1,0,2449.78,0.260585,0.260369,-19.8303,2,0.0207096,10,-0.00516321,-1.70267,-0.246487,-0.239364,0.276234,
2,0,0,1,0,2449.8,0.247783,0.247522,-21.2598,2,0.0203795,10,-0.00526227,-1.67244,-0.490992,-0.120165,0.26453,
2,0,0,1,0,2449.81,0.234982,0.234771,-22.3136,2,0.0200305,10,-0.00523858,-1.65143,-0.607483,-0.097122,0.252622,
2,0,0,1,0,2449.83,0.222187,0.221937,-23.4045,2,0.0196647,10,-0.00519433,-1.6307,-0.533562,-0.110578,0.240661,
2,0,0,1,0,2449.84,0.20938,0.209145,-24.7941,2,0.0192796,10,-0.00518556,-1.60565,-0.414384,-0.14238,0.22898,
2,0,0,1,0,2449.86,0.196587,0.196382,-26.6323,2,0.0188688,10,-0.0052301,-1.57459,-0.310491,-0.190022,0.217688,
2,0,0,1,0,2449.88,0.183783,0.183567,-29.2387,2,0.0184227,10,-0.00536727,-1.53404,-0.220251,-0.267876,0.206958,
2,0,0,1,0,2449.89,0.170987,0.170798,-32.9827,2,0.0179261,10,-0.00563337,-1.48171,-0.157713,-0.374096,0.197184,
2,0,0,1,0,2449.91,0.158183,0.15797,-38.3109,2,0.0173573,10,-0.00605198,-1.41668,-0.111243,-0.53037,0.188619,
2,0,0,1,0,2449.92,0.145385,0.145191,-45.5388,2,0.0166886,10,-0.00661183,-1.34162,-0.0788247,-0.748496,0.181622,
2,0,0,1,0,2449.94,0.132584,0.132369,-54.6138,2,0.0158886,10,-0.00722915,-1.2627,-0.0671219,-0.878998,0.17606,
2,0,0,1,0,2449.96,0.119782,0.119679,-64.6492,2,0.014935,10,-0.00773713,-1.18944,-0.0648708,-0.9095,0.171398,
2,0,0,1,0,2449.97,0.106987,0.106932,-74.7023,2,0.0138181,10,-0.00798803,-1.12667,-0.0881911,-0.669002,0.166693,
2,0,0,1,0,2449.99,0.0941801,0.0939946,-83.8396,2,0.0125461,10,-0.00788047,-1.07655,-0.156212,-0.377691,0.161066,
2,0,0,1,0,2450,0.0813844,0.0811224,-90.3931,2,0.0111474,10,-0.0073329,-1.04386,-0.385396,-0.153089,0.153437,
2,0,0,1,0,2450.02,0.0685832,0.0683413,-93.119,2,0.0096731,10,-0.00636387,-1.03096,-7.61449,-0.00774839,0.142836,
2,0,0,1,0,2450.04,0.0557876,0.0555125,-91.0031,2,0.0081939,10,-0.00505181,-1.04094,0.783479,0.0753051,0.128315,
2,0,0,1,0,2450.05,0.0429808,0.0426901,-84.8634,2,0.00678334,10,-0.00362282,-1.07128,0.496364,0.118864,0.110581,
2,0,0,1,0,2450.07,0.030188,0.0299026,-76.9419,2,0.00548859,10,-0.00230076,-1.11384,0.421054,0.140125,0.0914561,
2,0,0,1,0,2450.08,0.017384,0.0171078,-68.8612,2,0.00432307,10,-0.00117806,-1.16203,0.38035,0.15512,0.0721967,
2,0,0,1,0,2450.1,0.00458834,0.00428744,-61.0264,2,0.00328527,10,-0.000261647,-1.21448,0.356041,0.165711,0.0531086,
2,0,0,1,0,2450.12,-0.00821564,-0.00852651,-54.1849,2,0.00236572,10,0.000462008,-1.26612,0.36962,0.159623,0.0348214,
2,0,0,1,0,2450.13,-0.0210196,-0.0213076,-49.5305,2,0.00153989,10,0.00105538,-1.30513,0.53275,0.110746,0.0183168,
2,0,0,1,0,2450.15,-0.0338153,-0.0341216,-47.3889,2,0.000767427,10,0.00161698,-1.32432,1.2991,0.0454162,0.00378956,
2,0,0,1,0,2450.16,-0.0466193,-0.0469207,-47.0385,2,1.39057e-05,10,0.00220708,-1.32755,-6.63433,-0.00889313,-0.00928989,
2,0,0,1,0,2450.18,-0.0594121,-0.0597293,-47.6741,2,-0.000742765,10,0.00284754,-1.32172,-1.32769,-0.0444382,-0.02159,
2,0,0,1,0,2450.2,-0.0722189,-0.0725316,-48.9195,2,-0.00151512,10,0.00354821,-1.31052,-0.906471,-0.0650876,-0.033396,
2,0,0,1,0,2450.21,-0.0850146,-0.0852925,-50.4875,2,-0.00231037,10,0.0043062,-1.29682,-0.77426,-0.0762018,-0.0449026,
2,0,0,1,0,2450.23,-0.0978158,-0.0981203,-52.3436,2,-0.00313312,10,0.00513597,-1.28114,-0.6906,-0.0854329,-0.0562454,
2,0,0,1,0,2450.24,-0.110611,-0.110907,-54.4492,2,-0.00398737,10,0.00603878,-1.26401,-0.611997,-0.0964058,-0.0673473,
2,0,0,1,0,2450.26,-0.123418,-0.123712,-56.88,2,-0.00487792,10,0.00703675,-1.24504,-0.539049,-0.109452,-0.0782081,
2,0,0,1,0,2450.28,-0.136214,-0.136526,-59.6063,2,-0.00580981,10,0.00813782,-1.22471,-0.502626,-0.117384,-0.0888411,
2,0,0,1,0,2450.29,-0.149015,-0.14929,-62.6154,2,-0.00678798,10,0.00934787,-1.20332,-0.476454,-0.123832,-0.0991979,
2,0,0,1,0,2450.31,-0.161816,-0.162138,-65.8068,2,-0.00781573,10,0.0106698,-1.18173,-0.473746,-0.124539,-0.109493,
2,0,0,1,0,2450.32,-0.174615,-0.17486,-69.1857,2,-0.00889583,10,0.0120978,-1.15998,-0.462677,-0.127519,-0.119511,
2,0,0,1,0,2450.34,-0.187419,-0.187683,-72.7904,2,-0.0100314,10,0.0136615,-1.13793,-0.43369,-0.136042,-0.129451,
2,0,0,1,0,2450.36,-0.199647,-0.199902,-76.4991,2,-0.0111736,10,0.0152923,-1.11634,0.586698,0.100563,-0.138703,
2,0,0,1,1,2450.37,-0.192535,-0.192973,-52.3573,2,-0.0118248,10,0.0101035,-1.28102,0.053681,1.09909,-0.151087,
2,0,0,1,1,2450.38,-0.179739,-0.180139,-22.4494,2,-0.0124061,10,0.00404401,-1.64879,0.0142414,4.14284,-0.162179,
2,0,0,1,1,2450.4,-0.166932,-0.167309,-0.772174,2,-0.0125811,10,0.000129191,-3.11228,0.0156733,3.76437,-0.166691,
2,1,0,1,1,2450.41,-0.154139,-0.15465,15.4268,2,-0.0124562,10,-0.00238574,-1.81172,0.0030536,19.3214,-0.166991,
2,1,0,1,1,2450.43,-0.141335,-0.141775,27.9636,2,-0.0121034,10,-0.00396454,-1.55341,0.0241528,2.44278,-0.164146,
2,1,0,1,1,2450.45,-0.12854,-0.128891,37.2032,2,-0.011577,10,-0.00479516,-1.42942,0.0701969,0.840493,-0.158654,
2,1,0,1,1,2450.46,-0.115736,-0.11608,43.9077,2,-0.0109243,10,-0.00509683,-1.35746,0.148192,0.398133,-0.151207,
2,1,0,1,1,2450.48,-0.102932,-0.103238,48.5903,2,-0.0101815,10,-0.00501636,-1.31345,0.284751,0.207198,-0.14211,
2,1,0,1,1,2450.49,-0.0901362,-0.090462,51.6812,2,-0.00937725,10,-0.00467518,-1.28667,0.517908,0.11392,-0.131807,
2,1,0,1,1,2450.51,-0.0773322,-0.0777085,53.647,2,-0.00853324,10,-0.00416883,-1.27045,0.950593,0.0620665,-0.120626,
2,1,0,1,1,2450.53,-0.0645393,-0.0648956,54.7462,2,-0.00766506,10,-0.00355279,-1.26165,1.88715,0.0312641,-0.108693,
2,1,0,1,1,2450.54,-0.0517325,-0.0520997,55.3046,2,-0.00678372,10,-0.00288135,-1.25724,5.07456,0.0116266,-0.0963433,
2,1,0,1,1,2450.56,-0.0389369,-0.0392942,55.4024,2,-0.00589747,10,-0.00217699,-1.25647,-15.2404,-0.00387129,-0.0836161,
2,1,0,1,1,2450.57,-0.0261357,-0.0265036,55.1392,2,-0.00501275,10,-0.00146139,-1.25854,-3.86471,-0.0152663,-0.070615,
2,1,0,1,1,2450.59,-0.01334,-0.0136737,54.5202,2,-0.00413514,10,-0.000745494,-1.26344,-2.23214,-0.026432,-0.0572899,
2,1,0,1,1,2450.61,-0.000774628,-0.00112858,53.6424,2,-0.00328561,10,-6.05399e-05,-1.27049, , ,-0.0440425,
2,1,0,0,1,2450.61,-0.000125413,-0.000478022,53.6218,2,-0.00324271,10,-2.56324e-05,-1.27066, , ,-0.0433754,