File: Figure_codes/Fig_S3_S4/20221101_1-115_003_TrumpetPlot_ParaChange_from10_every3_13_CV_C01_16.csv
mode,ox/red,error,control changes,counter inc.,time/s,control/V,Ewe/V,<I>/mA,cycle number,(Q-Qo)/C,I Range,P/W,log(|I|),Tafel slope mV/dec,alpha_eff,dI/d(E-IR),E-IR/V,
2,1,0,1,0,32719.9,2.44065e-05,-0.000306236,21.0525,17,0.0000000E+000,10,-6.44703e-06,-1.6767, , , ,-0.000306236,
2,1,0,1,0,32720,0.0122624,0.0118821,25.4767,17,0.00035756,10,0.000302716,-1.59386,0.222645,0.264996,261.621,0.0118821,
2,1,0,1,0,32720,0.0250636,0.0247172,28.3641,17,0.00078957,10,0.000701081,-1.54723,0.324108,0.182038,200.866,0.0247172,
2,1,0,1,0,32720,0.0378704,0.0375036,30.7188,17,0.0012628,10,0.00115207,-1.5126,0.410627,0.143683,171.959,0.0375036,
2,1,0,1,0,32720,0.0506632,0.0503239,32.7995,17,0.00177133,10,0.0016506,-1.48413,0.471533,0.125124,160.127,0.0503239,
2,1,0,1,0,32720,0.0634672,0.0631347,34.8219,17,0.00231263,10,0.00219847,-1.45815,0.509375,0.115828,157.427,0.0631347,
2,1,0,1,0,32720,0.0762629,0.0759031,36.8748,17,0.00288651,10,0.00279891,-1.43327,0.519082,0.113662,163.606,0.0759031,
2,1,0,1,0,32720.1,0.0890668,0.0887064,39.0298,17,0.0034939,10,0.00346219,-1.4086,0.523294,0.112747,171.72,0.0887064,
2,1,0,1,0,32720.1,0.10186,0.101458,41.2394,17,0.00413617,10,0.00418405,-1.38469,0.537137,0.109842,176.834,0.1014578,
2,1,0,1,0,32720.1,0.114666,0.114277,43.5561,17,0.00481478,10,0.00497747,-1.36095,0.547102,0.107841,183.302,0.114277,
2,1,0,1,0,32720.1,0.127462,0.127038,45.8957,17,0.0055306,10,0.00583049,-1.33823,0.535628,0.110151,197.724,0.127038,
2,1,0,1,0,32720.1,0.140263,0.139941,48.6431,17,0.00628733,10,0.00680717,-1.31298,0.518313,0.113831,216.079,0.139941,
2,1,0,1,0,32720.1,0.153064,0.152723,51.4401,17,0.00708823,10,0.00785609,-1.2887,0.550546,0.107166,214.972,0.152723,
2,1,0,1,0,32720.1,0.165866,0.165504,54.0833,17,0.0079331,10,0.00895102,-1.26694,0.647364,0.0911388,192.136,0.165504,
2,1,0,1,0,32720.2,0.178667,0.1783,56.2812,17,0.00881711,10,0.0100349,-1.24964,0.891415,0.0661869,145.12,0.1783,
2,1,0,1,0,32720.2,0.191463,0.191096,57.6445,17,0.0097303,10,0.0110156,-1.23924,2.32252,0.0254034,56.982,0.191096,
2,1,0,1,0,32720.2,0.204269,0.203944,57.6423,17,0.0106547,10,0.0117558,-1.23926,-2.10612,-0.0280135,-62.7975,0.203944,
2,1,0,1,0,32720.2,0.217062,0.216737,56.0513,17,0.0115662,10,0.0121484,-1.25141,-0.701168,-0.0841453,-183.434,0.216737,
2,1,0,1,0,32720.2,0.229866,0.229506,53.0254,17,0.0124402,10,0.0121697,-1.27552,-0.434674,-0.135734,-280.121,0.229506,
2,1,0,1,0,32720.2,0.242662,0.242364,49.0206,17,0.0132571,10,0.0118808,-1.30962,-0.343294,-0.171864,-328.503,0.242364,
2,1,0,1,0,32720.3,0.255466,0.255126,44.7784,17,0.0140072,10,0.0114241,-1.34893,-0.318395,-0.185304,-323.965,0.255126,
2,1,0,1,0,32720.3,0.268259,0.267995,40.8308,17,0.0146911,10,0.0109424,-1.38901,-0.328583,-0.179559,-286.53,0.267995,
2,1,0,1,0,32720.3,0.281065,0.280729,37.4986,17,0.0153167,10,0.0105269,-1.42598,-0.36697,-0.160776,-235.624,0.280729,
2,1,0,1,0,32720.3,0.293861,0.293519,34.7789,17,0.0158939,10,0.0102082,-1.45868,-0.418708,-0.14091,-191.9,0.2935186,
2,1,0,1,0,32720.3,0.298983,0.298854,31.0776,17,0.0161985,10,0.00928765,-1.50755,0.0317552,1.85797,1927.96,0.298854,
2,1,0,1,0,32720.3,0.286187,0.285883,13.501,17,0.016534,10,0.0038597,-1.86963,0.0317992,1.85539,967.113,0.285883,
2,1,0,1,0,32720.4,0.273386,0.273125,3.77722,17,0.0166653,10,0.00103165,-2.42283,0.00836409,7.05397,614.526,0.273125,
2,0,0,1,0,32720.4,0.260585,0.260342,-2.69826,17,0.0166701,10,-0.000702468,-2.56892,-0.00965335,-6.11187,419.768,0.260342,
2,0,0,1,0,32720.4,0.247783,0.247485,-7.2686,17,0.0165879,10,-0.00179887,-2.13855,-0.052147,-1.13142,306.197,0.247485,
2,0,0,1,0,32720.4,0.234982,0.234686,-10.661,17,0.0164429,10,-0.00250199,-1.9722,-0.104517,-0.5645,231.039,0.234686,
2,0,0,1,0,32720.4,0.222187,0.221898,-13.2649,17,0.0162503,10,-0.00294345,-1.8773,-0.16455,-0.358553,184.408,0.221898,
2,0,0,1,0,32720.4,0.20938,0.209089,-15.3967,17,0.0160201,10,-0.00321929,-1.81257,-0.233592,-0.252577,151.22,0.209089,
2,0,0,1,0,32720.4,0.196587,0.196296,-17.1902,17,0.0157588,10,-0.00337438,-1.76472,-0.302507,-0.195037,130.553,0.196296,
2,0,0,1,0,32720.5,0.183783,0.183481,-18.8006,17,0.0154706,10,-0.00344957,-1.72583,-0.348939,-0.169084,123.931,0.183481,
2,0,0,1,0,32720.5,0.170987,0.17066,-20.3526,17,0.0151572,10,-0.00347337,-1.69138,-0.376965,-0.156513,124.429,0.17066,
2,0,0,1,0,32720.5,0.158183,0.15789,-22.0468,17,0.014818,10,-0.00348098,-1.65665,-0.349789,-0.168673,145.455,0.1578905,
2,0,0,1,0,32720.5,0.145385,0.145098,-24.1593,17,0.0144487,10,-0.00350547,-1.61691,-0.291085,-0.20269,191.794,0.145098,
2,0,0,1,0,32720.5,0.132584,0.132275,-27.0682,17,0.0140399,10,-0.00358046,-1.56754,-0.234973,-0.251093,266.184,0.132275,
2,0,0,1,0,32720.5,0.119782,0.11949,-31.0685,17,0.013576,10,-0.00371238,-1.50768,-0.203501,-0.289925,351.907,0.11949,
2,0,0,1,0,32720.6,0.106987,0.106756,-35.8492,17,0.0130407,10,-0.0038271,-1.44552,-0.214398,-0.275189,384.486,0.106756,
2,0,0,1,0,32720.6,0.0941801,0.0939851,-40.5892,17,0.0124277,10,-0.00381478,-1.39159,-0.259493,-0.227366,359.927,0.0939851,
2,0,0,1,0,32720.6,0.0813844,0.0811775,-44.9953,17,0.0117415,10,-0.00365261,-1.34683,-0.331805,-0.177815,311.391,0.0811775,
2,0,0,1,0,32720.6,0.0685832,0.0683572,-48.5393,17,0.0109915,10,-0.00331801,-1.31391,-0.465369,-0.126781,239.561,0.0683572,
2,0,0,1,0,32720.6,0.0557876,0.0555114,-51.1871,17,0.0101923,10,-0.00284147,-1.29084,-0.693434,-0.0850839,169.507,0.0555114,
2,0,0,1,0,32720.6,0.0429808,0.0426583,-52.8937,17,0.00935836,10,-0.00225635,-1.2766,-1.18338,-0.0498573,102.736,0.0426583,
2,0,0,1,0,32720.7,0.030188,0.0298676,-53.8488,17,0.00850338,10,-0.00160834,-1.26882,-2.3471,-0.0251374,52.7777,0.02986763,
2,0,0,1,0,32720.7,0.017384,0.0170908,-54.276,17,0.00763745,10,-0.00092762,-1.26539,-8.22986,-0.00716902,15.1736,0.0170908,
2,0,0,1,0,32720.7,0.00458834,0.00428214,-54.258,17,0.00676845,10,-0.000232341,-1.26554,7.96084,0.00741127,-15.6853,0.004282143,
2,0,0,1,0,32720.7,-0.00821564,-0.00856469,-53.8621,17,0.00590259,10,0.000461312,-1.26872,2.42538,0.0243261,-51.0777,-0.00856469,
2,0,0,1,0,32720.7,-0.0210196,-0.0213755,-53.0031,17,0.00504722,10,0.00113297,-1.2757,1.47658,0.0399572,-82.5614,-0.0213755,
2,0,0,1,0,32720.7,-0.0338153,-0.0342064,-51.7779,17,0.00420869,10,0.00177114,-1.28586,1.18682,0.0497128,-100.44,-0.0342064,
2,0,0,1,0,32720.8,-0.0466193,-0.0470097,-50.4524,17,0.00339083,10,0.00237175,-1.29712,1.1196,0.0526973,-103.785,-0.04700974,
2,0,0,1,0,32720.8,-0.0594121,-0.0597802,-49.2171,17,0.00259381,10,0.00294221,-1.30788,1.30998,0.0450387,-86.5625,-0.0597802,
2,0,0,1,0,32720.8,-0.0722189,-0.0725486,-48.2701,17,0.00181441,10,0.00350193,-1.31632,1.85986,0.0317229,-59.8103,-0.0725486,
2,0,0,1,0,32720.8,-0.0850146,-0.0853318,-47.6726,17,0.00104736,10,0.00406799,-1.32173,3.47086,0.0169987,-31.6623,-0.0853318,
2,0,0,1,0,32720.8,-0.0978158,-0.0981574,-47.4462,17,0.000286782,10,0.0046572,-1.3238,33.5015,0.00176112,-3.26496,-0.0981574,
2,0,0,1,0,32720.8,-0.110611,-0.110976,-47.5674,17,-0.000473056,10,0.00527882,-1.32269,-5.18102,-0.0113877,21.1628,-0.1109756,
2,0,0,1,0,32720.8,-0.123418,-0.123765,-48.023,17,-0.00123754,10,0.00594357,-1.31855,-2.42995,-0.0242804,45.5264,-0.123765,
2,0,0,1,0,32720.9,-0.136214,-0.13657,-48.7136,17,-0.00201114,10,0.0066528,-1.31235,-1.84896,-0.0319099,60.6772,-0.1365696,
2,0,0,1,0,32720.9,-0.149015,-0.149332,-49.5599,17,-0.0027973,10,0.00740086,-1.30487,-1.64068,-0.0359608,69.5508,-0.149332,
2,0,0,1,0,32720.9,-0.161816,-0.162191,-50.4441,17,-0.0035975,10,0.00818159,-1.29719,-1.71365,-0.0344295,67.7709,-0.162191,
2,0,0,1,0,32720.9,-0.174615,-0.174964,-51.2679,17,-0.00441154,10,0.00897002,-1.29015,-1.91869,-0.0307502,61.5183,-0.174964,
2,0,0,1,0,32720.9,-0.187419,-0.187737,-52.0133,17,-0.00523803,10,0.00976484,-1.28389,-2.27668,-0.025915,52.5824,-0.187737,
2,0,0,1,0,32720.9,-0.199647,-0.200031,-52.6105,17,-0.00603865,10,0.0105237,-1.27893,0.222865,0.264734,-526.134,-0.200031,
2,0,0,1,1,32721,-0.192535,-0.192966,-38.3718,17,-0.00649245,10,0.00740446,-1.41599,-0.0621107,-0.949917,1460.82,-0.192966,
2,0,0,1,1,32721,-0.179739,-0.180162,-24.6397,17,-0.00698714,10,0.00443913,-1.60836,-0.0641802,-0.919287,884.945,-0.180162,
2,0,0,1,1,32721,-0.166932,-0.167351,-14.8844,17,-0.00729894,10,0.00249092,-1.82727,-0.0500927,-1.17782,675.174,-0.167351,
2,0,0,1,1,32721,-0.154139,-0.154541,-7.07497,17,-0.00747179,10,0.00109338,-2.15028,-0.0271681,-2.17166,557.672,-0.154541,
2,0,0,1,1,32721,-0.141335,-0.141757,-0.47013,17,-0.00753006,10,6.66443e-05,-3.32778,-0.0771246,-0.764996,480.033,-0.1417571,
2,1,0,1,1,32721,-0.12854,-0.129011,5.26698,17,-0.0074902,10,-0.000679499,-2.27844,0.0255455,2.3096,421.668,-0.129011,
2,1,0,1,1,32721,-0.115736,-0.116218,10.3962,17,-0.00736376,10,-0.00120823,-1.98312,0.0608352,0.969833,383.733,-0.116218,
2,1,0,1,1,32721.1,-0.102932,-0.103381,15.0492,17,-0.0071591,10,-0.0015558,-1.82249,0.0995833,0.592469,344.376,-0.103381,
2,1,0,1,1,32721.1,-0.0901361,-0.0905575,19.267,17,-0.00688344,10,-0.00174477,-1.71519,0.140376,0.420301,314.232,-0.0905575,
2,1,0,1,1,32721.1,-0.0773322,-0.0777308,23.1121,17,-0.00654353,10,-0.00179652,-1.63616,0.186333,0.316638,284.35,-0.07773079,
2,1,0,1,1,32721.1,-0.0645393,-0.0649296,26.5873,17,-0.00614519,10,-0.0017263,-1.57533,0.234817,0.25126,259.898,-0.06492956,
2,1,0,1,1,32721.1,-0.0517325,-0.052175,29.7383,17,-0.00569384,10,-0.0015516,-1.52668,0.292815,0.201492,233.31,-0.052175,
2,1,0,1,1,32721.1,-0.0389369,-0.0393112,32.5402,17,-0.00519483,10,-0.00127919,-1.48758,0.363065,0.162505,206.065,-0.0393112,
2,1,0,1,1,32721.2,-0.0261357,-0.026581,35.0151,17,-0.00465354,10,-0.000930737,-1.45574,0.445613,0.132402,180.707,-0.026581,
2,1,0,1,1,32721.2,-0.01334,-0.0137649,37.1528,17,-0.00407545,10,-0.000511405,-1.43001,0.561164,0.105139,152.259,-0.0137649,
2,1,0,1,1,32721.2,-0.000774628,-0.00114449,38.9267,17,-0.00347767,10,-4.45511e-05,-1.40975, , , ,-0.001144488,
2,1,0,0,1,32721.2,-0.000125413,-0.000497109,39.0376,17,-0.0034465,10,-1.94059e-05,-1.40852, , , ,-0.000497109,