File: Figure_codes/Fig_S3_S4/20221101_1-115_003_TrumpetPlot_ParaChange_from10_every3_12_CV_C01_16.csv
mode,ox/red,error,control changes,counter inc.,time/s,control/V,Ewe/V,<I>/mA,cycle number,(Q-Qo)/C,I Range,P/W,log(|I|),Tafel slope mV/dec,alpha_eff,dI/d(E-IR),E-IR/V,
2,1,0,1,0,32718.6,2.44065e-05,-0.000363498,17.3266,17,0.0000000E+000,10,-6.29819e-06,-1.76129, , , ,-0.000363498,
2,1,0,1,0,32718.6,0.0104008,0.0100741,20.8556,17,0.000332449,10,0.000210101,-1.68078,0.200629,0.294075,238.108,0.0100741,
2,1,0,1,0,32718.6,0.0212099,0.020834,23.0176,17,0.000728575,10,0.000479549,-1.63794,0.309064,0.190899,171.079,0.020834,
2,1,0,1,0,32718.7,0.0320052,0.0316756,24.6771,17,0.00115858,10,0.000781662,-1.60771,0.398873,0.147917,142.375,0.0316756,
2,1,0,1,0,32718.7,0.0428033,0.0424515,26.1393,17,0.00161638,10,0.00110965,-1.58271,0.468312,0.125984,128.472,0.0424515,
2,1,0,1,0,32718.7,0.0535986,0.0532803,27.5057,17,0.00209935,10,0.00146551,-1.56058,0.505996,0.116602,125.166,0.0532803,
2,1,0,1,0,32718.7,0.0644077,0.0640286,28.8968,17,0.0026071,10,0.00185022,-1.53915,0.514001,0.114786,129.447,0.0640286,
2,1,0,1,0,32718.7,0.075203,0.0748267,30.3375,17,0.00314026,10,0.00227005,-1.51802,0.510734,0.11552,136.787,0.07482674,
2,1,0,1,0,32718.8,0.0860011,0.0856376,31.8403,17,0.00369982,10,0.00272672,-1.49702,0.51388,0.114813,142.664,0.0856376,
2,1,0,1,0,32718.8,0.0968075,0.0964378,33.428,17,0.00428729,10,0.00322372,-1.47589,0.526502,0.11206,146.105,0.0964378,
2,1,0,1,0,32718.8,0.107606,0.107179,34.9721,17,0.00490316,10,0.00374827,-1.45628,0.532001,0.110902,151.507,0.107179,
2,1,0,1,0,32718.8,0.118401,0.118045,36.6819,17,0.00554806,10,0.0043301,-1.43555,0.524553,0.112477,161.062,0.118045,
2,1,0,1,0,32718.8,0.129207,0.128864,38.4951,17,0.00622462,10,0.00496063,-1.4146,0.507674,0.116216,174.683,0.128864,
2,1,0,1,0,32718.8,0.140005,0.139671,40.4926,17,0.00693553,10,0.00565562,-1.39262,0.485893,0.121426,191.916,0.1396706,
2,1,0,1,0,32718.9,0.150803,0.150455,42.5446,17,0.00768327,10,0.00640104,-1.37116,0.529384,0.11145,185.026,0.150455,
2,1,0,1,0,32718.9,0.161604,0.161229,44.4437,17,0.00846681,10,0.0071656,-1.35219,0.645619,0.0913852,158.349,0.161229,
2,1,0,1,0,32718.9,0.172405,0.172078,45.9706,17,0.00928146,10,0.00791052,-1.33752,0.927434,0.0636164,113.943,0.172078,
2,1,0,1,0,32718.9,0.183203,0.182857,46.7976,17,0.0101178,10,0.00855726,-1.32978,3.69806,0.0159543,29.0609,0.182857,
2,1,0,1,0,32718.9,0.194001,0.193688,46.4805,17,0.0109591,10,0.00900269,-1.33273,-1.19044,-0.0495613,-89.6395,0.193688,
2,1,0,1,0,32718.9,0.204808,0.204478,44.8533,17,0.0117828,10,0.00917154,-1.34821,-0.499627,-0.118088,-206.136,0.2044784,
2,1,0,1,0,32719,0.215603,0.215249,42.0725,17,0.0125664,10,0.00905606,-1.376,-0.328158,-0.179791,-294.68,0.215249,
2,1,0,1,0,32719,0.226401,0.226078,38.601,17,0.0132928,10,0.00872684,-1.4134,-0.266782,-0.221154,-332.983,0.226078,
2,1,0,1,0,32719,0.237207,0.236889,35.0595,17,0.0139552,10,0.0083052,-1.45519,-0.256276,-0.230221,-315.237,0.236889,
2,1,0,1,0,32719,0.248005,0.247704,31.9005,17,0.0145568,10,0.00790188,-1.4962,-0.276315,-0.213525,-266.201,0.247704,
2,1,0,1,0,32719,0.258801,0.258516,29.2916,17,0.0151065,10,0.00757235,-1.53326,-0.312459,-0.188825,-216.231,0.258516,
2,1,0,1,0,32719.1,0.26961,0.269289,27.2242,17,0.0156142,10,0.00733119,-1.56504,-0.366537,-0.160966,-171.213,0.269289,
2,1,0,1,0,32719.1,0.280405,0.280083,25.5835,17,0.0160887,10,0.00716552,-1.59204,-0.439536,-0.134232,-134.17,0.280083,
2,1,0,1,0,32719.1,0.291203,0.290885,24.2929,17,0.016537,10,0.00706642,-1.61452,-0.519413,-0.11359,-107.761,0.290885,
2,1,0,0,0,32719.1,0.300012,0.299727,23.4223,17,0.0168874,10,0.00702032,-1.63037,0.00200677,29.4005,23269.3,0.299727,
2,1,0,1,0,32719.1,0.290842,0.29056,10.1497,17,0.017126,10,0.00294911,-1.99355,0.0239721,2.46119,972.466,0.2905601,
2,1,0,1,0,32719.1,0.280047,0.27977,2.29852,17,0.0172311,10,0.000643057,-2.63855,0.00612144,9.63826,564.071,0.2797704,
2,0,0,1,0,32719.2,0.269244,0.268919,-2.62009,17,0.0172247,10,-0.000704594,-2.58168,-0.0120434,-4.89894,370.901,0.268919,
2,0,0,1,0,32719.2,0.258443,0.25818,-5.9347,17,0.0171458,10,-0.00153222,-2.2266,-0.051089,-1.15485,259.183,0.25818,
2,0,0,1,0,32719.2,0.247645,0.247346,-8.31134,17,0.0170161,10,-0.00205578,-2.08033,-0.0990578,-0.595612,191.626,0.247346,
2,0,0,1,0,32719.2,0.236849,0.236576,-10.13,17,0.016849,10,-0.00239651,-1.99439,-0.155708,-0.378913,149.199,0.236576,
2,0,0,1,0,32719.2,0.22604,0.225741,-11.5809,17,0.016653,10,-0.00261427,-1.93626,-0.221917,-0.265866,119.799,0.225741,
2,0,0,1,0,32719.2,0.215245,0.214919,-12.762,17,0.0164334,10,-0.00274279,-1.89408,-0.283758,-0.207923,103.462,0.214919,
2,0,0,1,0,32719.3,0.204447,0.204122,-13.8135,17,0.0161939,10,-0.00281964,-1.8597,-0.354301,-0.166525,89.6337,0.204122,
2,0,0,1,0,32719.3,0.19364,0.193319,-14.7635,17,0.0159368,10,-0.00285406,-1.83081,-0.405495,-0.145501,83.6786,0.193319,
2,0,0,1,0,32719.3,0.182842,0.182504,-15.648,17,0.0156631,10,-0.00285582,-1.80554,-0.422987,-0.139484,85.1826,0.182504,
2,0,0,1,0,32719.3,0.172047,0.171728,-16.5876,17,0.0153729,10,-0.00284855,-1.78022,-0.41902,-0.140805,91.2053,0.171728,
2,0,0,1,0,32719.3,0.161241,0.16093,-17.664,17,0.0150649,10,-0.00284266,-1.75291,-0.374798,-0.157418,108.592,0.16093,
2,0,0,1,0,32719.4,0.150443,0.150112,-18.9988,17,0.0147355,10,-0.00285196,-1.72127,-0.300006,-0.196663,146.127,0.150112,
2,0,0,1,0,32719.4,0.139645,0.139308,-20.8606,17,0.0143775,10,-0.00290605,-1.68067,-0.232844,-0.253388,206.985,0.139308,
2,0,0,1,0,32719.4,0.128849,0.128554,-23.4931,17,0.0139794,10,-0.00302014,-1.62906,-0.189217,-0.311812,286.737,0.128554,
2,0,0,1,0,32719.4,0.118043,0.117762,-26.9262,17,0.0135259,10,-0.00317087,-1.56982,-0.182909,-0.322565,339.039,0.117762,
2,0,0,1,0,32719.4,0.107245,0.10691,-30.6837,17,0.013007,10,-0.00328041,-1.51309,-0.204947,-0.287879,343.878,0.1069104,
2,0,0,1,0,32719.4,0.0964468,0.0961579,-34.2761,17,0.012422,10,-0.00329591,-1.46501,-0.245152,-0.240667,321.055,0.0961579,
2,0,0,1,0,32719.5,0.0856404,0.0854096,-37.4678,17,0.0117753,10,-0.00320011,-1.42634,-0.325893,-0.181041,264.006,0.0854096,
2,0,0,1,0,32719.5,0.0748451,0.0745998,-39.9828,17,0.0110771,10,-0.00298271,-1.39813,-0.446228,-0.132219,205.915,0.0745998,
2,0,0,1,0,32719.5,0.0640471,0.0637614,-41.8439,17,0.0103394,10,-0.00266803,-1.37837,-0.710194,-0.0830758,135.372,0.0637614,
2,0,0,1,0,32719.5,0.0532407,0.0528869,-42.9349,17,0.00957546,10,-0.00227069,-1.36719,-1.3788,-0.0427907,71.5802,0.0528869,
2,0,0,1,0,32719.5,0.0424426,0.0421461,-43.4283,17,0.00879747,10,-0.00183033,-1.36223,-3.60394,-0.016371,27.7223,0.0421461,
2,0,0,1,0,32719.6,0.0316473,0.0313363,-43.5286,17,0.0080143,10,-0.00136403,-1.36122,25.8919,0.00227871,-3.86974,0.0313363,
2,0,0,1,0,32719.6,0.0208437,0.0205254,-43.3568,17,0.00723197,10,-0.000889917,-1.36294,3.53615,0.0166848,-28.2215,0.0205254,
2,0,0,1,0,32719.6,0.0100429,0.00972839,-42.9565,17,0.00645478,10,-0.000417898,-1.36697,2.07756,0.0283987,-47.5878,0.00972839,
2,0,0,1,0,32719.6,-0.000755208,-0.00113653,-42.3635,17,0.00568661,10,4.81476e-05,-1.37301,1.44513,0.0408268,-67.4295,-0.001136535,
2,0,0,1,0,32719.6,-0.0115505,-0.01194,-41.4401,17,0.00493207,10,0.000494793,-1.38258,0.971406,0.0607367,-98.1765,-0.01194,
2,0,0,1,0,32719.6,-0.0223597,-0.0227784,-40.3123,17,0.00419626,10,0.000918249,-1.39456,0.826054,0.0714239,-112.294,-0.0227784,
2,0,0,1,0,32719.7,-0.033155,-0.0335404,-39.0949,17,0.00348184,10,0.00131126,-1.40788,0.854892,0.0690146,-105.328,-0.0335404,
2,0,0,1,0,32719.7,-0.043953,-0.0444001,-38.0039,17,0.0027884,10,0.00168738,-1.42017,0.960894,0.0614011,-91.1068,-0.0444001,
2,0,0,1,0,32719.7,-0.0547594,-0.0551579,-37.1521,17,0.00211263,10,0.00204923,-1.43002,1.27894,0.0461318,-66.9168,-0.0551579,
2,0,0,1,0,32719.7,-0.0655575,-0.0659073,-36.5803,17,0.00144957,10,0.00241091,-1.43675,2.31513,0.0254845,-36.411,-0.0659073,
2,0,0,1,0,32719.7,-0.0763528,-0.0767224,-36.2919,17,0.000794137,10,0.0027844,-1.44019,6.34995,0.00929141,-13.1737,-0.0767224,
2,0,0,1,0,32719.8,-0.0871592,-0.0875576,-36.2818,17,0.000141339,10,0.00317675,-1.44031,-10.0645,-0.00586217,8.30576,-0.0875576,
2,0,0,1,0,32719.8,-0.0979573,-0.0983069,-36.486,17,-0.000513308,10,0.00358683,-1.43787,-5.00898,-0.0117789,16.7429,-0.0983069,
2,0,0,1,1,32719.8,-0.0955546,-0.096008,-27.1304,17,-0.000875126,10,0.00260473,-1.56654,-0.0370758,-1.59134,1715.88,-0.096008,
2,0,0,1,1,32719.8,-0.0847538,-0.0852067,-13.9432,17,-0.00123367,10,0.00118805,-1.85564,-0.0323104,-1.82604,982.722,-0.0852067,
2,0,0,1,1,32719.8,-0.0739557,-0.0743587,-4.97182,17,-0.00139896,10,0.000369698,-2.30348,-0.0138155,-4.27055,715.565,-0.0743587,
2,1,0,1,1,32719.8,-0.0631604,-0.0636125,1.81902,17,-0.00142404,10,-0.000115712,-2.74016,0.014806,3.98488,556.985,-0.0636125,
2,1,0,1,1,32719.9,-0.0523512,-0.0528759,7.20897,17,-0.00134044,10,-0.000381181,-2.14213,0.0353249,1.67021,448.583,-0.05287591,
2,1,0,1,1,32719.9,-0.0415559,-0.0420025,11.5657,17,-0.00116981,10,-0.000485787,-1.93683,0.0727041,0.811508,360.637,-0.0420025,
2,1,0,1,1,32719.9,-0.0307579,-0.0311482,15.0859,17,-0.000928556,10,-0.000469898,-1.82143,0.118688,0.497102,290.417,-0.0311482,
2,1,0,1,1,32719.9,-0.0199515,-0.0203458,17.9265,17,-0.000630322,10,-0.00036473,-1.7465,0.174632,0.337853,235.138,-0.0203458,
2,1,0,1,1,32719.9,-0.0091534,-0.00956253,20.1903,17,-0.000286419,10,-0.00019307,-1.69486,0.243984,0.241819,189.97,-0.00956253,
2,1,0,0,1,32719.9,-7.54729e-05,-0.00042076,21.665,17,3.06259e-05,10,-9.11576e-06,-1.66424, , , ,-0.00042076,