File: Figure_codes/Fig_S3_S4/20221101_1-115_002_TrumpetPlot_ParaChange_12_CV_C01_1.csv
mode,ox/red,error,control changes,counter inc.,time/s,control/V,Ewe/V,<I>/mA,cycle number,(Q-Qo)/C,I Range,P/W,log(|I|),Tafel slope mV/dec,alpha_eff,E-IR/V,
2,1,0,0,0,2441.72,2.44065e-05,-0.000401673,6.93894,2,0.0000000E+000,10,-2.78718e-06,-2.15871, , ,-0.00595282,
2,1,0,1,0,2441.77,0.00929729,0.00901011,10.1399,2,0.000411581,10,9.13618e-05,-1.99397,0.141515,0.416918,0.000898172,
2,1,0,1,0,2441.81,0.0187767,0.0184783,10.6885,2,0.000909569,10,0.000197505,-1.97108,3.89235,0.0151579,0.00992747,
2,1,0,1,0,2441.86,0.0282562,0.0279942,10.6947,2,0.00141661,10,0.00029939,-1.97083,-9.59996,-0.00614586,0.0194384,
2,1,0,1,0,2441.91,0.0377538,0.037466,10.7058,2,0.00192457,10,0.000401104,-1.97038,5.78357,0.0102013,0.0289013,
2,1,0,1,0,2441.96,0.0472514,0.0469288,10.8455,2,0.0024359,10,0.000508967,-1.96475,1.04093,0.0566801,0.0382524,
2,1,0,1,0,2442,0.0567309,0.0564204,11.1805,2,0.00295757,10,0.00063081,-1.95154,0.499376,0.118147,0.047476,
2,1,0,1,0,2442.05,0.0662149,0.0658912,11.8172,2,0.0035018,10,0.000778648,-1.92749,0.300485,0.196349,0.0564374,
2,1,0,1,0,2442.1,0.0756989,0.075375,12.6493,2,0.00408079,10,0.000953441,-1.89793,0.254469,0.231855,0.0652555,
2,1,0,1,0,2442.15,0.0851965,0.0849059,13.7646,2,0.00470772,10,0.0011687,-1.86124,0.235471,0.250562,0.0738942,
2,1,0,1,0,2442.19,0.0946941,0.0943625,14.9948,2,0.00539019,10,0.00141495,-1.82406,0.247138,0.238733,0.0823667,
2,1,0,1,0,2442.24,0.104174,0.103871,16.247,2,0.00613018,10,0.0016876,-1.78923,0.234852,0.251222,0.0908739,
2,1,0,1,0,2442.29,0.113653,0.113347,17.6839,2,0.00693387,10,0.00200442,-1.75242,0.218184,0.270414,0.0992003,
2,1,0,1,0,2442.34,0.123151,0.122871,19.4926,2,0.00781498,10,0.00239508,-1.71013,0.163406,0.361063,0.107277,
2,1,0,1,0,2442.38,0.132639,0.13233,21.9734,2,0.0087951,10,0.00290774,-1.6581,0.126988,0.46461,0.114751,
2,1,0,1,0,2442.43,0.142137,0.14184,25.0519,2,0.00991037,10,0.00355335,-1.60116,0.121213,0.486746,0.121798,
2,1,0,1,0,2442.48,0.151616,0.151339,28.2203,2,0.0111742,10,0.00427083,-1.54944,0.15716,0.375414,0.128763,
2,1,0,1,0,2442.52,0.161096,0.160838,30.7413,2,0.0125762,10,0.00494435,-1.51228,0.299271,0.197146,0.136245,
2,1,0,1,0,2442.57,0.170593,0.170261,31.4357,2,0.0140639,10,0.00535228,-1.50258,-0.745119,-0.079182,0.145113,
2,1,0,1,0,2442.62,0.180091,0.179777,28.0484,2,0.0154964,10,0.00504244,-1.55209,-0.154619,-0.381583,0.157338,
2,1,0,1,0,2442.67,0.18957,0.189316,20.3458,2,0.0166531,10,0.00385179,-1.69152,-0.0902181,-0.653971,0.173039,
2,1,0,1,0,2442.71,0.199059,0.198784,13.2156,2,0.017434,10,0.00262704,-1.87891,-0.0804585,-0.733297,0.188212,
2,1,0,1,0,2442.76,0.208538,0.208238,10.1041,2,0.0179715,10,0.00210405,-1.9955,-0.163105,-0.36173,0.200155,
2,1,0,1,0,2442.81,0.218036,0.21775,9.27002,2,0.0184271,10,0.00201855,-2.03292,-0.447842,-0.131743,0.210334,
2,1,0,1,0,2442.86,0.227534,0.227236,8.92137,2,0.0188586,10,0.00202726,-2.04957,-0.598166,-0.0986349,0.220099,
2,1,0,1,0,2442.9,0.237013,0.236751,8.63697,2,0.0192749,10,0.00204481,-2.06364,-0.678419,-0.086967,0.229842,
2,1,0,1,0,2442.95,0.246493,0.24622,8.42988,2,0.0196793,10,0.00207561,-2.07418,-1.13527,-0.0519701,0.239476,
2,1,0,1,0,2443,0.25599,0.255709,8.21369,2,0.0200745,10,0.00210031,-2.08546,-1.10698,-0.0532984,0.249138,
2,1,0,1,0,2443.05,0.265479,0.265154,8.08024,2,0.0204605,10,0.00214251,-2.09258,-1.25403,-0.0470482,0.25869,
2,1,0,1,0,2443.09,0.274976,0.274707,7.91803,2,0.0208399,10,0.00217514,-2.10138,-1.1809,-0.0499617,0.268373,
2,1,0,1,0,2443.14,0.284456,0.284186,7.77529,2,0.0212117,10,0.00220963,-2.10928,-1.17871,-0.0500546,0.277966,
2,1,0,1,0,2443.19,0.293935,0.293638,7.64986,2,0.0215774,10,0.00224629,-2.11635,-1.03068,-0.0572436,0.287518,
2,1,0,1,0,2443.23,0.29774,0.297486,1.26362,2,0.0218539,10,0.00037591,-2.89838,-0.00320073,-18.4333,0.296475,
2,0,0,1,0,2443.28,0.28826,0.28793,-3.65863,2,0.0217433,10,-0.00105343,-2.43668,-0.0864905,-0.682156,0.290857,
2,0,0,1,0,2443.33,0.278763,0.27842,-4.12954,2,0.0215571,10,-0.00114975,-2.3841,-0.289128,-0.204062,0.281723,
2,0,0,1,0,2443.37,0.269265,0.268997,-4.49362,2,0.0213522,10,-0.00120877,-2.3474,-0.29343,-0.20107,0.272592,
2,0,0,1,0,2443.42,0.259786,0.259495,-4.83915,2,0.0211308,10,-0.00125573,-2.31523,-0.320835,-0.183895,0.263366,
2,0,0,1,0,2443.47,0.250306,0.250007,-5.16537,2,0.0208935,10,-0.00129138,-2.2869,-0.334508,-0.176379,0.25414,
2,0,0,1,0,2443.52,0.240809,0.240515,-5.48245,2,0.0206404,10,-0.00131861,-2.26103,-0.347227,-0.169918,0.244901,
2,0,0,1,0,2443.56,0.23132,0.230967,-5.84678,2,0.0203725,10,-0.00135041,-2.23308,-0.339143,-0.173968,0.235644,
2,0,0,1,0,2443.61,0.221822,0.22153,-6.17029,2,0.0200876,10,-0.0013669,-2.20969,-0.31579,-0.186833,0.226466,
2,0,0,1,0,2443.66,0.212343,0.212022,-6.62051,2,0.0197847,10,-0.00140369,-2.17911,-0.307066,-0.192141,0.217318,
2,0,0,1,0,2443.71,0.202863,0.202549,-7.13911,2,0.0194589,10,-0.00144602,-2.14636,-0.262185,-0.225032,0.208261,
2,0,0,1,0,2443.75,0.193366,0.193075,-7.85238,2,0.0191035,10,-0.0015161,-2.105,-0.19543,-0.301898,0.199356,
2,0,0,1,0,2443.8,0.183868,0.183536,-8.83093,2,0.018708,10,-0.00162079,-2.05399,-0.146341,-0.403169,0.190601,
2,0,0,1,0,2443.85,0.174389,0.174057,-10.2524,2,0.0182568,10,-0.0017845,-1.98918,-0.108281,-0.544879,0.182259,
2,0,0,1,0,2443.9,0.1649,0.164616,-12.3349,2,0.0177238,10,-0.00203052,-1.90886,-0.0863144,-0.683548,0.174484,
2,0,0,1,0,2443.94,0.155421,0.155131,-15.3412,2,0.0170716,10,-0.00237991,-1.81414,-0.0691103,-0.853707,0.167404,
2,0,0,1,0,2443.99,0.145923,0.145692,-19.0963,2,0.0162556,10,-0.00278217,-1.71905,-0.0660404,-0.893393,0.160969,
2,0,0,1,0,2444.04,0.136426,0.136185,-23.3323,2,0.0152461,10,-0.0031775,-1.63204,-0.0825639,-0.714598,0.15485,
2,0,0,1,0,2444.08,0.126946,0.126676,-27.0931,2,0.0140479,10,-0.00343206,-1.56714,-0.132073,-0.446723,0.148351,
2,0,0,1,0,2444.13,0.117467,0.117169,-29.6358,2,0.0126964,10,-0.0034724,-1.52818,-0.321234,-0.183667,0.140878,
2,0,0,1,0,2444.18,0.107969,0.107678,-30.1673,2,0.0112659,10,-0.00324835,-1.52046,0.907898,0.0649853,0.131812,
2,0,0,1,0,2444.23,0.0984805,0.0981819,-27.9947,2,0.00987709,10,-0.00274857,-1.55292,0.234687,0.251399,0.120578,
2,0,0,1,0,2444.27,0.0889828,0.0886363,-23.8879,2,0.00864214,10,-0.00211734,-1.62182,0.163502,0.360852,0.107747,
2,0,0,1,0,2444.32,0.0795034,0.0791994,-20.0803,2,0.00760599,10,-0.00159034,-1.69723,0.178416,0.330689,0.0952636,
2,0,0,1,0,2444.37,0.0700239,0.0697165,-17.5956,2,0.00671783,10,-0.0012267,-1.7546,0.221427,0.266454,0.0837929,
2,0,0,1,0,2444.42,0.0605263,0.0602173,-15.846,2,0.00592505,10,-0.0009542,-1.80008,0.246014,0.239824,0.072894,
2,0,0,1,0,2444.46,0.0510287,0.0507254,-14.3042,2,0.00520946,10,-0.000725588,-1.84454,0.242098,0.243703,0.0621688,
2,0,0,1,0,2444.51,0.0415492,0.0412356,-12.9843,2,0.00456405,10,-0.000535414,-1.88658,0.304778,0.193584,0.051623,
2,0,0,1,0,2444.56,0.0320607,0.0317613,-12.2348,2,0.00396836,10,-0.000388593,-1.9124,0.520825,0.113282,0.0415492,
2,0,0,1,0,2444.61,0.0225812,0.022307,-11.8923,2,0.00339858,10,-0.000265281,-1.92474,1.48433,0.0397485,0.0318208,
2,0,0,1,0,2444.65,0.0130836,0.0127503,-11.8559,2,0.00283547,10,-0.000151166,-1.92607,-16.2635,-0.00362776,0.022235,
2,0,0,1,0,2444.7,0.00358601,0.00331949,-11.9817,2,0.00226975,10,-3.97729e-05,-1.92148,-0.702881,-0.0839402,0.0129048,
2,0,0,1,0,2444.75,-0.00589345,-0.00626409,-12.2348,2,0.00169459,10,7.66399e-05,-1.9124,-1.25446,-0.0470321,0.00352376,
2,0,0,1,0,2444.8,-0.0153729,-0.0157088,-12.5313,2,0.00110765,10,0.000196852,-1.902,-0.835491,-0.0706172,-0.00568381,
2,0,0,1,0,2444.84,-0.0248569,-0.0252152,-12.8948,2,0.000505387,10,0.000325146,-1.88958,-0.745948,-0.079094,-0.0148993,
2,0,0,1,0,2444.89,-0.0343591,-0.0347143,-13.2527,2,-0.000115411,10,0.000460058,-1.8777,-0.614029,-0.0960866,-0.0241122,
2,0,0,1,0,2444.94,-0.0438567,-0.0441698,-13.6689,2,-0.00075484,10,0.000603753,-1.86427,-0.757646,-0.0778728,-0.0332346,
2,0,0,1,0,2444.99,-0.0533362,-0.053664,-14.0735,2,-0.00141238,10,0.00075524,-1.8516,-0.704812,-0.0837103,-0.0424052,
2,0,0,1,0,2445.03,-0.0628156,-0.0631322,-14.5608,2,-0.00209116,10,0.000919255,-1.83681,-0.615984,-0.0957817,-0.0514835,
2,0,0,1,0,2445.08,-0.0723132,-0.0726361,-15.1243,2,-0.00279611,10,0.00109857,-1.82033,-0.535917,-0.110092,-0.0605367,
2,0,0,1,0,2445.13,-0.0818109,-0.0821258,-15.8204,2,-0.00353079,10,0.00129926,-1.80078,-0.389269,-0.151566,-0.0694695,
2,0,0,1,0,2445.18,-0.0912994,-0.0915914,-16.6681,2,-0.00430055,10,0.00152666,-1.77811,-0.378441,-0.155903,-0.0782569,
2,0,0,1,0,2445.22,-0.100005,-0.1004,-17.5381,2,-0.00504455,10,0.00176083,-1.75602,0.0274065,2.15278,-0.0863697,
2,1,0,1,1,2445.26,-0.0911859,-0.0915966,1.76642,2,-0.00530459,10,-0.000161798,-2.75291,0.00035833,164.653,-0.0930097,
2,1,0,1,1,2445.31,-0.0817019,-0.0820772,8.37437,2,-0.00503614,10,-0.000687345,-2.07705,0.0326958,1.80451,-0.0887767,
2,1,0,1,1,2445.36,-0.0722224,-0.072544,10.6466,2,-0.00457544,10,-0.000772346,-1.97279,0.169863,0.347339,-0.0810612,
2,1,0,1,1,2445.41,-0.0627248,-0.0630344,11.4188,2,-0.00404807,10,-0.000719775,-1.94238,0.528635,0.111608,-0.0721694,
2,1,0,1,1,2445.45,-0.0532272,-0.0535694,11.6971,2,-0.00349794,10,-0.000626608,-1.93192,3.83585,0.0153812,-0.0629271,
2,1,0,1,1,2445.5,-0.0437477,-0.0441238,11.716,2,-0.00294281,10,-0.000516956,-1.93122,-14.7765,-0.00399282,-0.0534966,
2,1,0,1,1,2445.55,-0.0342683,-0.0345888,11.6661,2,-0.00238832,10,-0.000403518,-1.93307,-4.27668,-0.0137958,-0.0439217,
2,1,0,1,1,2445.6,-0.0247843,-0.0251319,11.5488,2,-0.00183787,10,-0.000290242,-1.93746,-2.50803,-0.0235245,-0.0343709,
2,1,0,1,1,2445.64,-0.0152821,-0.0156318,11.4126,2,-0.00129232,10,-0.000178399,-1.94262,-1.68811,-0.0349504,-0.0247619,
2,1,0,1,1,2445.69,-0.00578449,-0.00615216,11.2468,2,-0.000754208,10,-6.9192e-05,-1.94897,-1.1264,-0.0523791,-0.0151496,
2,1,0,1,1,2445.72,-2.55332e-05,-0.000306236,11.1024,2,-0.000433137,10,-3.39996e-06,-1.95458, , ,-0.00918816,