File: Figure_codes/Fig_S3_S4/20221101_1-115_002_TrumpetPlot_ParaChange_08_CV_C01_1.csv
mode,ox/red,error,control changes,counter inc.,time/s,control/V,Ewe/V,<I>/mA,cycle number,(Q-Qo)/C,I Range,P/W,log(|I|),Tafel slope mV/dec,alpha_eff,E-IR/V,
2,0,0,0,0,2400.82,2.44065e-05,-0.000229887,-2.18636,2,0.0000000E+000,11,5.02616e-07,-2.66028, , ,0.0015192,
2,1,0,1,0,2400.99,0.00679123,0.0065436,1.71581,2,0.000186835,11,1.12276e-05,-2.76553,0.213516,0.276325,0.00517095,
2,1,0,1,0,2401.16,0.0137828,0.0134579,1.80272,2,0.000495539,11,2.42608e-05,-2.74407,0.342409,0.172309,0.0120157,
2,1,0,1,0,2401.34,0.0207743,0.0205083,1.86431,2,0.000816414,11,3.82338e-05,-2.72948,0.452392,0.130418,0.0190169,
2,1,0,1,0,2401.51,0.0277659,0.0274839,1.90758,2,0.00114662,11,5.24277e-05,-2.71952,0.525555,0.112262,0.0259578,
2,1,0,1,0,2401.69,0.0347548,0.0345068,1.95347,2,0.00148511,11,6.74079e-05,-2.70919,0.520384,0.113378,0.032944,
2,1,0,1,0,2401.86,0.0417472,0.0414999,2.02913,2,0.00183356,11,8.42086e-05,-2.69269,0.474283,0.124398,0.0398766,
2,1,0,1,0,2402.04,0.0487388,0.0484619,2.10935,2,0.00219457,11,0.000102223,-2.67585,0.429184,0.13747,0.0467744,
2,1,0,1,0,2402.21,0.0557303,0.0554652,2.21966,2,0.00257301,11,0.000123114,-2.65371,0.317314,0.185936,0.0536895,
2,1,0,1,0,2402.39,0.0627219,0.062474,2.37079,2,0.00297471,11,0.000148113,-2.62511,0.223227,0.264305,0.0605774,
2,1,0,1,0,2402.56,0.0697152,0.06946,2.56101,2,0.00340675,11,0.000177888,-2.59159,0.202974,0.290678,0.0674111,
2,1,0,1,0,2402.73,0.0767068,0.0764144,2.78242,2,0.00387443,11,0.000212617,-2.55558,0.204299,0.288792,0.0741885,
2,1,0,1,0,2402.91,0.0836983,0.0834397,2.99997,2,0.00438108,11,0.000250317,-2.52288,0.210986,0.279639,0.0810397,
2,1,0,1,0,2403.08,0.0906899,0.0903965,3.22395,2,0.00492672,11,0.000291434,-2.49161,0.210192,0.280695,0.0878174,
2,1,0,1,0,2403.26,0.0976823,0.0974108,3.45144,2,0.00551136,11,0.000336207,-2.462,0.210917,0.27973,0.0946496,
2,1,0,1,0,2403.43,0.104675,0.104393,3.70765,2,0.00613673,11,0.000387052,-2.4309,0.192824,0.305979,0.101427,
2,1,0,1,0,2403.61,0.111666,0.111398,4.04122,2,0.00681328,11,0.000450184,-2.39349,0.149934,0.393508,0.108165,
2,1,0,1,0,2403.78,0.118658,0.118358,4.54775,2,0.00756246,11,0.000538261,-2.3422,0.116036,0.508463,0.11472,
2,1,0,1,0,2403.96,0.12565,0.125418,5.2324,2,0.008415,11,0.000656236,-2.2813,0.106087,0.556146,0.121232,
2,1,0,1,0,2404.13,0.132639,0.132376,5.98921,2,0.00939515,11,0.00079283,-2.22263,0.119371,0.494256,0.127585,
2,1,0,1,0,2404.31,0.139631,0.139356,6.64984,2,0.0105038,11,0.000926698,-2.17719,0.19183,0.307564,0.134037,
2,1,0,1,0,2404.48,0.146622,0.146358,7.01609,2,0.0117057,11,0.00102686,-2.15391,0.802088,0.0735581,0.140745,
2,1,0,1,0,2404.66,0.153614,0.153311,6.88291,2,0.0129308,11,0.00105523,-2.16223,-0.241553,-0.244252,0.147805,
2,1,0,1,0,2404.83,0.160603,0.160318,6.02266,2,0.0140705,11,0.000965542,-2.22021,-0.0889139,-0.663563,0.1555,
2,1,0,1,0,2405.01,0.167595,0.167344,4.63198,2,0.0150049,11,0.000775134,-2.33423,-0.0655348,-0.900286,0.163638,
2,1,0,1,0,2405.18,0.174587,0.174329,3.55728,2,0.0157133,11,0.000620138,-2.44888,-0.0796521,-0.740721,0.171484,
2,1,0,1,0,2405.36,0.181578,0.181324,2.96779,2,0.0162784,11,0.00053813,-2.52757,-0.112886,-0.522649,0.178949,
2,1,0,1,0,2405.53,0.18857,0.188332,2.59832,2,0.0167628,11,0.000489347,-2.58531,-0.156908,-0.376017,0.186253,
2,1,0,1,0,2405.71,0.195563,0.195292,2.36038,2,0.0171957,11,0.000460962,-2.62702,-0.180469,-0.326926,0.193403,
2,1,0,1,0,2405.88,0.202555,0.202306,2.19987,2,0.0175937,11,0.000445047,-2.6576,-0.238886,-0.24698,0.200546,
2,1,0,1,0,2406.06,0.209546,0.209295,2.08586,2,0.0179682,11,0.00043656,-2.68072,-0.293186,-0.201237,0.207627,
2,1,0,1,0,2406.23,0.216538,0.216271,1.98674,2,0.0183252,11,0.000429675,-2.70186,-0.4182,-0.141081,0.214682,
2,1,0,1,0,2406.41,0.22353,0.223257,1.92989,2,0.0186696,11,0.000430861,-2.71447,-0.57299,-0.102969,0.221713,
2,1,0,1,0,2406.58,0.230523,0.230261,1.88982,2,0.0190043,11,0.000435153,-2.72358,-0.92195,-0.0639948,0.228749,
2,1,0,1,0,2406.76,0.237514,0.237269,1.84935,2,0.0193314,11,0.000438794,-2.73298,-0.982792,-0.0600331,0.23579,
2,1,0,1,0,2406.93,0.244506,0.244228,1.81242,2,0.0196521,11,0.000442643,-2.74174,-2.20323,-0.0267789,0.242778,
2,1,0,1,0,2407.1,0.251498,0.251257,1.78545,2,0.0199676,11,0.000448607,-2.74825,-1.61053,-0.036634,0.249828,
2,1,0,1,0,2407.28,0.258491,0.258259,1.76895,2,0.0202783,11,0.000456847,-2.75228,-1.41161,-0.0417964,0.256844,
2,1,0,1,0,2407.45,0.265479,0.265271,1.73928,2,0.0205846,11,0.00046138,-2.75963,-0.885617,-0.0666202,0.263879,
2,1,0,1,0,2407.63,0.27247,0.272223,1.71291,2,0.0208874,11,0.000466294,-2.76627,-0.994082,-0.0593512,0.270853,
2,1,0,1,0,2407.8,0.279462,0.279196,1.69854,2,0.0211862,11,0.000474224,-2.76993,-1.1099,-0.0531581,0.277837,
2,1,0,1,0,2407.98,0.286451,0.286215,1.68032,2,0.0214816,11,0.000480934,-2.77461,-1.19226,-0.049486,0.284871,
2,1,0,1,0,2408.15,0.293443,0.293242,1.65327,2,0.0217737,11,0.000484807,-2.78166,-1.42363,-0.0414433,0.291919,
2,1,0,0,0,2408.32,0.300012,0.299727,1.643,2,0.022044,11,0.000492453,-2.78436,-0.00268117,-22.0053,0.298413,
2,0,0,1,0,2408.47,0.293693,0.293395,-0.617048,2,0.0219848,11,-0.000181039,-3.20968,-0.0605717,-0.974052,0.293888,
2,0,0,1,0,2408.65,0.286701,0.286457,-0.757641,2,0.021863,11,-0.000217031,-3.12054,-0.101697,-0.580156,0.287063,
2,0,0,1,0,2408.82,0.279708,0.279449,-0.856737,2,0.0217205,11,-0.000239414,-3.06715,-0.149746,-0.394,0.280134,
2,0,0,1,0,2409,0.27272,0.27243,-0.935813,2,0.0215627,11,-0.000254944,-3.02881,-0.181209,-0.325592,0.273179,
2,0,0,1,0,2409.17,0.265728,0.265432,-1.0096,2,0.0213917,11,-0.000267979,-2.99585,-0.242084,-0.243717,0.26624,
2,0,0,1,0,2409.35,0.258737,0.258486,-1.07421,2,0.0212096,11,-0.000277668,-2.96891,-0.214226,-0.275409,0.259346,
2,0,0,1,0,2409.52,0.251749,0.251457,-1.12155,2,0.0210171,11,-0.000282022,-2.95018,-0.306044,-0.192783,0.252354,
2,0,0,1,0,2409.7,0.244756,0.244456,-1.18588,2,0.0208148,11,-0.000289896,-2.92596,-0.296753,-0.198819,0.245404,
2,0,0,1,0,2409.87,0.237764,0.237459,-1.24354,2,0.0206027,11,-0.00029529,-2.90534,-0.439438,-0.134262,0.238454,
2,0,0,1,0,2410.05,0.230772,0.230474,-1.29941,2,0.0203808,11,-0.00029948,-2.88626,-0.442922,-0.133206,0.231514,
2,0,0,1,0,2410.22,0.223781,0.223487,-1.349,2,0.0201486,11,-0.000301484,-2.86999,-0.35401,-0.166662,0.224566,
2,0,0,1,0,2410.4,0.216788,0.216487,-1.42989,2,0.0199046,11,-0.000309552,-2.8447,-0.309116,-0.190867,0.217631,
2,0,0,1,0,2410.57,0.209796,0.209526,-1.50435,2,0.0196477,11,-0.000315201,-2.82265,-0.292916,-0.201423,0.210729,
2,0,0,1,0,2410.75,0.202804,0.202544,-1.60412,2,0.0193749,11,-0.000324905,-2.79476,-0.241619,-0.244186,0.203828,
2,0,0,1,0,2410.92,0.195813,0.195445,-1.72154,2,0.019083,11,-0.000336467,-2.76408,-0.178515,-0.330504,0.196822,
2,0,0,1,0,2411.1,0.18882,0.18849,-1.89707,2,0.018766,11,-0.000357578,-2.72192,-0.145147,-0.406484,0.190007,
2,0,0,1,0,2411.27,0.181828,0.181558,-2.12883,2,0.0184155,11,-0.000386505,-2.67186,-0.120867,-0.488141,0.183261,
2,0,0,1,0,2411.45,0.174836,0.174551,-2.43301,2,0.0180185,11,-0.000424685,-2.61386,-0.0985811,-0.598492,0.176498,
2,0,0,1,0,2411.62,0.167845,0.167559,-2.89518,2,0.0175548,11,-0.000485112,-2.53832,-0.0771473,-0.764771,0.169875,
2,0,0,1,0,2411.8,0.160853,0.160574,-3.57239,2,0.0169922,11,-0.000573633,-2.44704,-0.0661553,-0.891841,0.163432,
2,0,0,1,0,2411.97,0.15386,0.153576,-4.48271,2,0.01629,11,-0.000688438,-2.34846,-0.065197,-0.904949,0.157162,
2,0,0,1,0,2412.15,0.146872,0.146579,-5.51991,2,0.0154151,11,-0.000809105,-2.25807,-0.0814958,-0.723963,0.150995,
2,0,0,1,0,2412.32,0.13988,0.139579,-6.3981,2,0.0143689,11,-0.000893039,-2.19395,-0.131317,-0.449294,0.144697,
2,0,0,1,0,2412.49,0.132889,0.13259,-6.92596,2,0.0131965,11,-0.000918312,-2.15952,-0.383721,-0.153758,0.138131,
2,0,0,1,0,2412.67,0.125901,0.125594,-6.94785,2,0.0119754,11,-0.000872612,-2.15815,0.438416,0.134575,0.131153,
2,0,0,1,0,2412.84,0.118908,0.118612,-6.41662,2,0.0107988,11,-0.000761087,-2.19269,0.14633,0.403197,0.123745,
2,0,0,1,0,2413.02,0.111916,0.111607,-5.55104,2,0.00975007,11,-0.000619533,-2.25563,0.11348,0.519916,0.116047,
2,0,0,1,0,2413.19,0.104924,0.104608,-4.79923,2,0.00884938,11,-0.000502039,-2.31883,0.138853,0.424909,0.108448,
2,0,0,1,0,2413.37,0.0979329,0.0976124,-4.3184,2,0.0080558,11,-0.000421529,-2.36468,0.203577,0.289817,0.101067,
2,0,0,1,0,2413.54,0.0909405,0.0906051,-4.0259,2,0.00732792,11,-0.000364767,-2.39514,0.294627,0.200253,0.0938258,
2,0,0,1,0,2413.72,0.083948,0.0836161,-3.81041,2,0.0066434,11,-0.000318612,-2.41903,0.287857,0.204963,0.0866644,
2,0,0,1,0,2413.89,0.0769565,0.0766682,-3.61007,2,0.00599483,11,-0.000276777,-2.44248,0.26367,0.223764,0.0795562,
2,0,0,1,0,2414.07,0.0699649,0.0696474,-3.38477,2,0.00538294,11,-0.000235741,-2.47047,0.238826,0.247041,0.0723552,
2,0,0,1,0,2414.24,0.0629725,0.0626778,-3.16131,2,0.00480929,11,-0.000198144,-2.50013,0.245693,0.240137,0.0652069,
2,0,0,1,0,2414.42,0.05598,0.055646,-2.97303,2,0.00427253,11,-0.000165437,-2.5268,0.29396,0.200708,0.0580244,
2,0,0,1,0,2414.59,0.0489885,0.0487032,-2.82672,2,0.00376536,11,-0.00013767,-2.54872,0.388993,0.151674,0.0509646,
2,0,0,1,0,2414.77,0.0419969,0.0417138,-2.72761,2,0.00327938,11,-0.000113779,-2.56422,0.661925,0.089134,0.0438959,
2,0,0,1,0,2414.94,0.0350054,0.0347345,-2.68114,2,0.00280583,11,-9.31279e-05,-2.57168,4.74215,0.0124416,0.0368794,
2,0,0,1,0,2415.12,0.028012,0.0277187,-2.66847,2,0.00233859,11,-7.39666e-05,-2.57374,-4.29817,-0.0137268,0.0298535,
2,0,0,1,0,2415.29,0.021024,0.0207441,-2.66992,2,0.00187251,11,-5.53851e-05,-2.5735,-2.2475,-0.0262514,0.02288,
2,0,0,1,0,2415.47,0.0140325,0.0137363,-2.693,2,0.00140318,11,-3.69919e-05,-2.56976,-1.45384,-0.0405821,0.0158907,
2,0,0,1,0,2415.64,0.00704093,0.00673866,-2.73886,2,0.000928126,11,-1.84562e-05,-2.56243,-1.16983,-0.0504345,0.00892975,
2,0,0,1,0,2415.81,0.000177222,-0.000152392,-2.79668,2,0.00045151,11,4.26193e-07,-2.55336, , ,0.00208495,