File: Figure_codes/Fig_S3_S4/20221101_1-115_002_TrumpetPlot_ParaChange_11_CV_C01_1.csv
mode,ox/red,error,control changes,counter inc.,time/s,control/V,Ewe/V,<I>/mA,cycle number,(Q-Qo)/C,I Range,P/W,log(|I|),Tafel slope mV/dec,alpha_eff,E-IR/V,
2,0,0,1,0,2433.62,2.44065e-05,0.000609955,-6.1318,2,0.0000000E+000,11,-3.74012e-06,-2.21241, , ,0.00551539,
2,1,0,1,0,2433.71,0.00928821,0.00894721,4.04629,2,9.71758e-05,11,3.6203e-05,-2.39294,0.0492317,1.19842,0.00571018,
2,1,0,1,0,2433.81,0.0187767,0.0184836,4.40317,2,0.000506342,11,8.13864e-05,-2.35623,3.8229,0.0154333,0.014961,
2,1,0,1,0,2433.9,0.0282653,0.0280042,4.49655,2,0.00092851,11,0.000125922,-2.34712,0.967874,0.0609584,0.0244069,
2,1,0,1,0,2434,0.0377538,0.0374601,4.62355,2,0.00136142,11,0.000173198,-2.33502,0.737791,0.0799684,0.0337613,
2,1,0,1,0,2434.09,0.0472424,0.046947,4.85456,2,0.00181075,11,0.000227907,-2.31385,0.370071,0.159429,0.0430634,
2,1,0,1,0,2434.19,0.0567309,0.0564499,5.17586,2,0.00228593,11,0.000292177,-2.28602,0.265185,0.222486,0.0523092,
2,1,0,1,0,2434.28,0.0662262,0.0659359,5.66765,2,0.00279951,11,0.000373701,-2.2466,0.192799,0.306017,0.0614017,
2,1,0,1,0,2434.38,0.075708,0.0754036,6.30117,2,0.00336581,11,0.000475131,-2.20058,0.194738,0.30297,0.0703627,
2,1,0,1,0,2434.47,0.0851965,0.0848879,7.00216,2,0.00399571,11,0.000594399,-2.15477,0.205228,0.287485,0.0792862,
2,1,0,1,0,2434.57,0.094685,0.0944011,7.70638,2,0.00469359,11,0.000727491,-2.11315,0.244589,0.241221,0.088236,
2,1,0,1,0,2434.66,0.104174,0.103899,8.43639,2,0.00545943,11,0.000876536,-2.07384,0.21113,0.279449,0.0971502,
2,1,0,1,0,2434.76,0.113662,0.113384,9.39191,2,0.0063037,11,0.00106489,-2.02725,0.177027,0.333282,0.10587,
2,1,0,1,0,2434.85,0.123151,0.122896,10.8101,2,0.00725726,11,0.00132852,-1.96617,0.115594,0.510407,0.114248,
2,1,0,1,0,2434.95,0.132639,0.132347,12.7458,2,0.00837044,11,0.00168687,-1.89463,0.107884,0.546884,0.12215,
2,1,0,1,0,2435.04,0.142128,0.14186,14.7954,2,0.00967865,11,0.00209887,-1.82987,0.138692,0.425403,0.130023,
2,1,0,1,0,2435.13,0.151616,0.151288,16.3025,2,0.0111618,11,0.00246638,-1.78774,0.370598,0.159202,0.138246,
2,1,0,1,0,2435.23,0.161105,0.16084,16.2905,2,0.0127247,11,0.00262016,-1.78807,-0.315038,-0.187279,0.147807,
2,1,0,1,0,2435.32,0.170593,0.170339,13.3237,2,0.0141568,11,0.00226955,-1.87537,-0.0870719,-0.677601,0.15968,
2,1,0,1,0,2435.42,0.180082,0.179799,8.55308,2,0.0151893,11,0.00153784,-2.06788,-0.0639348,-0.922815,0.172957,
2,1,0,1,0,2435.51,0.18957,0.189276,6.14253,2,0.0158646,11,0.00116263,-2.21165,-0.122543,-0.481462,0.184362,
2,1,0,1,0,2435.61,0.199059,0.198779,5.37649,2,0.0164045,11,0.00106874,-2.2695,-0.231268,-0.255115,0.194478,
2,1,0,1,0,2435.7,0.208547,0.208316,4.92663,2,0.0168911,11,0.0010263,-2.30745,-0.299388,-0.197069,0.204375,
2,1,0,1,0,2435.8,0.218036,0.217754,4.60381,2,0.0173425,11,0.0010025,-2.33688,-0.389078,-0.151641,0.214071,
2,1,0,1,0,2435.89,0.227525,0.227271,4.41104,2,0.0177699,11,0.0010025,-2.35546,-0.481216,-0.122606,0.223742,
2,1,0,1,0,2435.99,0.237013,0.236734,4.25874,2,0.0181805,11,0.00100819,-2.37072,-0.744965,-0.0791983,0.233327,
2,1,0,1,0,2436.08,0.246502,0.246253,4.14255,2,0.0185793,11,0.00102012,-2.38273,-1.29543,-0.0455448,0.242939,
2,1,0,1,0,2436.18,0.25599,0.255717,4.04615,2,0.0189686,11,0.00103467,-2.39296,-1.68437,-0.035028,0.25248,
2,1,0,1,0,2436.27,0.265479,0.265204,4.00817,2,0.0193501,11,0.00106298,-2.39705,-1.25171,-0.0471357,0.261998,
2,1,0,1,0,2436.37,0.274967,0.274692,3.92177,2,0.0197251,11,0.00107728,-2.40652,-1.05336,-0.0560115,0.271554,
2,1,0,1,0,2436.46,0.284456,0.284238,3.84774,2,0.0200938,11,0.00109368,-2.41479,-1.3392,-0.0440562,0.28116,
2,1,0,1,0,2436.56,0.293944,0.293663,3.77924,2,0.0204568,11,0.00110982,-2.4226,-1.00836,-0.0585107,0.290639,
2,0,0,1,0,2436.64,0.29774,0.297453,-0.761789,2,0.0207069,11,-0.000226596,-3.11817,0.0020244,29.1445,0.298062,
2,0,0,1,0,2436.74,0.288251,0.287956,-1.91502,2,0.0205488,11,-0.000551441,-2.71783,-0.154875,-0.380951,0.289488,
2,0,0,1,0,2436.83,0.278763,0.278481,-2.16295,2,0.0203546,11,-0.000602342,-2.66495,-0.221932,-0.265847,0.280211,
2,0,0,1,0,2436.93,0.269274,0.269028,-2.39817,2,0.0201374,11,-0.000645175,-2.62012,-0.30993,-0.190366,0.270947,
2,0,0,1,0,2437.02,0.259786,0.259524,-2.57732,2,0.0199012,11,-0.000668876,-2.58883,-0.331313,-0.17808,0.261586,
2,0,0,1,0,2437.12,0.250297,0.250004,-2.74983,2,0.0196481,11,-0.000687469,-2.56069,-0.35448,-0.166441,0.252204,
2,0,0,1,0,2437.21,0.240808,0.240516,-2.90506,2,0.0193792,11,-0.000698715,-2.53684,-0.338887,-0.174099,0.24284,
2,0,0,1,0,2437.31,0.23132,0.231022,-3.10817,2,0.0190947,11,-0.000718055,-2.50749,-0.370515,-0.159238,0.233508,
2,0,0,1,0,2437.4,0.221831,0.221552,-3.28356,2,0.018793,11,-0.00072748,-2.48365,-0.351423,-0.167889,0.224179,
2,0,0,1,0,2437.5,0.212343,0.212068,-3.50055,2,0.0184716,11,-0.000742353,-2.45586,-0.316901,-0.186178,0.214868,
2,0,0,1,0,2437.59,0.202854,0.202554,-3.77495,2,0.018126,11,-0.000764629,-2.42309,-0.270315,-0.218264,0.205574,
2,0,0,1,0,2437.69,0.193366,0.193045,-4.18986,2,0.0177487,11,-0.000808831,-2.3778,-0.185637,-0.317824,0.196397,
2,0,0,1,0,2437.78,0.183877,0.183568,-4.74583,2,0.0173266,11,-0.000871184,-2.32369,-0.136788,-0.431324,0.187365,
2,0,0,1,0,2437.88,0.174389,0.174122,-5.60339,2,0.0168379,11,-0.000975673,-2.25155,-0.10028,-0.588352,0.178605,
2,0,0,1,0,2437.97,0.1649,0.164567,-6.95781,2,0.0162463,11,-0.00114502,-2.15753,-0.0785321,-0.751285,0.170133,
2,0,0,1,0,2438.06,0.155412,0.15513,-9.01619,2,0.0154944,11,-0.00139868,-2.04498,-0.0633852,-0.930816,0.162343,
2,0,0,1,0,2438.16,0.145923,0.1457,-11.6853,2,0.0145142,11,-0.00170254,-1.93236,-0.0724338,-0.814537,0.155048,
2,0,0,1,0,2438.25,0.136435,0.136144,-14.2943,2,0.0132778,11,-0.00194609,-1.84484,-0.109217,-0.540207,0.14758,
2,0,0,1,0,2438.35,0.126946,0.126596,-16.0307,2,0.0118279,11,-0.00202942,-1.79505,-0.298663,-0.197547,0.13942,
2,0,0,1,0,2438.44,0.117458,0.117109,-16.2533,2,0.0102809,11,-0.00190342,-1.78906,0.536671,0.109937,0.130112,
2,0,0,1,0,2438.54,0.107969,0.107664,-14.4662,2,0.00880813,11,-0.00155749,-1.83965,0.14676,0.402016,0.119237,
2,0,0,1,0,2438.63,0.0984804,0.0981706,-11.7324,2,0.00756807,11,-0.00115177,-1.93061,0.128497,0.459156,0.107557,
2,0,0,1,0,2438.73,0.0889919,0.0886511,-9.89582,2,0.00655226,11,-0.000877275,-2.00455,0.185998,0.317207,0.0965677,
2,0,0,1,0,2438.82,0.0795034,0.0791845,-8.97636,2,0.00566168,11,-0.000710789,-2.0469,0.287945,0.2049,0.0863656,
2,0,0,1,0,2438.92,0.0700148,0.0697394,-8.30743,2,0.00484228,11,-0.000579355,-2.08053,0.267984,0.220163,0.0763854,
2,0,0,1,0,2439.01,0.0605263,0.0602188,-7.58348,2,0.00408772,11,-0.000456668,-2.12013,0.246724,0.239134,0.0662856,
2,0,0,1,0,2439.11,0.0510378,0.0507411,-6.92181,2,0.0033999,11,-0.00035122,-2.15978,0.279639,0.210987,0.0562785,
2,0,0,1,0,2439.2,0.0415583,0.0412247,-6.47402,2,0.00276688,11,-0.00026689,-2.18883,0.563713,0.104663,0.0464039,
2,0,0,1,0,2439.3,0.0320607,0.0317986,-6.27056,2,0.00216419,11,-0.000199395,-2.20269,1.04839,0.056277,0.0368151,
2,0,0,1,0,2439.39,0.0225722,0.0222663,-6.1946,2,0.00157437,11,-0.000137931,-2.20799,6.87709,0.00857921,0.0272219,
2,0,0,1,0,2439.49,0.0130836,0.0127997,-6.24439,2,0.000984565,11,-7.99263e-05,-2.20451,-2.70807,-0.0217867,0.0177952,
2,0,0,1,0,2439.58,0.00359509,0.00333467,-6.36632,2,0.000386735,11,-2.12296e-05,-2.19611,-0.464679,-0.126969,0.00842772,
2,0,0,1,0,2439.68,-0.00589345,-0.00620132,-6.55119,2,-0.000227454,11,4.0626e-05,-2.18368,-0.950852,-0.0620496,-0.000960362,
2,0,0,1,0,2439.77,-0.015382,-0.0157101,-6.73908,2,-0.000858311,11,0.000105872,-2.1714,-0.568535,-0.103775,-0.0103189,
2,0,0,1,0,2439.87,-0.024866,-0.0252026,-7.00966,2,-0.00151034,11,0.000176662,-2.1543,-0.553448,-0.106604,-0.0195949,
2,0,0,1,0,2439.96,-0.0343591,-0.0347203,-7.29031,2,-0.00218808,11,0.000253122,-2.13725,-0.492325,-0.119839,-0.028888,
2,0,0,1,0,2440.06,-0.0438476,-0.0441884,-7.59761,2,-0.00289376,11,0.000335726,-2.11932,-0.572511,-0.103055,-0.0381104,
2,0,0,1,0,2440.15,-0.0533361,-0.0537055,-7.94005,2,-0.00363091,11,0.000426425,-2.10018,-0.466825,-0.126386,-0.0473535,
2,0,0,1,0,2440.25,-0.0628247,-0.063179,-8.38448,2,-0.0044051,11,0.000529723,-2.07652,-0.373086,-0.15814,-0.0564714,
2,0,0,1,0,2440.34,-0.0723132,-0.0726833,-8.91179,2,-0.00522476,11,0.000647738,-2.05004,-0.316917,-0.186169,-0.0655539,
2,0,0,1,0,2440.44,-0.0818018,-0.0821427,-9.56034,2,-0.0061008,11,0.000785312,-2.01953,-0.270008,-0.218512,-0.0744944,
2,0,0,1,0,2440.53,-0.0912903,-0.0916165,-10.2705,2,-0.00704122,11,0.000940948,-1.98841,-0.298714,-0.197513,-0.0834001,
2,0,0,1,1,2440.62,-0.0997301,-0.100174,-9.98827,2,-0.00799001,11,0.00100057,-2.00051,0.0103276,5.71283,-0.0921834,
2,1,0,1,1,2440.72,-0.0902416,-0.0906092,2.84766,2,-0.00810912,11,-0.000258024,-2.54551,0.0104208,5.66177,-0.0928873,
2,1,0,1,1,2440.81,-0.080753,-0.0810343,4.71876,2,-0.00772994,11,-0.000382382,-2.32617,0.105312,0.560239,-0.0848094,
2,1,0,1,1,2440.91,-0.0712645,-0.0716049,5.28851,2,-0.00725176,11,-0.000378683,-2.27667,0.31087,0.18979,-0.0758357,
2,1,0,1,1,2441,-0.061776,-0.0620971,5.58652,2,-0.00673395,11,-0.000346907,-2.25286,0.485942,0.121414,-0.0665663,
2,1,0,1,1,2441.1,-0.0522874,-0.0526329,5.76557,2,-0.00619347,11,-0.000303458,-2.23916,1.08979,0.0541388,-0.0572453,
2,1,0,1,1,2441.19,-0.0427989,-0.043097,5.8519,2,-0.00564169,11,-0.000252199,-2.2327,1.22268,0.0482547,-0.0477785,
2,1,0,1,1,2441.29,-0.0333194,-0.0336557,5.86354,2,-0.00508592,11,-0.000197341,-2.23184,-8.20791,-0.00718819,-0.0383465,
2,1,0,1,1,2441.38,-0.0238218,-0.0241476,5.84083,2,-0.00453021,11,-0.000141042,-2.23353,261.141,0.000225931,-0.0288202,
2,1,0,1,1,2441.48,-0.0143333,-0.014636,5.79378,2,-0.0039782,11,-8.47981e-05,-2.23704,-1.11182,-0.0530662,-0.0192711,
2,1,0,1,1,2441.57,-0.00484471,-0.00518886,5.71935,2,-0.00343229,11,-2.96769e-05,-2.24265,-1.6559,-0.0356302,-0.00976433,
2,1,0,0,1,2441.62,-2.55332e-05,-0.000401673,5.6739,2,-0.00315839,11,-2.27905e-06,-2.24612, , ,-0.00494079,