File: Figure_codes/Fig_S3_S4/20221101_1-115_002_TrumpetPlot_ParaChange_14_CV_C01_1.csv
mode,ox/red,error,control changes,counter inc.,time/s,control/V,Ewe/V,<I>/mA,cycle number,(Q-Qo)/C,I Range,P/W,log(|I|),Tafel slope mV/dec,alpha_eff,E-IR/V,
2,1,0,1,0,2447.92,2.44065e-05,-0.000840681,21.7769,2,0.0000000E+000,10,-1.83075e-05,-1.662, , ,-0.0182622,
2,1,0,1,0,2447.94,0.00908291,0.00872419,25.8951,2,0.000363781,10,0.000225914,-1.58678,0.115261,0.511881,-0.0119919,
2,1,0,1,0,2447.95,0.0186824,0.0183643,28.6115,2,0.000802167,10,0.000525431,-1.54346,0.261264,0.225825,-0.00452487,
2,1,0,1,0,2447.97,0.0282792,0.0279928,30.02,2,0.00127272,10,0.000840346,-1.52259,0.62956,0.0937163,0.00397681,
2,1,0,1,0,2447.98,0.0378898,0.0375556,30.6698,2,0.00175916,10,0.00115182,-1.51329,1.42781,0.0413219,0.0130198,
2,1,0,1,0,2448,0.0474865,0.0471427,31.0082,2,0.00225289,10,0.00146181,-1.50852,2.55015,0.0231359,0.0223361,
2,1,0,1,0,2448.02,0.057086,0.056732,31.3272,2,0.00275145,10,0.00177725,-1.50408,1.60463,0.0367686,0.0316702,
2,1,0,1,0,2448.03,0.0666828,0.0663764,31.9056,2,0.00325674,10,0.00211778,-1.49613,0.828637,0.0712013,0.0408519,
2,1,0,1,0,2448.05,0.0762823,0.0759391,32.9066,2,0.00377467,10,0.0024989,-1.48272,0.527946,0.111754,0.0496138,
2,1,0,1,0,2448.06,0.0858818,0.0855549,34.3279,2,0.00431231,10,0.00293692,-1.46435,0.38687,0.152506,0.0580926,
2,1,0,1,0,2448.08,0.0954841,0.0951261,36.3596,2,0.00487724,10,0.00345875,-1.43938,0.283755,0.207926,0.0660384,
2,1,0,1,0,2448.1,0.105086,0.104791,38.8385,2,0.00547877,10,0.00406991,-1.41074,0.258306,0.228412,0.0737199,
2,1,0,1,0,2448.11,0.114686,0.114342,41.6325,2,0.00612225,10,0.00476033,-1.38057,0.23401,0.252126,0.0810357,
2,1,0,1,0,2448.13,0.124285,0.123945,44.769,2,0.00681318,10,0.00554888,-1.34902,0.212987,0.277012,0.0881296,
2,1,0,1,0,2448.14,0.133882,0.133572,48.3056,2,0.0075576,10,0.00645229,-1.316,0.189379,0.311545,0.0949277,
2,1,0,1,0,2448.16,0.143482,0.143152,52.4543,2,0.00836353,10,0.00750893,-1.28022,0.163162,0.361604,0.101189,
2,1,0,1,0,2448.18,0.153084,0.152765,57.2733,2,0.0092412,10,0.00874933,-1.24205,0.143441,0.411318,0.106946,
2,1,0,1,0,2448.19,0.162689,0.16238,62.6624,2,0.0102006,10,0.0101751,-1.20299,0.134322,0.439242,0.11225,
2,1,0,1,0,2448.21,0.172286,0.171914,68.1601,2,0.0112478,10,0.0117177,-1.16647,0.154913,0.380859,0.117386,
2,1,0,1,0,2448.22,0.181885,0.181577,73.193,2,0.0123803,10,0.0132901,-1.13553,0.227915,0.258869,0.123022,
2,1,0,1,0,2448.24,0.191482,0.191144,76.7509,2,0.0135834,10,0.0146705,-1.11492,0.594826,0.0991886,0.129743,
2,1,0,1,0,2448.26,0.201081,0.200742,77.2903,2,0.0148212,10,0.0155154,-1.11187,-1.09466,-0.0538982,0.138909,
2,1,0,1,0,2448.27,0.210681,0.210391,72.8912,2,0.0160296,10,0.0153357,-1.13732,-0.354241,-0.166553,0.152078,
2,1,0,1,0,2448.29,0.220289,0.220066,62.988,2,0.0171219,10,0.0138615,-1.20074,-0.230103,-0.256407,0.169676,
2,1,0,1,0,2448.3,0.229886,0.229631,49.6978,2,0.0180241,10,0.0114122,-1.30366,-0.171894,-0.343235,0.189873,
2,1,0,1,0,2448.32,0.239485,0.239257,36.922,2,0.0187127,10,0.00883383,-1.43271,-0.140983,-0.418489,0.209719,
2,1,0,1,0,2448.34,0.249085,0.2488,27.6642,2,0.0192228,10,0.00688287,-1.55808,-0.139807,-0.422009,0.226669,
2,1,0,1,0,2448.35,0.258681,0.25843,22.705,2,0.0196202,10,0.00586766,-1.64388,-0.197853,-0.298201,0.240266,
2,1,0,1,0,2448.37,0.268281,0.268001,20.7058,2,0.0199645,10,0.00554919,-1.68391,-0.455094,-0.129644,0.251436,
2,1,0,1,0,2448.38,0.277889,0.277611,20.1508,2,0.0202902,10,0.00559409,-1.69571,-1.81346,-0.0325344,0.261491,
2,1,0,1,0,2448.4,0.287488,0.28717,20.0653,2,0.0206117,10,0.00576215,-1.69755,-103.234,-0.000571515,0.271118,
2,1,0,1,0,2448.42,0.297085,0.296835,20.0971,2,0.020933,10,0.00596551,-1.69687,-23.8323,-0.00247564,0.280757,
2,1,0,1,0,2448.43,0.296846,0.29674,9.43469,2,0.0211069,10,0.00279965,-2.02527,-0.00655,-9.00764,0.289192,
2,0,0,1,0,2448.44,0.287247,0.287007,-6.68367,2,0.0211034,10,-0.00191826,-2.17499,-0.00225577,-26.1552,0.292354,
2,0,0,1,0,2448.46,0.27765,0.277387,-11.9827,2,0.0209463,10,-0.00332385,-1.92144,-0.0596988,-0.988294,0.286973,
2,0,0,1,0,2448.47,0.268039,0.267739,-13.9637,2,0.0207363,10,-0.00373862,-1.855,-0.20384,-0.289443,0.27891,
2,0,0,1,0,2448.49,0.258443,0.258159,-14.9129,2,0.0205046,10,-0.00384991,-1.82644,-0.410083,-0.143873,0.27009,
2,0,0,1,0,2448.51,0.248843,0.24853,-15.6073,2,0.0202603,10,-0.00387889,-1.80667,-0.49014,-0.120374,0.261016,
2,0,0,1,0,2448.52,0.239247,0.238981,-16.2426,2,0.0200056,10,-0.00388166,-1.78935,-0.519804,-0.113504,0.251975,
2,0,0,1,0,2448.54,0.229647,0.229366,-16.9407,2,0.0197403,10,-0.00388562,-1.77107,-0.470649,-0.125359,0.242919,
2,0,0,1,0,2448.55,0.220047,0.219804,-17.7062,2,0.0194631,10,-0.00389191,-1.75187,-0.416667,-0.1416,0.233969,
2,0,0,1,0,2448.57,0.21044,0.210189,-18.6958,2,0.0191718,10,-0.00392965,-1.72826,-0.350165,-0.168492,0.225145,
2,0,0,1,0,2448.59,0.200843,0.200542,-19.8867,2,0.0188634,10,-0.00398812,-1.70144,-0.302789,-0.194855,0.216452,
2,0,0,1,0,2448.6,0.191243,0.190945,-21.4134,2,0.0185336,10,-0.0040888,-1.66931,-0.228799,-0.257869,0.208076,
2,0,0,1,0,2448.62,0.181644,0.181392,-23.397,2,0.0181757,10,-0.00424403,-1.63084,-0.182737,-0.322868,0.20011,
2,0,0,1,0,2448.63,0.172047,0.171793,-26.0437,2,0.0177808,10,-0.00447413,-1.5843,-0.138994,-0.424479,0.192628,
2,0,0,1,0,2448.65,0.162448,0.162165,-29.5581,2,0.0173366,10,-0.00479329,-1.52932,-0.109148,-0.540549,0.185812,
2,0,0,1,0,2448.67,0.152845,0.152602,-34.1099,2,0.0168282,10,-0.00520525,-1.46712,-0.0850544,-0.693673,0.17989,
2,0,0,1,0,2448.68,0.14324,0.143021,-39.7921,2,0.0162378,10,-0.00569113,-1.4002,-0.0689897,-0.8552,0.174855,
2,0,0,1,0,2448.7,0.133644,0.133502,-46.2257,2,0.0155493,10,-0.00617124,-1.33512,-0.0660557,-0.893186,0.170483,
2,0,0,1,0,2448.71,0.124044,0.12388,-53.2316,2,0.0147533,10,-0.00659434,-1.27383,-0.0704036,-0.838025,0.166465,
2,0,0,1,0,2448.73,0.114447,0.114277,-60.0137,2,0.013846,10,-0.00685819,-1.22175,-0.0906356,-0.650958,0.162288,
2,0,0,1,0,2448.75,0.104848,0.104639,-66.2763,2,0.0128337,10,-0.00693509,-1.17864,-0.140367,-0.420328,0.15766,
2,0,0,1,0,2448.76,0.0952427,0.0950105,-71.1503,2,0.0117316,10,-0.00676003,-1.14782,-0.26292,-0.224403,0.151931,
2,0,0,1,0,2448.78,0.0856404,0.0853513,-74.0302,2,0.0105669,10,-0.00631857,-1.13059,-0.876527,-0.0673111,0.144575,
2,0,0,1,0,2448.79,0.0760437,0.0757779,-74.2494,2,0.00937682,10,-0.00562647,-1.12931,1.45442,0.040566,0.135177,
2,0,0,1,0,2448.81,0.0664442,0.0661335,-71.5624,2,0.0082069,10,-0.00473268,-1.14531,0.530136,0.111292,0.123383,
2,0,0,1,0,2448.83,0.0568446,0.0565061,-66.6041,2,0.00709988,10,-0.00376354,-1.1765,0.384058,0.153623,0.109789,
2,0,0,1,0,2448.84,0.0472479,0.0469296,-60.6934,2,0.00608182,10,-0.00284831,-1.21686,0.337306,0.174915,0.0954843,
2,0,0,1,0,2448.86,0.0376456,0.037353,-54.9273,2,0.00515795,10,-0.0020517,-1.26021,0.320762,0.183937,0.0812949,
2,0,0,1,0,2448.87,0.0280406,0.0277426,-49.5341,2,0.00432324,10,-0.0013742,-1.3051,0.299746,0.196834,0.0673698,
2,0,0,1,0,2448.89,0.018441,0.0181268,-44.4746,2,0.00357208,10,-0.000806183,-1.35189,0.286284,0.206089,0.0537065,
2,0,0,1,0,2448.91,0.00884431,0.0085418,-40.0248,2,0.00289774,10,-0.000341883,-1.39767,0.298292,0.197793,0.0405616,
2,0,0,1,0,2448.92,-0.000755207,-0.00112487,-36.8587,2,0.00228525,10,4.14613e-05,-1.43346,0.405508,0.145496,0.0283621,
2,0,0,1,0,2448.94,-0.010352,-0.0106611,-35.0048,2,0.00171243,10,0.00037319,-1.45587,0.711011,0.0829804,0.0173427,
2,0,0,1,0,2448.95,-0.0199515,-0.0202801,-34.316,2,0.00115901,10,0.000695931,-1.4645,3.18612,0.0185178,0.00717274,
2,0,0,1,0,2448.97,-0.0295593,-0.0298789,-34.4134,2,0.000609815,10,0.00102823,-1.46327,-2.2809,-0.025867,-0.00234816,
2,0,0,1,0,2448.99,-0.0391588,-0.0394756,-34.9735,2,5.52027e-05,10,0.0013806,-1.45626,-1.06298,-0.0555042,-0.0114968,
2,0,0,1,0,2449,-0.0487556,-0.0491009,-35.7744,2,-0.000510334,10,0.00175655,-1.44643,-0.82366,-0.0716315,-0.0204814,
2,0,0,1,0,2449.02,-0.0583551,-0.0586954,-36.7222,2,-0.00109012,10,0.00215543,-1.43507,-0.716131,-0.0823871,-0.0293176,
2,0,0,1,0,2449.03,-0.0679546,-0.0682762,-37.741,2,-0.00168597,10,0.00257681,-1.42319,-0.714518,-0.0825732,-0.0380834,
2,0,0,1,0,2449.05,-0.0775514,-0.0778697,-38.8565,2,-0.00229907,10,0.00302574,-1.41054,-0.676759,-0.0871802,-0.0467845,
2,0,0,1,0,2449.07,-0.0871592,-0.0874579,-40.0783,2,-0.0029305,10,0.00350516,-1.39709,-0.653368,-0.0903014,-0.0553953,
2,0,0,1,0,2449.08,-0.0967587,-0.0971108,-41.3676,2,-0.00358182,10,0.00401724,-1.38334,-0.600553,-0.0982429,-0.0640167,
2,0,0,1,1,2449.09,-0.0979573,-0.0984681,-34.1635,2,-0.00394229,10,0.00336401,-1.46644,0.0334713,1.7627,-0.0711373,
2,0,0,1,1,2449.11,-0.0883577,-0.0888014,-7.96403,2,-0.00425902,10,0.000707218,-2.09887,0.00541705,10.8915,-0.0824302,
2,1,0,1,1,2449.12,-0.0787554,-0.0792323,8.36732,2,-0.00424468,10,-0.000662962,-2.07741,-0.000845492,-69.7819,-0.0859262,
2,1,0,1,1,2449.14,-0.0691532,-0.0696356,18.9868,2,-0.00401946,10,-0.00132215,-1.72155,0.0130099,4.535,-0.084825,
2,1,0,1,1,2449.16,-0.0595536,-0.0599446,26.0063,2,-0.00365478,10,-0.00155894,-1.58492,0.05575,1.0583,-0.0807496,
2,1,0,1,1,2449.17,-0.0499541,-0.0503755,30.3326,2,-0.00320103,10,-0.00152802,-1.51809,0.139109,0.424128,-0.0746415,
2,1,0,1,1,2449.19,-0.0403574,-0.0407226,32.9618,2,-0.00269258,10,-0.00134229,-1.48199,0.303204,0.194589,-0.067092,
2,1,0,1,1,2449.2,-0.0307579,-0.031127,34.3902,2,-0.00215233,10,-0.00107046,-1.46357,0.721389,0.0817867,-0.0586391,
2,1,0,1,1,2449.22,-0.0211611,-0.0215345,35.0097,2,-0.0015961,10,-0.000753917,-1.45581,2.24683,0.0262592,-0.0495423,
2,1,0,1,1,2449.24,-0.0115505,-0.0118922,35.098,2,-0.00103463,10,-0.000417394,-1.45472,-5.16586,-0.0114211,-0.0399706,
2,1,0,1,1,2449.25,-0.00195376,-0.00228708,34.8034,2,-0.000475253,10,-7.9598e-05,-1.45838, , ,-0.0301298,
2,1,0,1,1,2449.25,-7.54729e-05,-0.000325324,34.6171,2,-0.000367539,10,-1.12618e-05,-1.46071, , ,-0.028019,