File: Figure_codes/Fig_S3_S4/20221101_1-115_003_TrumpetPlot_ParaChange_from10_every3_11_CV_C01_16.csv
mode,ox/red,error,control changes,counter inc.,time/s,control/V,Ewe/V,<I>/mA,cycle number,(Q-Qo)/C,I Range,P/W,log(|I|),Tafel slope mV/dec,alpha_eff,dI/d(E-IR),E-IR/V,
2,1,0,1,0,32716.6,2.44065e-05,-0.000401673,10.051,17,0.0000000E+000,10,-4.03723e-06,-1.99779, , , ,-0.000401673,
2,1,0,1,0,32716.6,0.0101427,0.00972945,13.9071,17,0.000310727,10,0.000135308,-1.85676,0.129228,0.456556,246.313,0.00972945,
2,1,0,1,0,32716.7,0.0205441,0.0202126,15.9508,17,0.000700886,10,0.000322408,-1.79722,0.228387,0.258334,160.571,0.0202126,
2,1,0,1,0,32716.7,0.0309482,0.0306301,17.4347,17,0.00113595,10,0.000534025,-1.75859,0.312237,0.188959,128.445,0.0306301,
2,1,0,1,0,32716.7,0.0413439,0.0409637,18.6688,17,0.00160563,10,0.000764745,-1.72888,0.38743,0.152285,110.834,0.0409637,
2,1,0,1,0,32716.7,0.0517425,0.0513822,19.7961,17,0.00210583,10,0.00101717,-1.70342,0.428893,0.137563,106.322,0.0513822,
2,1,0,1,0,32716.8,0.0621438,0.0617837,20.9348,17,0.00263552,10,0.00129343,-1.67913,0.436142,0.135277,110.555,0.0617837,
2,1,0,1,0,32716.8,0.0725479,0.0722128,22.1272,17,0.00319524,10,0.00159787,-1.65507,0.431717,0.136664,117.954,0.0722128,
2,1,0,1,0,32716.8,0.0829437,0.0825773,23.3286,17,0.00378626,10,0.00192641,-1.63211,0.473768,0.124533,113.342,0.0825773,
2,1,0,1,0,32716.8,0.0933422,0.0929883,24.526,17,0.00440825,10,0.00228063,-1.61037,0.468913,0.125823,120.457,0.0929883,
2,1,0,1,0,32716.9,0.103749,0.103439,25.7399,17,0.00506193,10,0.0026625,-1.58939,0.508915,0.115933,116.454,0.103439,
2,1,0,1,0,32716.9,0.114148,0.113808,26.9655,17,0.00574685,10,0.00306889,-1.56919,0.491707,0.11999,126.222,0.113808,
2,1,0,1,0,32716.9,0.124543,0.124178,28.357,17,0.00646563,10,0.00352132,-1.54734,0.452369,0.130425,144.361,0.124178,
2,1,0,1,0,32716.9,0.134942,0.134607,29.9432,17,0.00722354,10,0.00403057,-1.5237,0.435056,0.135615,158.594,0.134607,
2,1,0,1,0,32717,0.145349,0.144964,31.6101,17,0.0080241,10,0.00458233,-1.50017,0.478679,0.123256,151.901,0.144964,
2,1,0,1,0,32717,0.155747,0.155399,33.0459,17,0.00886516,10,0.00513528,-1.48088,0.615025,0.095931,123.602,0.155399,
2,1,0,1,0,32717,0.166143,0.165774,34.0547,17,0.00973894,10,0.00564537,-1.46782,1.22704,0.0480832,63.858,0.165774,
2,1,0,1,0,32717,0.176542,0.176242,34.2031,17,0.010629,10,0.00602803,-1.46593,-1.69209,-0.0348682,-46.4508,0.176242,
2,1,0,1,0,32717.1,0.186949,0.186624,32.9955,17,0.0115055,10,0.00615777,-1.48154,-0.406378,-0.145185,-186.506,0.186624,
2,1,0,1,0,32717.1,0.197347,0.196993,30.4268,17,0.0123321,10,0.00599386,-1.51674,-0.239445,-0.246403,-292.214,0.196993,
2,1,0,1,0,32717.1,0.207743,0.207425,27.1635,17,0.0130809,10,0.00563439,-1.56601,-0.196496,-0.30026,-318.119,0.207425,
2,1,0,1,0,32717.2,0.218141,0.217817,24.0076,17,0.0137448,10,0.00522927,-1.61965,-0.198515,-0.297207,-278.716,0.217817,
2,1,0,1,0,32717.2,0.228548,0.22824,21.4714,17,0.0143342,10,0.00490064,-1.66814,-0.233816,-0.252335,-211.573,0.22824,
2,1,0,1,0,32717.2,0.238947,0.23866,19.5609,17,0.0148661,10,0.00466841,-1.70861,-0.291935,-0.2021,-154.426,0.23866,
2,1,0,1,0,32717.2,0.249343,0.249042,18.1692,17,0.0153556,10,0.0045249,-1.74066,-0.360744,-0.163551,-116.11,0.249042,
2,1,0,1,0,32717.3,0.259741,0.25943,17.139,17,0.015814,10,0.00444637,-1.76601,-0.455301,-0.129585,-86.7319,0.25943,
2,1,0,1,0,32717.3,0.270148,0.269845,16.3555,17,0.016249,10,0.00441346,-1.78634,-0.560427,-0.105277,-67.2517,0.269845,
2,1,0,1,0,32717.3,0.280547,0.280227,15.7409,17,0.0166659,10,0.00441104,-1.80297,-0.668156,-0.0883027,-54.2508,0.280227,
2,1,0,1,0,32717.3,0.290942,0.290608,15.2345,17,0.0170684,10,0.00442725,-1.81717,-0.769617,-0.0766615,-45.5818,0.290608,
2,1,0,0,0,32717.4,0.300012,0.299746,14.8588,17,0.0174098,10,0.00445387,-1.82802,0.00123745,47.6788,23776.3,0.299746,
2,1,0,1,0,32717.4,0.290704,0.290385,3.80142,17,0.0175996,10,0.00110388,-2.42005,0.0118515,4.97829,704.543,0.290385,
2,0,0,1,0,32717.4,0.280305,0.27999,-1.34842,17,0.0176236,10,-0.000377544,-2.87018,-0.00481348,-12.2573,356.421,0.27999,
2,0,0,1,0,32717.4,0.269909,0.269588,-4.17494,17,0.0175482,10,-0.00112552,-2.37935,-0.0445835,-1.32336,211.826,0.269588,
2,0,0,1,0,32717.5,0.2595,0.259192,-5.97149,17,0.0174145,10,-0.00154776,-2.22392,-0.0961462,-0.613648,142.031,0.2591922,
2,0,0,1,0,32717.5,0.249104,0.248783,-7.21758,17,0.0172421,10,-0.00179561,-2.14161,-0.164988,-0.357602,100.322,0.248783,
2,0,0,1,0,32717.5,0.238705,0.238406,-8.13276,17,0.0170421,10,-0.0019389,-2.08976,-0.233445,-0.252736,80.2159,0.238406,
2,0,0,1,0,32717.5,0.22831,0.228008,-8.88314,17,0.0168203,10,-0.00202542,-2.05143,-0.304192,-0.193957,67.2728,0.228008,
2,0,0,1,0,32717.6,0.2179,0.217536,-9.54136,17,0.0165806,10,-0.00207559,-2.02039,-0.372421,-0.158423,58.8319,0.217536,
2,0,0,1,0,32717.6,0.207504,0.2072,-10.1016,17,0.0163251,10,-0.00209305,-1.99561,-0.445209,-0.132522,52.2991,0.2072,
2,0,0,1,0,32717.6,0.197106,0.196797,-10.6391,17,0.0160551,10,-0.00209375,-1.97309,-0.454537,-0.129802,54.0038,0.196797,
2,0,0,1,0,32717.6,0.18671,0.186362,-11.1967,17,0.015771,10,-0.00208665,-1.95091,-0.480183,-0.12287,53.6539,0.186362,
2,0,0,1,0,32717.7,0.1763,0.175984,-11.7835,17,0.0154724,10,-0.00207372,-1.92872,-0.462872,-0.127465,58.6116,0.175984,
2,0,0,1,0,32717.7,0.165905,0.165526,-12.4637,17,0.0151575,10,-0.00206307,-1.90435,-0.401322,-0.147014,71.5805,0.165526,
2,0,0,1,0,32717.7,0.155506,0.155215,-13.3639,17,0.0148224,10,-0.00207428,-1.87407,-0.300746,-0.196179,102.376,0.155215,
2,0,0,1,0,32717.7,0.145105,0.144825,-14.6485,17,0.0144593,10,-0.00212148,-1.83421,-0.218737,-0.26973,154.452,0.144825,
2,0,0,1,0,32717.8,0.134701,0.134372,-16.6122,17,0.0140545,10,-0.00223221,-1.77957,-0.16768,-0.35186,228.472,0.134372,
2,0,0,1,0,32717.8,0.124305,0.12396,-19.3602,17,0.0135881,10,-0.00239988,-1.71309,-0.153898,-0.383371,289.672,0.12396,
2,0,0,1,0,32717.8,0.113906,0.113594,-22.4781,17,0.013044,10,-0.00255338,-1.64824,-0.177908,-0.331632,290.366,0.113594,
2,0,0,1,0,32717.8,0.103505,0.10324,-25.4663,17,0.0124203,10,-0.00262914,-1.59403,-0.21463,-0.274892,272.783,0.10324,
2,0,0,1,0,32717.9,0.0931008,0.09279,-28.0141,17,0.0117236,10,-0.00259943,-1.55262,-0.292962,-0.201392,219.963,0.09279,
2,0,0,1,0,32717.9,0.0827051,0.0824108,-29.9676,17,0.0109682,10,-0.00246966,-1.52335,-0.44271,-0.13327,155.642,0.0824108,
2,0,0,1,0,32717.9,0.0723065,0.0720082,-31.1922,17,0.0101712,10,-0.00224609,-1.50595,-0.929726,-0.0634595,77.1643,0.0720082,
2,0,0,1,0,32718,0.0618997,0.061578,-31.6645,17,0.00935251,10,-0.00194984,-1.49943,-5.01716,-0.0117596,14.5248,0.061578,
2,0,0,1,0,32718,0.0515011,0.051186,-31.6169,17,0.00852913,10,-0.00161835,-1.50008,3.42096,0.0172466,-21.2624,0.05118604,
2,0,0,1,0,32718,0.0411053,0.0407824,-31.2791,17,0.0077113,10,-0.00127564,-1.50475,1.7773,0.0331964,-40.5185,0.0407824,
2,0,0,1,0,32718,0.0307068,0.0304159,-30.8134,17,0.00690379,10,-0.000937216,-1.51126,1.50144,0.0392956,-47.2822,0.0304159,
2,0,0,1,0,32718.1,0.0202999,0.0199687,-30.2855,17,0.00610931,10,-0.000604763,-1.51877,1.24296,0.0474673,-56.0675,0.0199687,
2,0,0,1,0,32718.1,0.00990136,0.00954918,-29.5823,17,0.0053309,10,-0.000282486,-1.52897,0.862977,0.068368,-78.8529,0.009549181,
2,0,0,1,0,32718.1,-0.000494411,-0.000853406,-28.6898,17,0.00457321,10,2.44841e-05,-1.54227,0.699383,0.0843601,-94.3584,-0.000853406,
2,0,0,1,0,32718.1,-0.010893,-0.0112878,-27.5852,17,0.00384154,10,0.000311376,-1.55932,0.58998,0.100003,-107.666,-0.01128781,
2,0,0,1,0,32718.2,-0.0212998,-0.0217212,-26.5109,17,0.00313865,10,0.000575847,-1.57658,0.628467,0.0938792,-97.1295,-0.0217212,
2,0,0,1,0,32718.2,-0.0316984,-0.0320442,-25.6196,17,0.00246172,10,0.00082096,-1.59143,0.810647,0.0727814,-72.7735,-0.0320442,
2,0,0,1,0,32718.2,-0.0420942,-0.042486,-24.9992,17,0.00180436,10,0.00106212,-1.60207,1.21987,0.0483659,-47.2314,-0.042486,
2,0,0,1,0,32718.2,-0.0524927,-0.0528335,-24.6788,17,0.00115903,10,0.00130387,-1.60768,3.25132,0.0181465,-17.4924,-0.0528335,
2,0,0,1,0,32718.3,-0.0628996,-0.0632403,-24.6214,17,0.00051883,10,0.00155706,-1.60869,-16.4824,-0.00357957,3.43748,-0.0632403,
2,0,0,1,0,32718.3,-0.0732982,-0.07368,-24.7276,17,-0.000122143,10,0.00182193,-1.60682,-2.7524,-0.0214359,20.6975,-0.07368,
2,0,0,1,0,32718.3,-0.0836939,-0.0840773,-25.0384,17,-0.000768753,10,0.00210516,-1.60139,-1.47097,-0.0401097,39.2017,-0.0840773,
2,0,0,1,0,32718.3,-0.0940925,-0.0944608,-25.4901,17,-0.00142534,10,0.00240781,-1.59363,-1.13035,-0.0521961,51.9219,-0.09446083,
2,0,0,1,1,32718.4,-0.0978574,-0.0982751,-20.9719,17,-0.00193448,10,0.00206101,-1.67836,-0.0281418,-2.09652,1689.65,-0.0982751,
2,0,0,1,1,32718.4,-0.0874588,-0.087846,-8.79476,17,-0.00230269,10,0.000772585,-2.05578,-0.0229028,-2.5761,874.147,-0.087846,
2,0,0,1,1,32718.4,-0.0770519,-0.0774721,-1.37132,17,-0.00242817,10,0.000106239,-2.86286,-0.00722518,-8.16588,594.908,-0.0774721,
2,1,0,1,1,32718.4,-0.0666562,-0.0670896,3.93633,17,-0.00239073,10,-0.000264087,-2.40491,0.0194042,3.04058,440.345,-0.06708961,
2,1,0,1,1,32718.5,-0.0562576,-0.0567475,7.95761,17,-0.00223336,10,-0.000451574,-2.09922,0.05377,1.09727,336.992,-0.0567475,
2,1,0,1,1,32718.5,-0.0458563,-0.0463141,11.04,17,-0.0019844,10,-0.000511309,-1.95703,0.0985941,0.598413,256.294,-0.0463141,
2,1,0,1,1,32718.5,-0.0354522,-0.0358288,13.3723,17,-0.00166545,10,-0.000479112,-1.8738,0.158206,0.372932,193.967,-0.0358288,
2,1,0,1,1,32718.5,-0.0250564,-0.0254623,15.1189,17,-0.00129368,10,-0.000384961,-1.82048,0.238655,0.247219,145.828,-0.0254623,
2,1,0,1,1,32718.6,-0.0146579,-0.015065,16.4404,17,-0.000882256,10,-0.000247675,-1.78409,0.351304,0.167946,107.621,-0.01506498,
2,1,0,1,1,32718.6,-0.00425653,-0.00465178,17.3949,17,-0.000441618,10,-8.09175e-05,-1.75958,0.522886,0.112835,76.545,-0.004651784,
2,1,0,0,1,32718.6,-7.54729e-05,-0.000478022,17.6866,17,-0.000257292,10,-8.45459e-06,-1.75236, , , ,-0.000478022,