File: Figure_codes/Fig_S3_S4/20221101_1-115_002_TrumpetPlot_ParaChange_16_CV_C01_1.csv
mode,ox/red,error,control changes,counter inc.,time/s,control/V,Ewe/V,<I>/mA,cycle number,(Q-Qo)/C,I Range,P/W,log(|I|),Tafel slope mV/dec,alpha_eff,E-IR/V,
2,1,0,1,0,2450.71,2.44065e-05,-0.00168052,58.7768,2,0.0000000E+000,10,-9.87758e-05,-1.23079, , ,-0.048702,
2,1,0,1,0,2450.72,0.011111,0.0107888,56.6564,2,0.000637924,10,0.000611255,-1.24675,-2.1452,-0.0275032,-0.0345364,
2,1,0,1,0,2450.73,0.0231465,0.0227915,57.0259,2,0.00131871,10,0.00129971,-1.24393,3.04366,0.0193845,-0.0228292,
2,1,0,1,0,2450.74,0.035132,0.0348112,57.3551,2,0.00200522,10,0.0019966,-1.24143,6.92147,0.0085242,-0.0110728,
2,1,0,1,0,2450.75,0.0471175,0.0467238,57.3857,2,0.00269406,10,0.00268128,-1.2412,23.8135,0.00247759,0.000815266,
2,1,0,1,0,2450.77,0.059103,0.0587839,57.5873,2,0.0033834,10,0.0033852,-1.23967,4.23289,0.0139385,0.012714,
2,1,0,1,0,2450.78,0.0711385,0.0708534,57.9814,2,0.00407706,10,0.00410818,-1.23671,3.23657,0.0182292,0.0244683,
2,1,0,1,0,2450.79,0.083124,0.0828148,58.7553,2,0.00477682,10,0.00486581,-1.23095,1.32965,0.0443726,0.0358105,
2,1,0,1,0,2450.8,0.0951095,0.0947857,60.2705,2,0.0054903,10,0.00571278,-1.2199,0.729632,0.0808627,0.0465693,
2,1,0,1,0,2450.81,0.107145,0.106856,62.8331,2,0.006228,10,0.00671411,-1.20181,0.470192,0.125481,0.0565898,
2,1,0,1,0,2450.83,0.119131,0.118765,66.1827,2,0.00700143,10,0.00786017,-1.17926,0.358802,0.164436,0.0658185,
2,1,0,1,0,2450.84,0.131116,0.130808,70.4235,2,0.00782078,10,0.00921194,-1.15228,0.289896,0.203521,0.0744689,
2,1,0,1,0,2450.85,0.143102,0.142774,75.4734,2,0.0086958,10,0.0107757,-1.12221,0.239573,0.246271,0.0823957,
2,1,0,1,0,2450.86,0.155137,0.154814,81.4068,2,0.00963735,10,0.0126029,-1.08934,0.206747,0.285373,0.0896888,
2,1,0,1,0,2450.87,0.167123,0.166762,88.2028,2,0.0106548,10,0.0147089,-1.05452,0.175123,0.336905,0.0961996,
2,1,0,1,0,2450.89,0.179108,0.178802,95.8186,2,0.0117591,10,0.0171325,-1.01855,0.156876,0.376092,0.102147,
2,1,0,1,0,2450.9,0.191143,0.190815,103.964,2,0.0129586,10,0.0198379,-0.983117,0.16991,0.347243,0.107644,
2,1,0,1,0,2450.91,0.203129,0.202788,111.512,2,0.0142531,10,0.0226133,-0.952678,0.247907,0.237992,0.113578,
2,1,0,1,0,2450.92,0.215115,0.214811,117.177,2,0.0156286,10,0.0251709,-0.931158,0.619009,0.0953136,0.121069,
2,1,0,1,0,2450.93,0.227108,0.226789,118.789,2,0.0170497,10,0.0269401,-0.925223,-2.47594,-0.0238294,0.131758,
2,1,0,1,0,2450.95,0.239136,0.23888,113.814,2,0.0184528,10,0.0271879,-0.943804,-0.555714,-0.10617,0.147829,
2,1,0,1,0,2450.96,0.251121,0.250984,101.23,2,0.0197488,10,0.0254071,-0.994691,-0.360596,-0.163618,0.17,
2,1,0,1,0,2450.97,0.263107,0.262973,83.3419,2,0.0208575,10,0.0219166,-1.07914,-0.275134,-0.214441,0.196299,
2,1,0,1,0,2450.98,0.275142,0.274981,64.7762,2,0.0217429,10,0.0178122,-1.18858,-0.224146,-0.263221,0.22316,
2,1,0,1,0,2450.99,0.287128,0.286952,49.6395,2,0.022423,10,0.0142441,-1.30417,-0.203763,-0.289553,0.24724,
2,1,0,1,0,2451.01,0.298913,0.298748,40.0192,2,0.022946,10,0.0119557,-1.39773,-0.134458,-0.438798,0.266733,
2,1,0,1,0,2451.01,0.294718,0.294796,18.9764,2,0.0231389,10,0.00559418,-1.72179,-0.0120674,-4.88922,0.279615,
2,0,0,1,0,2451.02,0.282733,0.282561,-7.57019,2,0.0231837,10,-0.00213904,-2.12089,0.00900879,6.54916,0.288618,
2,0,0,1,0,2451.04,0.270747,0.270551,-19.1161,2,0.0230133,10,-0.00517189,-1.7186,-0.0285306,-2.06795,0.285844,
2,0,0,1,0,2451.05,0.258712,0.258508,-24.3582,2,0.0227474,10,-0.0062968,-1.61335,-0.137963,-0.427649,0.277995,
2,0,0,1,0,2451.06,0.246726,0.246507,-26.8868,2,0.0224382,10,-0.00662778,-1.57046,-0.330035,-0.178769,0.268016,
2,0,0,1,0,2451.07,0.234741,0.23451,-28.4186,2,0.0221055,10,-0.00666445,-1.5464,-0.496117,-0.118923,0.257245,
2,0,0,1,0,2451.08,0.222705,0.222494,-29.8073,2,0.0217559,10,-0.00663195,-1.52568,-0.551774,-0.106928,0.24634,
2,0,0,1,0,2451.1,0.21072,0.210531,-31.1729,2,0.0213902,10,-0.00656288,-1.50622,-0.492394,-0.119823,0.23547,
2,0,0,1,0,2451.11,0.198734,0.198483,-32.9957,2,0.0210054,10,-0.00654908,-1.48154,-0.377675,-0.156219,0.224879,
2,0,0,1,0,2451.12,0.186735,0.186501,-35.4823,2,0.0205954,10,-0.00661749,-1.44999,-0.265429,-0.222282,0.214887,
2,0,0,1,0,2451.13,0.174713,0.174498,-38.9312,2,0.0201493,10,-0.0067934,-1.4097,-0.196546,-0.300184,0.205642,
2,0,0,1,0,2451.14,0.162728,0.162518,-43.6338,2,0.0196548,10,-0.00709129,-1.36018,-0.141225,-0.417773,0.197425,
2,0,0,1,0,2451.16,0.150742,0.150527,-49.871,2,0.0190948,10,-0.00750693,-1.30215,-0.100953,-0.584433,0.190424,
2,0,0,1,0,2451.17,0.138707,0.138556,-57.8194,2,0.0184492,10,-0.00801123,-1.23793,-0.0778944,-0.757435,0.184812,
2,0,0,1,0,2451.18,0.126721,0.126559,-67.1715,2,0.0176995,10,-0.00850113,-1.17282,-0.0661026,-0.892552,0.180296,
2,0,0,1,0,2451.19,0.114736,0.114675,-77.0324,2,0.0168329,10,-0.00883367,-1.11333,-0.0676303,-0.872389,0.176301,
2,0,0,1,0,2451.2,0.102703,0.102612,-87.358,2,0.0158453,10,-0.00896394,-1.0587,-0.0832357,-0.70883,0.172498,
2,0,0,1,0,2451.22,0.0907148,0.0906014,-96.8297,2,0.0147388,10,-0.0087729,-1.01399,-0.124335,-0.474524,0.168065,
2,0,0,1,0,2451.23,0.0787293,0.0785244,-104.823,2,0.0135258,10,-0.00823116,-0.979543,-0.233449,-0.252732,0.162383,
2,0,0,1,0,2451.24,0.0667438,0.066545,-110.222,2,0.0122321,10,-0.0073347,-0.957733,-0.586796,-0.100546,0.154722,
2,0,0,1,0,2451.25,0.0547083,0.0544765,-112.319,2,0.0108927,10,-0.00611873,-0.949548,-19.4557,-0.00303253,0.144331,
2,0,0,1,0,2451.26,0.0427228,0.042478,-110.553,2,0.00955205,10,-0.00469606,-0.95643,1.09758,0.0537545,0.13092,
2,0,0,1,0,2451.28,0.0307373,0.030454,-105.754,2,0.00825229,10,-0.00322064,-0.975702,0.697508,0.0845868,0.115057,
2,0,0,1,0,2451.29,0.0187018,0.0184184,-99.3797,2,0.00702134,10,-0.00183042,-1.0027,0.581064,0.101538,0.0979222,
2,0,0,1,0,2451.3,0.00671632,0.00643159,-92.1335,2,0.00587261,10,-0.000592565,-1.03558,0.513468,0.114905,0.0801384,
2,0,0,1,0,2451.31,-0.0052692,-0.00562418,-84.6004,2,0.00481263,10,0.000475808,-1.07263,0.465573,0.126725,0.0620561,
2,0,0,1,0,2451.32,-0.0172547,-0.0175834,-77.1924,2,0.00384318,10,0.00135731,-1.11243,0.452897,0.130273,0.0441704,
2,0,0,1,0,2451.34,-0.0292902,-0.0296254,-70.9597,2,0.00295626,10,0.00210221,-1.14899,0.497265,0.118649,0.0271423,
2,0,0,1,0,2451.35,-0.0412757,-0.04159,-66.6021,2,0.00213329,10,0.00276998,-1.17651,0.668292,0.0882848,0.0116917,
2,0,0,1,0,2451.36,-0.0532612,-0.0535938,-64.1427,2,0.00135077,10,0.00343765,-1.19285,1.16841,0.0504959,-0.00227966,
2,0,0,1,0,2451.37,-0.0652967,-0.0655446,-63.2171,2,0.000588064,10,0.00414354,-1.19917,4.24295,0.0139054,-0.0149709,
2,0,0,1,0,2451.38,-0.0772822,-0.0776205,-63.1918,2,-0.000169553,10,0.00490498,-1.19934,-5.52949,-0.0106701,-0.0270671,
2,0,0,1,0,2451.4,-0.0892678,-0.0895861,-63.7965,2,-0.000930959,10,0.00571529,-1.1952,-1.9193,-0.0307403,-0.0385489,
2,0,0,1,0,2451.41,-0.101253,-0.101538,-64.8818,2,-0.0017028,10,0.00658796,-1.18788,-1.27966,-0.0461059,-0.0496326,
2,0,0,1,0,2451.42,-0.113289,-0.113532,-66.3385,2,-0.00249027,10,0.00753156,-1.17823,-1.11009,-0.0531489,-0.0604614,
2,0,0,1,0,2451.43,-0.125274,-0.125528,-67.9297,2,-0.00329588,10,0.00852705,-1.16794,-0.965377,-0.061116,-0.0711838,
2,0,0,1,0,2451.44,-0.13726,-0.137555,-69.7629,2,-0.00412204,10,0.00959622,-1.15638,-0.84487,-0.0698332,-0.0817444,
2,0,0,1,0,2451.46,-0.149295,-0.14958,-71.8477,2,-0.00497172,10,0.010747,-1.14359,-0.80007,-0.0737435,-0.0921016,
2,0,0,1,0,2451.47,-0.161281,-0.161587,-73.9999,2,-0.00584694,10,0.0119574,-1.13077,-0.787391,-0.074931,-0.102387,
2,0,0,1,0,2451.48,-0.173266,-0.173499,-76.3186,2,-0.00674881,10,0.0132412,-1.11737,-0.725168,-0.0813605,-0.112444,
2,0,0,1,0,2451.49,-0.185252,-0.18549,-78.8918,2,-0.00768003,10,0.0146337,-1.10297,-0.635608,-0.0928245,-0.122377,
2,0,0,1,0,2451.5,-0.197287,-0.197567,-81.9213,2,-0.00864521,10,0.016185,-1.0866,-0.689692,-0.0855454,-0.13203,
2,0,0,1,1,2451.51,-0.196688,-0.197221,-70.5568,2,-0.00914996,10,0.0139153,-1.15146,0.0714162,0.826143,-0.140775,
2,0,0,1,1,2451.52,-0.184653,-0.185124,-37.0257,2,-0.00978107,10,0.00685432,-1.4315,0.0309387,1.907,-0.155503,
2,0,0,1,1,2451.53,-0.172667,-0.173102,-12.3549,2,-0.0100683,10,0.00213866,-1.90816,0.00467814,12.6119,-0.163218,
2,1,0,1,1,2451.55,-0.160682,-0.16118,6.64657,2,-0.010096,10,-0.00107129,-2.1774,-0.00430419,-13.7076,-0.166497,
2,1,0,1,1,2451.56,-0.148696,-0.149216,21.7191,2,-0.00992089,10,-0.00324083,-1.66316,0.00388133,15.201,-0.166591,
2,1,0,1,1,2451.57,-0.136661,-0.137071,33.988,2,-0.00958259,10,-0.00465877,-1.46867,0.0244136,2.41669,-0.164262,
2,1,0,1,1,2451.58,-0.124675,-0.125059,43.3663,2,-0.00911519,10,-0.00542334,-1.36285,0.0641824,0.919255,-0.159752,
2,1,0,1,1,2451.59,-0.112689,-0.113007,50.6441,2,-0.0085486,10,-0.00572316,-1.29547,0.125659,0.469525,-0.153523,
2,1,0,1,1,2451.61,-0.100654,-0.101017,56.1855,2,-0.00790582,10,-0.00567571,-1.25038,0.220382,0.267717,-0.145966,
2,1,0,1,1,2451.62,-0.0886685,-0.0890146,60.2168,2,-0.00720558,10,-0.00536017,-1.22028,0.375458,0.157141,-0.137188,
2,1,0,1,1,2451.63,-0.076683,-0.0770267,63.0958,2,-0.00646444,10,-0.00486006,-1.2,0.600867,0.0981915,-0.127503,
2,1,0,1,1,2451.64,-0.0646974,-0.0650144,65.0955,2,-0.0056942,10,-0.00423214,-1.18645,0.934046,0.0631661,-0.117091,
2,1,0,1,1,2451.65,-0.052662,-0.0530032,66.5342,2,-0.0049034,10,-0.00352653,-1.17695,1.65002,0.0357572,-0.106231,
2,1,0,1,1,2451.67,-0.0406764,-0.0410503,67.3076,2,-0.00409989,10,-0.002763,-1.17194,3.16679,0.0186309,-0.0948964,
2,1,0,1,1,2451.68,-0.0286909,-0.0290358,67.6734,2,-0.00328958,10,-0.00196495,-1.16958,9.6534,0.00611184,-0.0831746,
2,1,0,1,1,2451.69,-0.0166554,-0.0169758,67.7413,2,-0.00247702,10,-0.00114996,-1.16915,-15.4078,-0.00382924,-0.0711689,
2,1,0,1,1,2451.7,-0.00466992,-0.00501338,67.3373,2,-0.00166622,10,-0.000337588,-1.17174, , ,-0.0588832,
2,1,0,1,1,2451.71,-0.000175352,-0.000535284,67.0986,2,-0.00136369,10,-3.59168e-05,-1.17329, , ,-0.0542142,