File: Figure_codes/Fig_S3_S4/20221101_1-115_002_TrumpetPlot_ParaChange_06_CV_C01_1.csv
mode,ox/red,error,control changes,counter inc.,time/s,control/V,Ewe/V,<I>/mA,cycle number,(Q-Qo)/C,I Range,P/W,log(|I|),Tafel slope mV/dec,alpha_eff,E-IR/V,
2,0,0,1,0,2310.62,2.44065e-05,-0.000325324,-0.4174,2,0.0000000E+000,11,1.3579e-07,-3.37945, , ,8.59679e-06,
2,1,0,1,0,2311.29,0.00679123,0.00650475,0.406488,2,0.000240787,11,2.6441e-06,-3.39095,0.109386,0.539374,0.00617956,
2,1,0,1,0,2311.99,0.0137828,0.0135087,0.448627,2,0.000550632,11,6.06039e-06,-3.34811,0.192569,0.306384,0.0131498,
2,1,0,1,0,2312.69,0.0207743,0.0205095,0.472359,2,0.000882449,11,9.68786e-06,-3.32573,0.357259,0.165146,0.0201317,
2,1,0,1,0,2313.39,0.0277659,0.0274393,0.490918,2,0.00122836,11,1.34705e-05,-3.30899,0.426062,0.138477,0.0270466,
2,1,0,1,0,2314.09,0.0347577,0.0344426,0.509627,2,0.00158654,11,1.75529e-05,-3.29275,0.392594,0.150282,0.0340349,
2,1,0,1,0,2314.79,0.041749,0.0415003,0.529453,2,0.00195796,11,2.19724e-05,-3.27617,0.575014,0.102606,0.0410767,
2,1,0,1,0,2315.49,0.0487405,0.048464,0.554642,2,0.00234492,11,2.68802e-05,-3.25599,0.335128,0.176052,0.0480203,
2,1,0,1,0,2316.19,0.0557321,0.0554828,0.58551,2,0.00275279,11,3.24857e-05,-3.23247,0.275485,0.214168,0.0550144,
2,1,0,1,0,2316.89,0.062723,0.062419,0.630076,2,0.00318805,11,3.93287e-05,-3.20061,0.202513,0.29134,0.0619149,
2,1,0,1,0,2317.58,0.0697152,0.0694123,0.683002,2,0.00365829,11,4.74087e-05,-3.16558,0.184177,0.320343,0.0688659,
2,1,0,1,0,2318.28,0.0767068,0.0764248,0.747999,2,0.00416913,11,5.71657e-05,-3.1261,0.194243,0.303743,0.0758264,
2,1,0,1,0,2318.98,0.0836983,0.0834351,0.810462,2,0.00472386,11,6.7621e-05,-3.09127,0.214616,0.274909,0.0827867,
2,1,0,1,0,2319.68,0.0906899,0.0904296,0.867686,2,0.00532086,11,7.84645e-05,-3.06164,0.180102,0.327592,0.0897354,
2,1,0,1,0,2320.38,0.0976816,0.0973945,0.933811,2,0.00596004,11,9.09481e-05,-3.02974,0.192388,0.306673,0.0966475,
2,1,0,1,0,2321.08,0.104673,0.104394,1.00904,2,0.00664546,11,0.000105338,-2.99609,0.179476,0.328735,0.103587,
2,1,0,1,0,2321.78,0.111665,0.111392,1.11517,2,0.00739358,11,0.00012422,-2.95266,0.137369,0.429499,0.1105,
2,1,0,1,0,2322.48,0.118656,0.118339,1.27577,2,0.00823558,11,0.000150973,-2.89423,0.113222,0.521101,0.117319,
2,1,0,1,0,2323.18,0.125647,0.125371,1.49002,2,0.00921021,11,0.000186806,-2.82681,0.103719,0.568844,0.124179,
2,1,0,1,0,2323.88,0.132639,0.132356,1.71258,2,0.0103407,11,0.000226671,-2.76635,0.1473,0.400543,0.130986,
2,1,0,1,0,2324.58,0.139631,0.139359,1.85249,2,0.0116025,11,0.00025816,-2.73224,0.378175,0.156013,0.137877,
2,1,0,1,0,2325.28,0.146622,0.146349,1.85693,2,0.0129213,11,0.00027176,-2.7312,-0.36029,-0.163757,0.144863,
2,1,0,1,0,2325.97,0.153614,0.153322,1.69505,2,0.0141862,11,0.000259888,-2.77082,-0.111853,-0.527478,0.151966,
2,1,0,1,0,2326.67,0.160606,0.160338,1.38859,2,0.0152777,11,0.000222643,-2.85743,-0.0699842,-0.843048,0.159227,
2,1,0,1,0,2327.37,0.167597,0.167298,1.08574,2,0.0161461,11,0.000181643,-2.96427,-0.0730337,-0.807847,0.16643,
2,1,0,1,0,2328.07,0.174588,0.174332,0.883743,2,0.0168396,11,0.000154065,-3.05367,-0.0961914,-0.613361,0.173625,
2,1,0,1,0,2328.77,0.18158,0.181309,0.766705,2,0.0174236,11,0.00013901,-3.11537,-0.127078,-0.464282,0.180695,
2,1,0,1,0,2329.47,0.188571,0.188288,0.688764,2,0.0179403,11,0.000129686,-3.16193,-0.204009,-0.289203,0.187737,
2,1,0,1,0,2330.17,0.195563,0.195293,0.639021,2,0.0184135,11,0.000124796,-3.19449,-0.201184,-0.293264,0.194782,
2,1,0,1,0,2330.87,0.202555,0.202256,0.601727,2,0.0188567,11,0.000121703,-3.2206,-0.330404,-0.178569,0.201774,
2,1,0,1,0,2331.57,0.209546,0.209297,0.576206,2,0.0192788,11,0.000120598,-3.23942,-0.42768,-0.137954,0.208836,
2,1,0,1,0,2332.27,0.216538,0.216267,0.554221,2,0.0196848,11,0.00011986,-3.25632,-0.619505,-0.0952373,0.215824,
2,1,0,1,0,2332.97,0.22353,0.22325,0.544586,2,0.0200788,11,0.000121579,-3.26393,-0.581291,-0.101498,0.222814,
2,1,0,1,0,2333.67,0.230521,0.230226,0.529289,2,0.0204633,11,0.000121856,-3.27631,-0.718798,-0.0820815,0.229803,
2,1,0,1,0,2334.36,0.237512,0.237234,0.520255,2,0.0208403,11,0.000123422,-3.28378,-1.56683,-0.0376557,0.236818,
2,1,0,1,0,2335.06,0.244504,0.24424,0.511767,2,0.021211,11,0.000124994,-3.29093,-0.922527,-0.0639548,0.243831,
2,1,0,1,0,2335.76,0.251495,0.251221,0.505522,2,0.0215764,11,0.000126998,-3.29626,-2.95001,-0.02,0.250816,
2,1,0,1,0,2336.46,0.258488,0.258247,0.49916,2,0.0219373,11,0.000128907,-3.30176,-1.84309,-0.0320115,0.257848,
2,1,0,1,0,2337.16,0.265479,0.265245,0.492248,2,0.022294,11,0.000130566,-3.30782,-0.833082,-0.0708214,0.264851,
2,1,0,1,0,2337.86,0.27247,0.272197,0.487442,2,0.022647,11,0.00013268,-3.31208,-1.58141,-0.0373085,0.271807,
2,1,0,1,0,2338.56,0.279462,0.279179,0.482844,2,0.0229964,11,0.0001348,-3.31619,20.8951,0.00282363,0.278792,
2,1,0,1,0,2339.26,0.286454,0.286181,0.478471,2,0.0233427,11,0.000136929,-3.32014,-2.05695,-0.0286832,0.285798,
2,1,0,1,0,2339.96,0.293445,0.2932,0.473079,2,0.0236859,11,0.000138707,-3.32507,-1.21418,-0.0485924,0.292822,
2,1,0,0,0,2340.62,0.300012,0.299785,0.475003,2,0.0240062,11,0.000142399,-3.3233,-0.000202168,-291.837,0.299405,
2,0,0,1,0,2341.29,0.293246,0.292957,-0.119096,2,0.023947,11,-3.48899e-05,-3.9241,-0.0304116,-1.94005,0.293052,
2,0,0,1,0,2341.99,0.286253,0.285944,-0.166316,2,0.0238347,11,-4.75571e-05,-3.77907,-0.0841392,-0.701219,0.286077,
2,0,0,1,0,2342.69,0.279262,0.278995,-0.196861,2,0.0236968,11,-5.49234e-05,-3.70584,-0.111302,-0.530089,0.279153,
2,0,0,1,0,2343.39,0.27227,0.271932,-0.221985,2,0.0235398,11,-6.03648e-05,-3.65368,-0.173959,-0.339161,0.27211,
2,0,0,1,0,2344.09,0.265279,0.264988,-0.242634,2,0.0233667,11,-6.42951e-05,-3.61505,-0.147973,-0.398721,0.265182,
2,0,0,1,0,2344.79,0.258287,0.258005,-0.262916,2,0.0231795,11,-6.78337e-05,-3.58018,-0.221254,-0.266662,0.258216,
2,0,0,1,0,2345.49,0.251296,0.251029,-0.280067,2,0.0229791,11,-7.0305e-05,-3.55274,-0.269506,-0.218919,0.251253,
2,0,0,1,0,2346.19,0.244304,0.244015,-0.299921,2,0.0227662,11,-7.31851e-05,-3.52299,-0.309313,-0.190745,0.244255,
2,0,0,1,0,2346.89,0.237313,0.237011,-0.314864,2,0.0225411,11,-7.4626e-05,-3.50188,-0.386711,-0.152569,0.237262,
2,0,0,1,0,2347.58,0.230322,0.230048,-0.333525,2,0.0223035,11,-7.67266e-05,-3.47687,-0.290428,-0.203148,0.230314,
2,0,0,1,0,2348.28,0.223329,0.223059,-0.352218,2,0.0220529,11,-7.85653e-05,-3.45319,-0.278398,-0.211926,0.223341,
2,0,0,1,0,2348.98,0.216338,0.216061,-0.371784,2,0.0217882,11,-8.0328e-05,-3.42971,-0.358039,-0.164787,0.216359,
2,0,0,1,0,2349.68,0.209347,0.20904,-0.398749,2,0.0215078,11,-8.33546e-05,-3.3993,-0.236992,-0.248954,0.209359,
2,0,0,1,0,2350.38,0.202355,0.202062,-0.425311,2,0.0212082,11,-8.5939e-05,-3.37129,-0.214879,-0.274573,0.202402,
2,0,0,1,0,2351.08,0.195363,0.195047,-0.464919,2,0.020886,11,-9.06809e-05,-3.33262,-0.158852,-0.371415,0.195419,
2,0,0,1,0,2351.78,0.188372,0.188029,-0.51629,2,0.0205342,11,-9.70777e-05,-3.28711,-0.14871,-0.396745,0.188442,
2,0,0,1,0,2352.48,0.18138,0.181095,-0.581535,2,0.0201433,11,-0.000105313,-3.23542,-0.120436,-0.489888,0.181561,
2,0,0,1,0,2353.18,0.174389,0.174099,-0.672242,2,0.0196974,11,-0.000117037,-3.17247,-0.0964247,-0.611876,0.174637,
2,0,0,1,0,2353.88,0.167398,0.167103,-0.816008,2,0.0191708,11,-0.000136357,-3.08831,-0.0740145,-0.797141,0.167756,
2,0,0,1,0,2354.58,0.160405,0.160111,-1.03492,2,0.0185199,11,-0.000165703,-2.98509,-0.0634096,-0.930458,0.160939,
2,0,0,1,0,2355.27,0.153414,0.153127,-1.32683,2,0.0176878,11,-0.000203174,-2.87718,-0.0681148,-0.866185,0.154189,
2,0,0,1,0,2355.97,0.146423,0.14618,-1.6248,2,0.0166425,11,-0.000237514,-2.7892,-0.0969523,-0.608547,0.14748,
2,0,0,1,0,2356.67,0.139431,0.139154,-1.82169,2,0.015417,11,-0.000253496,-2.73953,-0.224788,-0.26247,0.140612,
2,0,0,1,0,2357.37,0.132439,0.132134,-1.87497,2,0.0141024,11,-0.000247748,-2.727,1.08428,0.0544141,0.133634,
2,0,0,1,0,2358.07,0.125448,0.125176,-1.77133,2,0.0128093,11,-0.000221727,-2.7517,0.163291,0.361317,0.126593,
2,0,0,1,0,2358.77,0.118456,0.118168,-1.56384,2,0.0116329,11,-0.000184796,-2.80581,0.128977,0.457445,0.119419,
2,0,0,1,0,2359.47,0.111465,0.111166,-1.36802,2,0.0106014,11,-0.000152077,-2.86391,0.134976,0.437115,0.11226,
2,0,0,1,0,2360.17,0.104474,0.104167,-1.23287,2,0.009689,11,-0.000128424,-2.90908,0.193724,0.304557,0.105153,
2,0,0,1,0,2360.87,0.0974808,0.0972368,-1.13867,2,0.00885555,11,-0.00011072,-2.9436,0.262837,0.224473,0.0981477,
2,0,0,1,0,2361.57,0.0904901,0.0902005,-1.07191,2,0.00807484,11,-9.66866e-05,-2.96984,0.232639,0.253612,0.091058,
2,0,0,1,0,2362.27,0.0834986,0.0831817,-1.01635,2,0.00733504,11,-8.45417e-05,-2.99296,0.259559,0.227309,0.0839948,
2,0,0,1,0,2362.97,0.076507,0.0762212,-0.961929,2,0.00663372,11,-7.33193e-05,-3.01686,0.269751,0.21872,0.0769907,
2,0,0,1,0,2363.66,0.0695154,0.0692228,-0.900856,2,0.00597292,11,-6.23597e-05,-3.04534,0.244345,0.241462,0.0699434,
2,0,0,1,0,2364.36,0.0625239,0.0622673,-0.846822,2,0.00535185,11,-5.27293e-05,-3.07221,0.303226,0.194575,0.0629447,
2,0,0,1,0,2365.06,0.0555323,0.0552612,-0.804877,2,0.00476535,11,-4.44785e-05,-3.09427,0.379603,0.155425,0.0559051,
2,0,0,1,0,2365.76,0.0485408,0.0482339,-0.774423,2,0.00420472,11,-3.73534e-05,-3.11102,0.467397,0.126231,0.0488534,
2,0,0,1,0,2366.46,0.0415499,0.041299,-0.754732,2,0.00366172,11,-3.11696e-05,-3.12221,436.826,0.000135065,0.0419027,
2,0,0,1,0,2367.16,0.0345568,0.0342631,-0.746661,2,0.00312759,11,-2.55829e-05,-3.12688,3.64847,0.0161711,0.0348604,
2,0,0,1,0,2367.86,0.0275661,0.0272315,-0.749541,2,0.00259645,11,-2.04111e-05,-3.1252,-6.75554,-0.00873357,0.0278311,
2,0,0,1,0,2368.56,0.0205746,0.0202635,-0.753819,2,0.00206289,11,-1.5275e-05,-3.12273,-1.66048,-0.0355319,0.0208666,
2,0,0,1,0,2369.26,0.013583,0.0132595,-0.763389,2,0.0015229,11,-1.01222e-05,-3.11725,-1.29404,-0.0455937,0.0138703,
2,0,0,1,0,2369.96,0.00659147,0.00630765,-0.779078,2,0.000973523,11,-4.91415e-06,-3.10842,-0.920299,-0.0641096,0.00693091,
2,0,0,1,0,2370.6,0.000199195,-0.000155446,-0.796924,2,0.000457935,11,1.23879e-07,-3.09858, , ,0.000482093,