File: Figure_codes/Fig_S3_S4/20221101_1-115_002_TrumpetPlot_ParaChange_05_CV_C01_1.csv
mode,ox/red,error,control changes,counter inc.,time/s,control/V,Ewe/V,<I>/mA,cycle number,(Q-Qo)/C,I Range,P/W,log(|I|),Tafel slope mV/dec,alpha_eff,E-IR/V,
2,1,0,1,0,2190.51,2.44065e-05,-0.000325324,0.0686023,2,0.0000000E+000,11,-2.23179e-08,-4.16366, , ,-0.000380205,
2,1,0,1,0,2191.87,0.00679123,0.00648567,0.208461,2,0.000283259,11,1.35201e-06,-3.68098,0.131516,0.448613,0.0063189,
2,1,0,1,0,2193.27,0.0137828,0.0134536,0.227653,2,0.000619643,11,3.06275e-06,-3.64273,0.193445,0.304996,0.0132715,
2,1,0,1,0,2194.66,0.0207747,0.0205332,0.240194,2,0.000976665,11,4.93196e-06,-3.61944,0.370033,0.159445,0.0203411,
2,1,0,0,0,2196.06,0.0277659,0.0274541,0.248355,2,0.00134763,11,6.81837e-06,-3.60493,0.361839,0.163056,0.0272555,
2,1,0,1,0,2197.46,0.0347576,0.0344721,0.256422,2,0.00173111,11,8.83942e-06,-3.59104,0.504977,0.116837,0.034267,
2,1,0,1,0,2198.86,0.041749,0.0414314,0.267804,2,0.00212763,11,1.10955e-05,-3.57218,0.590302,0.0999488,0.0412171,
2,1,0,1,0,2200.26,0.0487404,0.0484267,0.282252,2,0.00254033,11,1.36685e-05,-3.54936,0.287148,0.205469,0.0482009,
2,1,0,0,0,2201.66,0.0557321,0.0554425,0.299521,2,0.00297447,11,1.66062e-05,-3.52357,0.271551,0.217271,0.0552029,
2,1,0,1,0,2203.05,0.0627233,0.0624091,0.321427,2,0.00343677,11,2.006e-05,-3.49292,0.217586,0.271157,0.062152,
2,1,0,1,0,2204.45,0.0697152,0.0694028,0.347568,2,0.00393491,11,2.41222e-05,-3.45896,0.197148,0.299267,0.0691247,
2,1,0,1,0,2205.85,0.0767068,0.0764492,0.382262,2,0.00447497,11,2.92236e-05,-3.41764,0.200258,0.29462,0.0761434,
2,1,0,1,0,2207.25,0.0836986,0.0834046,0.413516,2,0.00505975,11,3.44891e-05,-3.38351,0.198572,0.297121,0.0830738,
2,1,0,0,0,2208.65,0.0906899,0.0903903,0.443081,2,0.00568838,11,4.00502e-05,-3.35352,0.183146,0.322148,0.0900359,
2,1,0,1,0,2210.05,0.0976815,0.0973965,0.478111,2,0.00636103,11,4.65664e-05,-3.32047,0.224828,0.262423,0.097014,
2,1,0,1,0,2211.44,0.104673,0.104408,0.519514,2,0.00708168,11,5.42413e-05,-3.2844,0.176239,0.334772,0.103992,
2,1,0,1,0,2212.84,0.111664,0.111344,0.573256,2,0.00786849,11,6.38285e-05,-3.24165,0.130856,0.450878,0.110885,
2,1,0,0,0,2214.24,0.118656,0.118389,0.659406,2,0.00875496,11,7.80666e-05,-3.18085,0.118302,0.498724,0.117862,
2,1,0,1,0,2215.64,0.125647,0.125346,0.773826,2,0.00978348,11,9.69963e-05,-3.11136,0.105143,0.56114,0.124727,
2,1,0,1,0,2217.04,0.132639,0.132375,0.889089,2,0.0109771,11,0.000117693,-3.05105,0.145324,0.405988,0.131664,
2,1,0,1,0,2218.44,0.139631,0.13931,0.955882,2,0.0123044,11,0.000133164,-3.0196,0.474126,0.124439,0.138545,
2,1,0,1,0,2219.83,0.146623,0.14631,0.948246,2,0.0136799,11,0.000138738,-3.02308,-0.323508,-0.182376,0.145551,
2,1,0,0,0,2221.23,0.153614,0.153343,0.854741,2,0.0149826,11,0.000131069,-3.06817,-0.0995769,-0.592507,0.15266,
2,1,0,1,0,2222.63,0.160606,0.160334,0.691243,2,0.0160936,11,0.00011083,-3.16037,-0.0691966,-0.852644,0.159781,
2,1,0,1,0,2224.03,0.167597,0.167299,0.544591,2,0.0169793,11,9.11098e-05,-3.26393,-0.0764538,-0.771708,0.166864,
2,1,0,1,0,2225.43,0.174588,0.174318,0.449804,2,0.0176978,11,7.84089e-05,-3.34698,-0.101106,-0.583547,0.173958,
2,1,0,0,0,2226.83,0.18158,0.181305,0.395025,2,0.0183134,11,7.16201e-05,-3.40338,-0.14194,-0.415669,0.180989,
2,1,0,1,0,2228.22,0.188571,0.188278,0.357428,2,0.0188654,11,6.72959e-05,-3.44681,-0.178693,-0.330175,0.187992,
2,1,0,1,0,2229.62,0.195563,0.195263,0.33214,2,0.0193754,11,6.48549e-05,-3.47868,-0.230344,-0.256139,0.194998,
2,1,0,1,0,2231.02,0.202555,0.202258,0.314834,2,0.0198563,11,6.36777e-05,-3.50192,-0.366363,-0.161042,0.202006,
2,1,0,1,0,2232.42,0.209547,0.209257,0.302595,2,0.0203164,11,6.33201e-05,-3.51914,-0.344588,-0.171219,0.209015,
2,1,0,0,0,2233.82,0.216538,0.216227,0.291175,2,0.0207606,11,6.29597e-05,-3.53585,-0.445012,-0.132581,0.215994,
2,1,0,1,0,2235.22,0.223529,0.223232,0.285814,2,0.0211931,11,6.38028e-05,-3.54392,-0.506836,-0.116408,0.223003,
2,1,0,1,0,2236.61,0.230521,0.230267,0.279016,2,0.0216163,11,6.42483e-05,-3.55437,-1.38431,-0.0426204,0.230044,
2,1,0,1,0,2238.01,0.237512,0.237254,0.273079,2,0.0220322,11,6.47892e-05,-3.56371,1.59397,0.0370144,0.237036,
2,1,0,0,0,2239.41,0.244504,0.2442,0.269995,2,0.0224422,11,6.59328e-05,-3.56864,-0.988251,-0.0597014,0.243984,
2,1,0,1,0,2240.81,0.251495,0.251205,0.26571,2,0.0228474,11,6.67476e-05,-3.57559,-1.23789,-0.0476617,0.250992,
2,1,0,1,0,2242.21,0.258488,0.258183,0.262931,2,0.0232483,11,6.78843e-05,-3.58016,-1.85787,-0.0317569,0.257973,
2,1,0,1,0,2243.61,0.265479,0.265259,0.260346,2,0.0236455,11,6.90591e-05,-3.58445,-0.690344,-0.0854647,0.26505,
2,1,0,1,0,2245,0.27247,0.272175,0.259815,2,0.0240395,11,7.07151e-05,-3.58534,-4.11445,-0.0143397,0.271967,
2,1,0,0,0,2246.4,0.279462,0.279138,0.257363,2,0.0244306,11,7.18399e-05,-3.58945,-1.17785,-0.0500911,0.278933,
2,1,0,1,0,2247.8,0.286453,0.28616,0.255326,2,0.0248189,11,7.30641e-05,-3.59291,-1.78755,-0.0330062,0.285956,
2,1,0,1,0,2249.2,0.293445,0.293134,0.253679,2,0.0252046,11,7.43619e-05,-3.59572,-1.40718,-0.0419278,0.292931,
2,1,0,0,0,2250.51,0.300012,0.299746,0.251699,2,0.0255652,11,7.54458e-05,-3.59912,1.90285e-05,3100.6,0.299545,
2,0,0,1,0,2251.87,0.293245,0.292949,-0.0320976,2,0.0255271,11,-9.40299e-06,-4.49353,-0.0149076,-3.95772,0.292975,
2,0,0,1,0,2253.26,0.286253,0.285966,-0.0580891,2,0.0254317,11,-1.66115e-05,-4.23591,-0.0442348,-1.33379,0.286013,
2,0,0,1,0,2254.66,0.279262,0.278975,-0.0763054,2,0.0253064,11,-2.12873e-05,-4.11744,-0.0665757,-0.886209,0.279036,
2,0,0,1,0,2256.06,0.27227,0.271972,-0.092252,2,0.0251586,11,-2.50899e-05,-4.03502,-0.11344,-0.520097,0.272046,
2,0,0,0,0,2257.46,0.265279,0.264944,-0.104378,2,0.0249918,11,-2.76542e-05,-3.98139,-0.118622,-0.497379,0.265027,
2,0,0,1,0,2258.86,0.258287,0.258024,-0.115646,2,0.0248081,11,-2.98395e-05,-3.93687,-0.159346,-0.370263,0.258116,
2,0,0,1,0,2260.26,0.251296,0.250982,-0.125779,2,0.0246086,11,-3.15682e-05,-3.90039,-0.20335,-0.29014,0.251082,
2,0,0,1,0,2261.65,0.244304,0.24401,-0.138414,2,0.0243946,11,-3.37744e-05,-3.85882,-0.224548,-0.26275,0.244121,
2,0,0,0,0,2263.05,0.237313,0.237002,-0.146994,2,0.024166,11,-3.48379e-05,-3.8327,-0.256925,-0.229639,0.23712,
2,0,0,1,0,2264.45,0.230321,0.230056,-0.156753,2,0.023923,11,-3.60619e-05,-3.80478,-0.275592,-0.214085,0.230181,
2,0,0,1,0,2265.85,0.223329,0.223044,-0.168692,2,0.0236649,11,-3.76256e-05,-3.77291,-0.23514,-0.250914,0.223179,
2,0,0,1,0,2267.25,0.216338,0.216034,-0.178016,2,0.0233906,11,-3.84574e-05,-3.74954,-0.217901,-0.270765,0.216176,
2,0,0,1,0,2268.65,0.209346,0.209018,-0.195333,2,0.0230986,11,-4.08282e-05,-3.70922,-0.177448,-0.332491,0.209174,
2,0,0,0,0,2270.04,0.202355,0.20208,-0.210126,2,0.0227853,11,-4.24622e-05,-3.67752,-0.173463,-0.34013,0.202248,
2,0,0,1,0,2271.44,0.195363,0.195124,-0.230907,2,0.0224471,11,-4.50556e-05,-3.63656,-0.138999,-0.424464,0.195309,
2,0,0,1,0,2272.84,0.188372,0.188061,-0.258871,2,0.022077,11,-4.86835e-05,-3.58692,-0.136954,-0.430801,0.188268,
2,0,0,1,0,2274.24,0.181381,0.181101,-0.292688,2,0.0216648,11,-5.30061e-05,-3.5336,-0.115221,-0.512058,0.181335,
2,0,0,0,0,2275.64,0.174389,0.174094,-0.342373,2,0.0211942,11,-5.9605e-05,-3.4655,-0.0899361,-0.656022,0.174367,
2,0,0,1,0,2277.04,0.167398,0.167133,-0.417754,2,0.0206377,11,-6.98206e-05,-3.37908,-0.0728647,-0.80972,0.167468,
2,0,0,1,0,2278.43,0.160405,0.160055,-0.534108,2,0.0199494,11,-8.54869e-05,-3.27237,-0.0618147,-0.954465,0.160483,
2,0,0,1,0,2279.83,0.153414,0.153141,-0.690796,2,0.019067,11,-0.000105789,-3.16065,-0.0672619,-0.877169,0.153694,
2,0,0,1,0,2281.23,0.146422,0.146155,-0.846438,2,0.0179579,11,-0.000123711,-3.0724,-0.100535,-0.58686,0.146832,
2,0,0,0,0,2282.63,0.139431,0.139141,-0.940886,2,0.0166643,11,-0.000130916,-3.02646,-0.25867,-0.22809,0.139894,
2,0,0,1,0,2284.03,0.132439,0.132161,-0.961129,2,0.0152912,11,-0.000127024,-3.01722,0.557891,0.105755,0.13293,
2,0,0,1,0,2285.43,0.125448,0.125128,-0.895534,2,0.0139561,11,-0.000112056,-3.04792,0.16073,0.367075,0.125845,
2,0,0,1,0,2286.82,0.118456,0.118212,-0.791482,2,0.0127466,11,-9.35627e-05,-3.10156,0.136132,0.433403,0.118845,
2,0,0,0,0,2288.22,0.111465,0.111207,-0.696313,2,0.0116812,11,-7.7435e-05,-3.1572,0.137681,0.428528,0.111764,
2,0,0,1,0,2289.62,0.104474,0.104186,-0.631655,2,0.0107303,11,-6.58099e-05,-3.19952,0.19124,0.308512,0.104692,
2,0,0,1,0,2291.02,0.0974812,0.0971437,-0.586415,2,0.00985552,11,-5.69665e-05,-3.2318,0.254978,0.231392,0.0976128,
2,0,0,1,0,2292.42,0.0904901,0.090157,-0.552737,2,0.00903174,11,-4.98332e-05,-3.25748,0.249561,0.236415,0.0905992,
2,0,0,1,0,2293.82,0.0834983,0.0832111,-0.525466,2,0.00824935,11,-4.37246e-05,-3.27946,0.271701,0.21715,0.0836315,
2,0,0,0,0,2295.21,0.076507,0.0761957,-0.496242,2,0.00750671,11,-3.78115e-05,-3.30431,0.251595,0.234504,0.0765927,
2,0,0,1,0,2296.61,0.0695154,0.0692361,-0.464089,2,0.00680591,11,-3.21317e-05,-3.3334,0.271175,0.217572,0.0696074,
2,0,0,1,0,2298.01,0.0625239,0.0622079,-0.439167,2,0.00614498,11,-2.73196e-05,-3.35737,0.274159,0.215203,0.0625592,
2,0,0,1,0,2299.41,0.0555325,0.0552241,-0.418423,2,0.00551765,11,-2.3107e-05,-3.37838,0.367523,0.160534,0.0555589,
2,0,0,0,0,2300.81,0.0485408,0.0482689,-0.405108,2,0.00491494,11,-1.95541e-05,-3.39243,0.46711,0.126309,0.0485929,
2,0,0,1,0,2302.21,0.0415496,0.0412408,-0.396268,2,0.00432785,11,-1.63424e-05,-3.40201,2.557,0.0230739,0.0415578,
2,0,0,1,0,2303.6,0.0345572,0.0342415,-0.391876,2,0.00374785,11,-1.34184e-05,-3.40685,2.48244,0.0237669,0.034555,
2,0,0,1,0,2305,0.0275661,0.0272368,-0.395862,2,0.00316841,11,-1.0782e-05,-3.40246,-2.94372,-0.0200427,0.0275534,
2,0,0,1,0,2306.4,0.0205744,0.0202728,-0.400747,2,0.00258472,11,-8.12425e-06,-3.39713,-0.951247,-0.0620238,0.0205934,
2,0,0,0,0,2307.8,0.013583,0.0132765,-0.408815,2,0.001992,11,-5.42764e-06,-3.38847,-1.8788,-0.0314031,0.0136036,
2,0,0,1,0,2309.2,0.00659147,0.0063214,-0.416494,2,0.00138764,11,-2.63282e-06,-3.38039,-0.768113,-0.0768116,0.00665459,
2,0,0,0,0,2310.48,0.000199195,-0.000151629,-0.42648,2,0.000819475,11,6.46667e-08,-3.3701, , ,0.000189555,