File: Figure_codes/Fig_S3_S4/20221101_1-115_003_TrumpetPlot_ParaChange_from10_every3_02_CV_C01_16.csv
mode,ox/red,error,control changes,counter inc.,time/s,control/V,Ewe/V,<I>/mA,cycle number,(Q-Qo)/C,I Range,P/W,log(|I|),Tafel slope mV/dec,alpha_eff,dI/d(E-IR),E-IR/V,
2,0,0,1,0,31862.1,2.44065e-05,-0.000325324,-0.383064,17,0.0000000E+000,10,1.2462e-07,-3.41673, , , ,-0.000325324,
2,0,0,1,0,31869.4,0.00729061,0.00697237,-0.095698,17,-0.000941352,10,-6.67242e-07,-4.0191,-0.0301767,-1.95515,7.39988,0.00697237,
2,0,0,1,0,31876.9,0.0147815,0.0144153,-0.0601441,17,-0.00141657,10,-8.66998e-07,-4.22081,-0.0391822,-1.50579,3.51418,0.0144153,
2,0,0,1,0,31884.4,0.0222725,0.0219538,-0.0386961,17,-0.00169065,10,-8.49527e-07,-4.41233,-0.0391019,-1.50888,2.28367,0.0219538,
2,0,0,1,0,31891.9,0.0297635,0.0294106,-0.0233324,17,-0.0018317,10,-6.86221e-07,-4.63204,-0.0277804,-2.1238,1.91238,0.0294106,
2,0,0,1,0,31899.3,0.0372544,0.0369278,-0.0107528,17,-0.0018637,10,-3.97076e-07,-4.96848,-0.0121426,-4.85894,1.83358,0.0369278,
2,1,0,1,0,31906.8,0.0447454,0.0444249,0.000669323,17,-0.00180497,10,2.97346e-08,-6.17436,0.0274221,2.15155,1.4949,0.0444249,
2,1,0,1,0,31914.3,0.0522363,0.0518859,0.0113815,17,-0.00166406,10,5.90538e-07,-4.9438,0.0162876,3.62238,1.48109,0.0518859,
2,0,0,1,0,31921.8,0.0597273,0.0593873,0.0210767,17,-0.00144806,10,1.25169e-06,-4.6762,0.0352682,1.6729,1.3148,0.0593873,
2,1,0,1,0,31929.3,0.0672183,0.066878,0.0290761,17,-0.00116387,10,1.94455e-06,-4.53646,0.0707398,0.834042,0.931446,0.066878,
2,1,0,1,0,31936.8,0.0747092,0.0743613,0.0355274,17,-0.000822399,10,2.64186e-06,-4.44944,0.0839649,0.702674,0.996411,0.0743613,
2,1,0,1,0,31944.3,0.0822001,0.0818529,0.0431692,17,-0.000425236,10,3.53353e-06,-4.36483,0.0955499,0.617479,1.04961,0.0818529,
2,1,0,1,0,31951.8,0.0896911,0.0893607,0.0519504,17,3.20888e-05,10,4.64232e-06,-4.28441,0.0975848,0.604602,1.23118,0.0893607,
2,1,0,1,0,31959.3,0.0971821,0.0968716,0.0627644,17,0.000562301,10,6.08009e-06,-4.20229,0.0890913,0.662242,1.6185,0.0968716,
2,1,0,1,0,31966.8,0.104673,0.104303,0.0735256,17,0.00117355,10,7.66893e-06,-4.13356,0.129202,0.45665,1.29769,0.104303,
2,1,0,1,0,31974.3,0.112164,0.111862,0.0827361,17,0.00186151,10,9.25507e-06,-4.0823,0.231454,0.254911,0.815958,0.111862,
2,1,0,1,0,31981.7,0.119655,0.119369,0.0910211,17,0.00261538,10,1.08651e-05,-4.04086,0.19511,0.302393,1.07169,0.119369,
2,1,0,1,0,31989.2,0.127146,0.126788,0.0975944,17,0.0034297,10,1.23738e-05,-4.01058,0.336363,0.175406,0.671071,0.1267878,
2,1,0,1,0,31996.7,0.134637,0.134304,0.0978091,17,0.0042766,10,1.31361e-05,-4.00962,-0.26874,-0.219543,-0.834533,0.134304,
2,1,0,1,0,32004.2,0.142128,0.141816,0.082287,17,0.0050598,10,1.16696e-05,-4.08467,-0.0746554,-0.790298,-2.52496,0.141816,
2,1,0,1,0,32011.7,0.149619,0.149322,0.0633971,17,0.00569849,10,9.46661e-06,-4.19793,-0.0784062,-0.752492,-1.87771,0.149322,
2,1,0,1,0,32019.2,0.15711,0.156785,0.0543338,17,0.00622862,10,8.5187e-06,-4.26493,-0.157266,-0.375161,-0.797858,0.156785,
2,1,0,1,0,32026.7,0.164601,0.164308,0.0503584,17,0.00670838,10,8.27429e-06,-4.29793,-0.385908,-0.152886,-0.300641,0.164308,
2,1,0,1,0,32034.2,0.172091,0.171779,0.0492732,17,0.00717118,10,8.46409e-06,-4.30739,-1.00186,-0.0588902,-0.113988,0.1717786,
2,1,0,1,0,32041.7,0.179582,0.179258,0.0492618,17,0.00762758,10,8.83056e-06,-4.30749,2.5022,0.0235792,0.0451238,0.179258,
2,1,0,1,0,32049.2,0.187073,0.186757,0.0498278,17,0.00808398,10,9.30568e-06,-4.30253,0.690913,0.0853943,0.165697,0.186757,
2,1,0,1,0,32056.7,0.194564,0.194279,0.0497668,17,0.00854206,10,9.66867e-06,-4.30306,-3.38741,-0.0174174,-0.0336209,0.194279,
2,1,0,1,0,32064.1,0.202055,0.201781,0.0504563,17,0.00900274,10,1.01811e-05,-4.29708,1.06592,0.0553512,0.108901,0.201781,
2,1,0,1,0,32071.6,0.209546,0.209215,0.0515828,17,0.00946857,10,1.07919e-05,-4.2875,0.87054,0.067774,0.135247,0.209215,
2,1,0,1,0,32079.1,0.217037,0.216739,0.0518974,17,0.00994188,10,1.12482e-05,-4.28485,-1.09649,-0.0538082,-0.110013,0.216739,
2,1,0,1,0,32086.6,0.224528,0.224207,0.0533485,17,0.0104194,10,1.19611e-05,-4.27288,0.822303,0.0717497,0.148411,0.224207,
2,1,0,1,0,32094.1,0.232019,0.231708,0.0537036,17,0.010904,10,1.24435e-05,-4.27,0.778771,0.0757604,0.159969,0.231708,
2,1,0,1,0,32101.6,0.23951,0.239179,0.0550084,17,0.0113957,10,1.31569e-05,-4.25957,-2.45595,-0.0240233,-0.0514644,0.239179,
2,1,0,1,0,32109.1,0.247001,0.246725,0.0560006,17,0.0118924,10,1.38167e-05,-4.25181,1.25131,0.0471506,0.102765,0.246725,
2,1,0,1,0,32116.6,0.254492,0.254213,0.0570816,17,0.0123963,10,1.45109e-05,-4.2435,75.258,0.00078397,0.00173551,0.254213,
2,1,0,1,0,32124.1,0.261983,0.261652,0.0573161,17,0.0129041,10,1.49969e-05,-4.24172,0.616867,0.0956447,0.21536,0.261652,
2,1,0,1,0,32131.6,0.269474,0.269183,0.0589326,17,0.0134201,10,1.58637e-05,-4.22964,0.805897,0.0732103,0.167523,0.269183,
2,1,0,1,0,32139.1,0.276965,0.276631,0.0599659,17,0.0139439,10,1.65884e-05,-4.2221,0.649461,0.0908446,0.21275,0.276631,
2,1,0,1,0,32146.5,0.284456,0.284155,0.0607249,17,0.0144744,10,1.72553e-05,-4.21663,21.3518,0.00276323,0.00654576,0.284155,
2,1,0,1,0,32154,0.291947,0.291612,0.0616997,17,0.0150095,10,1.79924e-05,-4.20972,1.48213,0.0398074,0.0963882,0.291612,
2,1,0,1,0,32161.5,0.299438,0.299088,0.0620766,17,0.0155504,10,1.85664e-05,-4.20707,-0.00467751,-12.6136,-20.3277,0.299088,
2,1,0,1,0,32168.4,0.293745,0.293442,0.0103519,17,0.0156407,10,3.03768e-06,-4.98498,0.0140993,4.18461,1.67305,0.293442,
2,1,0,1,0,32175.9,0.286254,0.285901,0.00234914,17,0.0156094,10,6.71621e-07,-5.62909,0.00409635,14.4031,0.834948,0.285901,
2,0,0,1,0,32183.4,0.278763,0.278438,-0.00370195,17,0.0155266,10,-1.03076e-06,-5.43157,-0.0103789,-5.68463,0.726305,0.2784375,
2,0,0,1,0,32190.8,0.271272,0.270952,-0.00812989,17,0.0154051,10,-2.20281e-06,-5.08992,-0.0350479,-1.68341,0.550393,0.270952,
2,0,0,1,0,32198.3,0.263781,0.263497,-0.0121971,17,0.0152497,10,-3.2139e-06,-4.91374,-0.0508824,-1.15954,0.555563,0.263497,
2,0,0,1,0,32205.8,0.25629,0.255957,-0.0156997,17,0.0150666,10,-4.01846e-06,-4.80411,-0.0689706,-0.855437,0.510696,0.2559568,
2,0,0,1,0,32213.3,0.248799,0.248499,-0.0186825,17,0.0148583,10,-4.64259e-06,-4.72856,-0.0989667,-0.59616,0.438183,0.248499,
2,0,0,1,0,32220.8,0.241308,0.241024,-0.021627,17,0.0146257,10,-5.21262e-06,-4.665,-0.141814,-0.416039,0.348771,0.241024,
2,0,0,1,0,32228.3,0.233817,0.233536,-0.0243586,17,0.0143725,10,-5.68859e-06,-4.61335,-0.11023,-0.535244,0.511607,0.233536,
2,0,0,1,0,32235.8,0.226326,0.226005,-0.0280903,17,0.0140934,10,-6.34853e-06,-4.55144,-0.33721,-0.174965,0.188952,0.226005,
2,0,0,1,0,32243.3,0.218835,0.218516,-0.0308576,17,0.0137924,10,-6.74289e-06,-4.51064,-0.212477,-0.277676,0.32822,0.2185161,
2,0,0,1,0,32250.8,0.211344,0.211051,-0.0333891,17,0.0134703,10,-7.0468e-06,-4.4764,-0.262353,-0.224888,0.293433,0.2110509,
2,0,0,1,0,32258.3,0.203853,0.203521,-0.0356141,17,0.0131274,10,-7.24822e-06,-4.44838,-0.251679,-0.234426,0.331578,0.203521,
2,0,0,1,0,32265.8,0.196362,0.196043,-0.0387719,17,0.0127633,10,-7.60095e-06,-4.41148,-0.292266,-0.201871,0.303219,0.1960429,
2,0,0,1,0,32273.2,0.188871,0.188556,-0.0418165,17,0.0123783,10,-7.88475e-06,-4.37865,-0.144902,-0.407173,0.661086,0.188556,
2,0,0,1,0,32280.7,0.18138,0.181077,-0.0458924,17,0.0119652,10,-8.31008e-06,-4.33826,-0.179893,-0.327973,0.582327,0.181077,
2,0,0,1,0,32288.2,0.173889,0.173539,-0.0499408,17,0.01152,10,-8.66668e-06,-4.30154,-0.183752,-0.321085,0.621764,0.173539,
2,0,0,1,0,32295.7,0.166398,0.166069,-0.0547997,17,0.0110384,10,-9.10056e-06,-4.26122,-0.19335,-0.305147,0.65571,0.166069,
2,0,0,1,0,32303.2,0.158907,0.158572,-0.0607116,17,0.0105132,10,-9.62718e-06,-4.21673,-0.126314,-0.46709,1.12439,0.158572,
2,0,0,1,0,32310.7,0.151417,0.151113,-0.0720659,17,0.00992108,10,-1.08901e-05,-4.14227,-0.111515,-0.529077,1.48526,0.151113,
2,0,0,1,0,32318.2,0.143926,0.143539,-0.08732,17,0.00922899,10,-1.25338e-05,-4.05889,-0.0716113,-0.823893,2.81531,0.143539,
2,0,0,1,0,32325.7,0.136435,0.136096,-0.11143,17,0.00838158,10,-1.51652e-05,-3.953,-0.075301,-0.783523,3.4013,0.136096,
2,0,0,1,0,32333.2,0.128944,0.12861,-0.1333,17,0.00735446,10,-1.71438e-05,-3.87517,-0.182823,-0.322717,1.66396,0.12861,
2,0,0,1,0,32340.7,0.121453,0.121153,-0.141925,17,0.00621124,10,-1.71946e-05,-3.84794,-0.634082,-0.093048,0.514477,0.1211527,
2,0,0,1,0,32348.2,0.113962,0.113645,-0.141233,17,0.00503686,10,-1.60504e-05,-3.85006,-214.929,-0.00027451,0.00152687,0.113645,
2,0,0,1,0,32355.6,0.106471,0.106134,-0.140684,17,0.00386728,10,-1.49313e-05,-3.85176,23.5992,0.00250008,-0.0138277,0.106134,
2,0,0,1,0,32363.1,0.0989798,0.0986169,-0.138204,17,0.0027144,10,-1.36293e-05,-3.85948,0.669561,0.0881174,-0.472856,0.0986169,
2,0,0,1,0,32370.6,0.0914889,0.0911464,-0.133,17,0.00159417,10,-1.21224e-05,-3.87615,0.45472,0.12975,-0.673424,0.0911464,
2,0,0,1,0,32378.1,0.083998,0.0836674,-0.127684,17,0.000513145,10,-1.0683e-05,-3.89386,0.334202,0.17654,-0.883044,0.0836674,
2,0,0,1,0,32385.6,0.076507,0.0761713,-0.123023,17,-0.000531509,10,-9.37084e-06,-3.91001,0.566182,0.104207,-0.501817,0.0761713,
2,0,0,1,0,32393.1,0.069016,0.0686732,-0.119209,17,-0.00154523,10,-8.18643e-06,-3.92369,0.579355,0.101837,-0.477536,0.0686732,
2,0,0,1,0,32400.6,0.0615251,0.0611963,-0.116932,17,-0.00253493,10,-7.1558e-06,-3.93207,0.602054,0.0979979,-0.446784,0.0611963,
2,0,0,1,0,32408.1,0.0540342,0.0536929,-0.114762,17,-0.00350067,10,-6.16189e-06,-3.9402,1.6808,0.0351024,-0.156484,0.0536929,
2,0,0,1,0,32415.6,0.0465432,0.0462074,-0.111772,17,-0.00444846,10,-5.16468e-06,-3.95167,0.65479,0.0901052,-0.391813,0.0462074,
2,0,0,1,0,32423.1,0.0390522,0.0387188,-0.108514,17,-0.00537419,10,-4.20152e-06,-3.96452,0.787463,0.0749242,-0.318539,0.0387188,
2,0,0,1,0,32430.6,0.0315613,0.0312112,-0.106023,17,-0.00628015,10,-3.30912e-06,-3.9746,0.61117,0.0965361,-0.401366,0.0312112,
2,0,0,1,0,32438,0.0240703,0.0237427,-0.104321,17,-0.00716704,10,-2.47687e-06,-3.98163,10.1516,0.00581191,-0.0237664,0.02374272,
2,0,0,1,0,32445.5,0.0165794,0.0162447,-0.104532,17,-0.00804413,10,-1.69809e-06,-3.98075,-2.45598,-0.024023,0.0976915,0.0162447,
2,0,0,1,0,32453,0.00908843,0.00872948,-0.105689,17,-0.00892408,10,-9.22609e-07,-3.97597,-0.636282,-0.0927262,0.383087,0.00872948,
2,0,0,1,0,32460.5,0.00159744,0.00121538,-0.108882,17,-0.00982141,10,-1.32333e-07,-3.96304, , , ,0.00121538,
2,0,0,1,0,32461.9,0.000199235,-0.000206971,-0.109319,17,-0.00999114,10,2.2626e-08,-3.9613, , , ,-0.000206971,