File: Figure_codes/Fig_S3_S4/20221101_1-115_002_TrumpetPlot_ParaChange_09_CV_C01_1.csv
mode,ox/red,error,control changes,counter inc.,time/s,control/V,Ewe/V,<I>/mA,cycle number,(Q-Qo)/C,I Range,P/W,log(|I|),Tafel slope mV/dec,alpha_eff,E-IR/V,
2,0,0,1,0,2415.92,2.44065e-05,-0.000172625,-3.81375,2,0.0000000E+000,11,6.58349e-07,-2.41865, , ,0.00287838,
2,1,0,1,0,2416.03,0.00679123,0.00651103,2.47322,2,0.000114482,11,1.61032e-05,-2.60674,0.0618422,0.954042,0.00453245,
2,1,0,1,0,2416.15,0.0137802,0.0134821,2.62855,2,0.000414595,11,3.54383e-05,-2.58028,0.442948,0.133198,0.0113793,
2,1,0,1,0,2416.26,0.020777,0.0204924,2.6988,2,0.000724991,11,5.53049e-05,-2.56883,0.573914,0.102803,0.0183334,
2,1,0,1,0,2416.38,0.0277659,0.0274452,2.75889,2,0.0010431,11,7.57181e-05,-2.55927,0.646943,0.0911982,0.0252381,
2,1,0,1,0,2416.5,0.0347561,0.0344681,2.83124,2,0.00136953,11,9.75876e-05,-2.54802,0.506556,0.116473,0.0322031,
2,1,0,1,0,2416.61,0.0417476,0.0414976,2.93298,2,0.00170535,11,0.000121712,-2.53269,0.357227,0.165161,0.0391512,
2,1,0,1,0,2416.73,0.0487419,0.0484608,3.05053,2,0.0020537,11,0.000147831,-2.51562,0.364894,0.161691,0.0460204,
2,1,0,1,0,2416.85,0.0557321,0.055423,3.22098,2,0.00241842,11,0.000178516,-2.49201,0.327552,0.180124,0.0528462,
2,1,0,1,0,2416.96,0.0627223,0.0624701,3.43604,2,0.00280539,11,0.00021465,-2.46394,0.231927,0.25439,0.0597213,
2,1,0,1,0,2417.08,0.0697126,0.0694458,3.69122,2,0.0032213,11,0.00025634,-2.43283,0.217359,0.271441,0.0664929,
2,1,0,1,0,2417.2,0.0767094,0.0763956,4.00656,2,0.00367164,11,0.000306084,-2.39723,0.191661,0.307835,0.0731904,
2,1,0,1,0,2417.31,0.0836983,0.083444,4.34066,2,0.00415939,11,0.000362202,-2.36244,0.199049,0.296409,0.0799715,
2,1,0,1,0,2417.43,0.0906872,0.0904095,4.67103,2,0.00468526,11,0.000422305,-2.33059,0.207511,0.284323,0.0866727,
2,1,0,1,0,2417.55,0.0976787,0.097379,5.00239,2,0.00524908,11,0.000487128,-2.30082,0.214098,0.275574,0.0933771,
2,1,0,1,0,2417.66,0.104674,0.104424,5.3627,2,0.00585297,11,0.000559996,-2.27062,0.210239,0.280634,0.100134,
2,1,0,1,0,2417.78,0.111665,0.111388,5.82523,2,0.00650318,11,0.000648862,-2.23469,0.155816,0.378653,0.106728,
2,1,0,1,0,2417.9,0.118655,0.118382,6.49066,2,0.00721897,11,0.000768379,-2.18771,0.119839,0.492329,0.11319,
2,1,0,1,0,2418.01,0.125649,0.125346,7.38179,2,0.00802605,11,0.000925278,-2.13184,0.105042,0.561678,0.119441,
2,1,0,1,0,2418.13,0.132642,0.132365,8.45166,2,0.00894751,11,0.0011187,-2.07306,0.114114,0.517026,0.125603,
2,1,0,1,0,2418.24,0.139631,0.139311,9.43107,2,0.00999084,11,0.00131385,-2.02544,0.164003,0.35975,0.131766,
2,1,0,1,0,2418.36,0.14662,0.146354,10.1295,2,0.0111356,11,0.00148249,-1.99441,0.360193,0.163801,0.13825,
2,1,0,1,0,2418.48,0.153616,0.153341,10.2618,2,0.012333,11,0.00157355,-1.98878,-0.667701,-0.0883629,0.145131,
2,1,0,1,0,2418.59,0.160607,0.160306,9.48148,2,0.0134953,11,0.00151994,-2.02312,-0.128257,-0.460014,0.152721,
2,1,0,1,0,2418.71,0.167597,0.167303,7.5858,2,0.014498,11,0.00126913,-2.12,-0.0692456,-0.85204,0.161235,
2,1,0,1,0,2418.83,0.174587,0.17432,5.54599,2,0.0152569,11,0.000966775,-2.25602,-0.0658513,-0.895958,0.169883,
2,1,0,1,0,2418.94,0.181581,0.181321,4.3993,2,0.0158281,11,0.000797687,-2.35662,-0.100699,-0.585902,0.177802,
2,1,0,1,0,2419.06,0.188573,0.188292,3.83049,2,0.0163049,11,0.000721248,-2.41675,-0.146346,-0.403154,0.185227,
2,1,0,1,0,2419.18,0.195563,0.195296,3.46262,2,0.0167288,11,0.000676237,-2.46059,-0.17883,-0.329922,0.192526,
2,1,0,1,0,2419.29,0.202552,0.202286,3.20883,2,0.0171167,11,0.000649101,-2.49365,-0.251862,-0.234255,0.199719,
2,1,0,1,0,2419.41,0.209549,0.209296,3.03867,2,0.0174801,11,0.00063598,-2.51732,-0.271878,-0.217009,0.206865,
2,1,0,1,0,2419.53,0.216538,0.216268,2.89271,2,0.017825,11,0.000625601,-2.53869,-0.367918,-0.160362,0.213954,
2,1,0,1,0,2419.64,0.223528,0.223274,2.78947,2,0.0181568,11,0.000622814,-2.55448,-0.4438,-0.132943,0.221042,
2,1,0,1,0,2419.76,0.23052,0.230195,2.71682,2,0.0184785,11,0.000625399,-2.56594,-0.620699,-0.0950541,0.228022,
2,1,0,1,0,2419.88,0.237514,0.23727,2.65966,2,0.0187929,11,0.000631059,-2.57517,-1.66246,-0.0354897,0.235142,
2,1,0,1,0,2419.99,0.244504,0.244214,2.61747,2,0.0191007,11,0.000639222,-2.58212,-2.48259,-0.0237655,0.24212,
2,1,0,1,0,2420.11,0.251494,0.251215,2.57529,2,0.0194032,11,0.000646951,-2.58917,-1.2594,-0.0468479,0.249155,
2,1,0,1,0,2420.23,0.25849,0.258254,2.54474,2,0.0197014,11,0.000657189,-2.59436,-0.986604,-0.0598011,0.256218,
2,1,0,1,0,2420.34,0.265481,0.265212,2.50252,2,0.0199953,11,0.000663699,-2.60162,-0.878569,-0.0671547,0.26321,
2,1,0,1,0,2420.46,0.27247,0.272237,2.46493,2,0.0202854,11,0.000671045,-2.6082,-1.11527,-0.0529022,0.270265,
2,1,0,1,0,2420.58,0.279459,0.279167,2.43886,2,0.0205719,11,0.000680849,-2.61281,-1.62718,-0.036259,0.277216,
2,1,0,1,0,2420.69,0.286451,0.28618,2.41637,2,0.0208551,11,0.000691516,-2.61684,-1.92056,-0.0307202,0.284247,
2,1,0,1,0,2420.81,0.293446,0.293189,2.3856,2,0.0211352,11,0.000699432,-2.6224,-1.12988,-0.0522181,0.29128,
2,1,0,0,0,2420.92,0.300012,0.299689,2.36348,2,0.0213947,11,0.000708309,-2.62645,-0.00336797,-17.518,0.297798,
2,0,0,1,0,2421.03,0.293245,0.292998,-0.97358,2,0.0213328,11,-0.000285257,-3.01163,-0.0866889,-0.680594,0.293777,
2,0,0,1,0,2421.15,0.286254,0.285918,-1.15584,2,0.0212069,11,-0.000330474,-2.9371,-0.108967,-0.541447,0.286843,
2,0,0,1,0,2421.26,0.279263,0.27898,-1.30412,2,0.0210627,11,-0.000363823,-2.88468,-0.152649,-0.386508,0.280023,
2,0,0,1,0,2421.38,0.272269,0.271964,-1.41201,2,0.0209042,11,-0.000384015,-2.85016,-0.216129,-0.272985,0.273093,
2,0,0,1,0,2421.5,0.265279,0.265046,-1.50878,2,0.0207338,11,-0.000399894,-2.82138,-0.260864,-0.226171,0.266253,
2,0,0,1,0,2421.61,0.258287,0.25799,-1.58497,2,0.020553,11,-0.000408907,-2.79998,-0.287635,-0.205121,0.259258,
2,0,0,1,0,2421.73,0.251298,0.25099,-1.67314,2,0.0203624,11,-0.000419941,-2.77647,-0.310228,-0.190183,0.252329,
2,0,0,1,0,2421.85,0.244302,0.243976,-1.75692,2,0.0201624,11,-0.000428646,-2.75525,-0.310806,-0.189829,0.245382,
2,0,0,1,0,2421.96,0.237313,0.237017,-1.82965,2,0.0199535,11,-0.000433657,-2.73763,-0.415469,-0.142008,0.23848,
2,0,0,1,0,2422.08,0.230324,0.230017,-1.91597,2,0.0197352,11,-0.000440705,-2.71761,-0.486692,-0.121227,0.23155,
2,0,0,1,0,2422.2,0.223331,0.222981,-2.00869,2,0.019507,11,-0.000447899,-2.69709,-0.517013,-0.114117,0.224587,
2,0,0,1,0,2422.31,0.216337,0.216002,-2.08967,2,0.0192675,11,-0.000451372,-2.67992,-0.404914,-0.14571,0.217674,
2,0,0,1,0,2422.43,0.209347,0.20909,-2.21076,2,0.0190159,11,-0.000462248,-2.65546,-0.261126,-0.225945,0.210859,
2,0,0,1,0,2422.54,0.202356,0.202042,-2.35915,2,0.0187486,11,-0.000476647,-2.62724,-0.21746,-0.271315,0.203929,
2,0,0,1,0,2422.66,0.195361,0.195078,-2.54412,2,0.0184627,11,-0.000496303,-2.59446,-0.179106,-0.329413,0.197113,
2,0,0,1,0,2422.78,0.188369,0.188086,-2.78626,2,0.0181528,11,-0.000524056,-2.55498,-0.151377,-0.389756,0.190315,
2,0,0,1,0,2422.89,0.18138,0.181066,-3.10192,2,0.0178106,11,-0.000561651,-2.50837,-0.130543,-0.451958,0.183547,
2,0,0,1,0,2423.01,0.174391,0.174045,-3.54652,2,0.0174238,11,-0.000617256,-2.4502,-0.0977645,-0.603491,0.176883,
2,0,0,1,0,2423.13,0.1674,0.16711,-4.2097,2,0.0169739,11,-0.000703481,-2.37575,-0.0759882,-0.776437,0.170477,
2,0,0,1,0,2423.24,0.160404,0.160096,-5.13784,2,0.0164321,11,-0.000822547,-2.28922,-0.0656889,-0.898173,0.164206,
2,0,0,1,0,2423.36,0.153414,0.153121,-6.38219,2,0.0157643,11,-0.000977245,-2.19503,-0.0622766,-0.947387,0.158226,
2,0,0,1,0,2423.48,0.146424,0.146086,-7.78809,2,0.014939,11,-0.00113773,-2.10857,-0.0782046,-0.754431,0.152316,
2,0,0,1,0,2423.59,0.13943,0.139149,-9.05703,2,0.0139535,11,-0.00126028,-2.04301,-0.115941,-0.508878,0.146395,
2,0,0,1,0,2423.71,0.132438,0.132114,-9.95317,2,0.0128391,11,-0.00131496,-2.00204,-0.241481,-0.244326,0.140077,
2,0,0,1,0,2423.83,0.125448,0.125152,-10.2396,2,0.0116548,11,-0.00128151,-1.98972,2.12017,0.027828,0.133344,
2,0,0,1,0,2423.94,0.118459,0.118174,-9.76245,2,0.0104815,11,-0.00115367,-2.01044,0.206047,0.286342,0.125984,
2,0,0,1,0,2424.06,0.111462,0.111165,-8.60909,2,0.00940556,11,-0.000957027,-2.06504,0.118659,0.497223,0.118052,
2,0,0,1,0,2424.18,0.104473,0.10418,-7.33452,2,0.0084795,11,-0.000764109,-2.13463,0.121518,0.485527,0.110047,
2,0,0,1,0,2424.29,0.0974817,0.0971953,-6.45109,2,0.00768068,11,-0.000627015,-2.19037,0.169868,0.347329,0.102356,
2,0,0,1,0,2424.41,0.0904915,0.0901584,-5.94798,2,0.00696085,11,-0.00053626,-2.22563,0.254561,0.231772,0.0949167,
2,0,0,1,0,2424.53,0.0834972,0.0832281,-5.60918,2,0.00628789,11,-0.000466841,-2.2511,0.309811,0.190439,0.0877155,
2,0,0,1,0,2424.64,0.076507,0.0761641,-5.32308,2,0.0056515,11,-0.000405427,-2.27384,0.285714,0.206501,0.0804225,
2,0,0,1,0,2424.76,0.0695168,0.0691881,-5.00092,2,0.00505016,11,-0.000346004,-2.30095,0.242377,0.243422,0.0731888,
2,0,0,1,0,2424.88,0.0625265,0.0622371,-4.66494,2,0.00448617,11,-0.000290332,-2.33115,0.226539,0.26044,0.0659691,
2,0,0,1,0,2424.99,0.0555297,0.0552047,-4.36412,2,0.00395886,11,-0.00024092,-2.3601,0.262652,0.224632,0.058696,
2,0,0,1,0,2425.11,0.0485408,0.0482385,-4.14053,2,0.00346307,11,-0.000199733,-2.38294,0.373203,0.158091,0.0515509,
2,0,0,1,0,2425.22,0.0415519,0.0412843,-3.99008,2,0.00298991,11,-0.000164727,-2.39902,0.957327,0.0616299,0.0444763,
2,0,0,1,0,2425.34,0.034559,0.034265,-3.91241,2,0.00253012,11,-0.000134059,-2.40756,1.55074,0.0380462,0.037395,
2,0,0,1,0,2425.46,0.0275648,0.027278,-3.88059,2,0.00207701,11,-0.000105855,-2.4111,2.66415,0.0221459,0.0303825,
2,0,0,1,0,2425.57,0.0205746,0.0202606,-3.87656,2,0.00162569,11,-7.85415e-05,-2.41155,-6.38184,-0.00924498,0.0233618,
2,0,0,1,0,2425.69,0.0135844,0.0132566,-3.90684,2,0.00117204,11,-5.17914e-05,-2.40817,-1.42137,-0.0415093,0.0163821,
2,0,0,1,0,2425.81,0.00658877,0.0062727,-3.96319,2,0.00071261,11,-2.48599e-05,-2.40196,-0.812333,-0.0726303,0.00944325,
2,0,0,0,0,2425.91,0.000199195,-0.00014972,-4.05207,2,0.000284632,11,6.06676e-07,-2.39232, , ,0.00309193,