File: Figure_codes/Fig_S3_S4/20221101_1-115_002_TrumpetPlot_ParaChange_13_CV_C01_1.csv
mode,ox/red,error,control changes,counter inc.,time/s,control/V,Ewe/V,<I>/mA,cycle number,(Q-Qo)/C,I Range,P/W,log(|I|),Tafel slope mV/dec,alpha_eff,E-IR/V,
2,1,0,0,0,2445.82,2.44065e-05,-0.000535284,11.6348,2,0.0000000E+000,10,-6.2279e-06,-1.93424, , ,-0.00984309,
2,1,0,1,0,2445.84,0.00926324,0.00890657,17.2036,2,0.00034253,10,0.000153225,-1.76438,0.0672467,0.877366,-0.00485628,
2,1,0,1,0,2445.87,0.0188628,0.0185489,19.696,2,0.000790348,10,0.000365338,-1.70562,0.253692,0.232566,0.00279205,
2,1,0,1,0,2445.89,0.0284595,0.0281498,20.6088,2,0.00127603,10,0.000580133,-1.68595,0.842234,0.0700518,0.0116627,
2,1,0,1,0,2445.92,0.0380673,0.0377443,20.8942,2,0.00177472,10,0.000788639,-1.67997,2.65263,0.0222421,0.0210289,
2,1,0,1,0,2445.94,0.0476668,0.0473622,21.0653,2,0.00227814,10,0.000997698,-1.67643,2.15048,0.0274358,0.03051,
2,1,0,1,0,2445.96,0.0572664,0.0569144,21.3771,2,0.00278705,10,0.00121666,-1.67005,0.93102,0.0633714,0.0398127,
2,1,0,1,0,2445.99,0.0668631,0.0665322,22.0866,2,0.00330788,10,0.00146947,-1.65587,0.52715,0.111923,0.048863,
2,1,0,1,0,2446.01,0.0764626,0.076147,23.1206,2,0.00384988,10,0.00176056,-1.636,0.369306,0.159759,0.0576505,
2,1,0,1,0,2446.04,0.0860593,0.0857489,24.6342,2,0.00442204,10,0.00211235,-1.60846,0.269898,0.218601,0.0660416,
2,1,0,1,0,2446.06,0.09567,0.0953562,26.5003,2,0.00503551,10,0.00252697,-1.57675,0.249263,0.236697,0.074156,
2,1,0,1,0,2446.08,0.105267,0.10496,28.5983,2,0.0056965,10,0.00300169,-1.54366,0.228968,0.257678,0.0820817,
2,1,0,1,0,2446.11,0.114866,0.114594,30.9302,2,0.00641077,10,0.00354442,-1.50962,0.219595,0.268677,0.0898499,
2,1,0,1,0,2446.13,0.124463,0.124165,33.5663,2,0.00718422,10,0.00416777,-1.4741,0.199719,0.295414,0.0973123,
2,1,0,1,0,2446.16,0.134062,0.133767,36.6943,2,0.00802654,10,0.0049085,-1.4354,0.164634,0.35837,0.104412,
2,1,0,1,0,2446.18,0.143662,0.143313,40.5663,2,0.00895278,10,0.00581368,-1.39183,0.137723,0.428397,0.11086,
2,1,0,1,0,2446.2,0.153264,0.152897,45.0227,2,0.0099796,10,0.00688384,-1.34657,0.132826,0.444192,0.116879,
2,1,0,1,0,2446.23,0.162867,0.162543,49.6759,2,0.0111167,10,0.00807444,-1.30385,0.152999,0.385624,0.122802,
2,1,0,1,0,2446.25,0.172466,0.172172,53.7759,2,0.0123604,10,0.0092587,-1.26941,0.239712,0.246129,0.129151,
2,1,0,1,0,2446.28,0.182066,0.181755,56.204,2,0.0136852,10,0.0102154,-1.25023,1.27489,0.0462785,0.136792,
2,1,0,1,0,2446.3,0.191662,0.191353,54.9283,2,0.0150285,10,0.0105107,-1.2602,-0.412237,-0.143121,0.14741,
2,1,0,1,0,2446.32,0.201262,0.200949,48.0919,2,0.016276,10,0.00966404,-1.31793,-0.198549,-0.297156,0.162476,
2,1,0,1,0,2446.35,0.210859,0.210631,36.8332,2,0.017299,10,0.00775822,-1.43376,-0.135731,-0.434683,0.181164,
2,1,0,1,0,2446.37,0.220469,0.220212,25.7543,2,0.0180433,10,0.00567141,-1.58915,-0.108353,-0.544517,0.199608,
2,1,0,1,0,2446.4,0.230066,0.22974,18.6621,2,0.018566,10,0.00428743,-1.72904,-0.122583,-0.481305,0.214811,
2,1,0,1,0,2446.42,0.239665,0.239368,15.7717,2,0.0189727,10,0.00377524,-1.80212,-0.259281,-0.227553,0.226751,
2,1,0,1,0,2446.44,0.249262,0.24894,15.0119,2,0.0193401,10,0.00373706,-1.82357,-1.12828,-0.052292,0.236931,
2,1,0,1,0,2446.47,0.258862,0.258556,14.9111,2,0.0196989,10,0.00385534,-1.82649,-13.52,-0.00436389,0.246627,
2,1,0,1,0,2446.49,0.268461,0.268164,14.8427,2,0.020056,10,0.00398029,-1.82849,-5.72939,-0.0102978,0.25629,
2,1,0,1,0,2446.52,0.278069,0.277793,14.7598,2,0.0204113,10,0.00410015,-1.83092,-2.294,-0.0257192,0.265985,
2,1,0,1,0,2446.54,0.287666,0.287401,14.5937,2,0.0207634,10,0.00419424,-1.83584,-1.93507,-0.0304898,0.275726,
2,1,0,1,0,2446.56,0.297265,0.296963,14.4061,2,0.0211115,10,0.00427806,-1.84145,-2.29605,-0.0256963,0.285438,
2,1,0,1,0,2446.58,0.295506,0.295283,1.70404,2,0.0212913,10,0.000503174,-2.76852,-0.00627423,-9.40355,0.29392,
2,0,0,1,0,2446.61,0.28591,0.285613,-6.78282,2,0.0212026,10,-0.00193726,-2.16859,-0.0279657,-2.10973,0.29104,
2,0,0,1,0,2446.63,0.276302,0.276004,-8.63353,2,0.0210127,10,-0.00238289,-2.06381,-0.180943,-0.326069,0.282911,
2,0,0,1,0,2446.65,0.266702,0.266406,-9.30334,2,0.0207967,10,-0.00247847,-2.03136,-0.353174,-0.167056,0.273849,
2,0,0,1,0,2446.68,0.257103,0.256807,-9.84255,2,0.0205669,10,-0.00252764,-2.00689,-0.433677,-0.136046,0.264681,
2,0,0,1,0,2446.7,0.247506,0.247242,-10.332,2,0.0203249,10,-0.00255451,-1.98581,-0.412638,-0.142982,0.255508,
2,0,0,1,0,2446.73,0.237906,0.237626,-10.8772,2,0.0200703,10,-0.00258469,-1.96348,-0.429736,-0.137294,0.246327,
2,0,0,1,0,2446.75,0.22831,0.228046,-11.4327,2,0.0198023,10,-0.00260718,-1.94185,-0.401581,-0.146919,0.237192,
2,0,0,1,0,2446.77,0.218699,0.218397,-12.128,2,0.0195197,10,-0.00264871,-1.91621,-0.343599,-0.171712,0.2281,
2,0,0,1,0,2446.8,0.209102,0.208839,-12.894,2,0.0192196,10,-0.00269277,-1.88961,-0.287339,-0.205332,0.219154,
2,0,0,1,0,2446.82,0.199503,0.199181,-13.9013,2,0.0188984,10,-0.00276886,-1.85695,-0.250517,-0.235513,0.210302,
2,0,0,1,0,2446.85,0.189906,0.189587,-15.1718,2,0.0185501,10,-0.00287638,-1.81896,-0.206171,-0.28617,0.201725,
2,0,0,1,0,2446.87,0.180307,0.180008,-16.9125,2,0.0181659,10,-0.0030444,-1.77179,-0.153603,-0.384108,0.193538,
2,0,0,1,0,2446.89,0.170707,0.170443,-19.2751,2,0.0177326,10,-0.0032853,-1.715,-0.117477,-0.502227,0.185863,
2,0,0,1,0,2446.92,0.161099,0.160867,-22.5446,2,0.0172321,10,-0.00362668,-1.64696,-0.0911547,-0.647251,0.178903,
2,0,0,1,0,2446.94,0.151503,0.15121,-26.8813,2,0.016641,10,-0.00406472,-1.57055,-0.0728402,-0.809993,0.172715,
2,0,0,1,0,2446.97,0.141903,0.141672,-32.2034,2,0.0159335,10,-0.00456231,-1.4921,-0.0682843,-0.864035,0.167434,
2,0,0,1,0,2446.99,0.132303,0.132091,-38.0261,2,0.0150918,10,-0.0050229,-1.41992,-0.0719903,-0.819555,0.162512,
2,0,0,1,0,2447.01,0.122707,0.122531,-43.8037,2,0.0141081,10,-0.00536733,-1.35849,-0.0943172,-0.625549,0.157574,
2,0,0,1,0,2447.04,0.113107,0.112839,-48.9695,2,0.0129921,10,-0.00552568,-1.31007,-0.149571,-0.394463,0.152015,
2,0,0,1,0,2447.06,0.103505,0.103234,-52.6206,2,0.011769,10,-0.00543224,-1.27884,-0.3448,-0.171114,0.14533,
2,0,0,1,0,2447.09,0.0938999,0.0935896,-53.9825,2,0.0104845,10,-0.0050522,-1.26775,20.4095,0.00289081,0.136776,
2,0,0,1,0,2447.11,0.0843031,0.0839897,-52.3683,2,0.00920243,10,-0.0043984,-1.28093,0.464512,0.127015,0.125884,
2,0,0,1,0,2447.13,0.0747036,0.0743814,-48.0193,2,0.00799367,10,-0.00357174,-1.31858,0.290969,0.20277,0.112797,
2,0,0,1,0,2447.16,0.0651069,0.0647783,-42.5101,2,0.00690748,10,-0.00275373,-1.37151,0.253234,0.232986,0.0987864,
2,0,0,1,0,2447.18,0.0555074,0.0551817,-37.4211,2,0.00595043,10,-0.00206496,-1.42688,0.248201,0.237711,0.0851185,
2,0,0,1,0,2447.21,0.0459051,0.0456083,-33.1945,2,0.00510465,10,-0.00151394,-1.47893,0.244778,0.241035,0.0721639,
2,0,0,1,0,2447.23,0.0363,0.0360053,-29.438,2,0.00435418,10,-0.00105992,-1.53109,0.237799,0.248109,0.0595556,
2,0,0,1,0,2447.25,0.0267033,0.0264372,-26.2059,2,0.00368807,10,-0.000692812,-1.5816,0.255323,0.23108,0.047402,
2,0,0,1,0,2447.28,0.0171038,0.0168108,-23.9753,2,0.00308844,10,-0.000403045,-1.62024,0.368165,0.160254,0.0359911,
2,0,0,1,0,2447.3,0.00750426,0.00724068,-22.891,2,0.00252846,10,-0.000165747,-1.64033,0.845987,0.0697411,0.0255535,
2,0,0,1,0,2447.33,-0.00209248,-0.00245462,-22.6772,2,0.0019829,10,5.56639e-05,-1.64441,13.6731,0.00431504,0.0156871,
2,0,0,1,0,2447.35,-0.011692,-0.0120259,-22.8735,2,0.00143691,10,0.000275074,-1.64067,-1.30068,-0.0453609,0.00627298,
2,0,0,1,0,2447.37,-0.0212998,-0.0216225,-23.3586,2,0.000882215,10,0.000505073,-1.63155,-0.839734,-0.0702604,-0.00293564,
2,0,0,1,0,2447.4,-0.0308994,-0.0312213,-24.019,2,0.000313796,10,0.000749906,-1.61944,-0.726927,-0.0811636,-0.0120061,
2,0,0,1,0,2447.42,-0.0404961,-0.0408615,-24.7231,2,-0.000270873,10,0.00101022,-1.6069,-0.708991,-0.0832169,-0.021083,
2,0,0,1,0,2447.45,-0.0500956,-0.0504773,-25.4716,2,-0.000872988,10,0.00128574,-1.59394,-0.740251,-0.0797027,-0.0301,
2,0,0,1,0,2447.47,-0.0596924,-0.0600082,-26.2101,2,-0.00149318,10,0.00157282,-1.58153,-0.688542,-0.0856883,-0.0390401,
2,0,0,1,0,2447.49,-0.0692919,-0.0696219,-27.0139,2,-0.00213217,10,0.00188076,-1.56841,-0.666747,-0.0884893,-0.0480107,
2,0,0,1,0,2447.52,-0.0788997,-0.0792578,-27.903,2,-0.00279109,10,0.00221153,-1.55435,-0.604048,-0.0976744,-0.0569354,
2,0,0,1,0,2447.54,-0.0884992,-0.0888216,-28.8922,2,-0.0034722,10,0.00256625,-1.53922,-0.55455,-0.106393,-0.0657078,
2,0,0,1,0,2447.57,-0.098096,-0.098449,-29.9927,2,-0.00417845,10,0.00295275,-1.52298,-0.559313,-0.105487,-0.0744549,
2,0,0,1,1,2447.58,-0.0946501,-0.0950737,-13.1077,2,-0.00460879,10,0.0012462,-1.88247,0.0116364,5.07028,-0.0845876,
2,1,0,1,1,2447.61,-0.0850534,-0.0854983,4.64049,2,-0.00468555,10,-0.000396754,-2.33344,-0.00020429,-288.804,-0.0892107,
2,1,0,1,1,2447.63,-0.0754539,-0.0758284,14.0941,2,-0.00444908,10,-0.00106873,-1.85096,0.0185631,3.17835,-0.0871037,
2,1,0,1,1,2447.66,-0.0658571,-0.0661904,19.2812,2,-0.0040415,10,-0.00127623,-1.71487,0.0824009,0.716012,-0.0816153,
2,1,0,1,1,2447.68,-0.0562576,-0.0566435,21.9059,2,-0.00354328,10,-0.00124083,-1.65944,0.22432,0.263017,-0.0741682,
2,1,0,1,1,2447.7,-0.0466581,-0.0469949,23.1603,2,-0.00300011,10,-0.00108842,-1.63526,0.59882,0.0985271,-0.0655231,
2,1,0,1,1,2447.73,-0.0370558,-0.0374014,23.6138,2,-0.00243749,10,-0.000883188,-1.62683,2.42256,0.0243544,-0.0562924,
2,1,0,1,1,2447.75,-0.0274535,-0.027792,23.63,2,-0.00186994,10,-0.000656725,-1.62654,-3.7994,-0.0155287,-0.046696,
2,1,0,1,1,2447.78,-0.017854,-0.0181932,23.3595,2,-0.00130581,10,-0.000424984,-1.63154,-1.47424,-0.0400207,-0.0368808,
2,1,0,1,1,2447.8,-0.00825448,-0.00859756,22.9607,2,-0.000749824,10,-0.000197406,-1.63901,-1.13756,-0.0518652,-0.0269661,
2,1,0,0,1,2447.82,-7.54729e-05,-0.000478022,22.5599,2,-0.000283143,10,-1.07841e-05,-1.64666, , ,-0.0185259,