File: Figure_codes/Fig_S3_S4/20221101_1-115_003_TrumpetPlot_ParaChange_from10_every3_06_CV_C01_16.csv
mode,ox/red,error,control changes,counter inc.,time/s,control/V,Ewe/V,<I>/mA,cycle number,(Q-Qo)/C,I Range,P/W,log(|I|),Tafel slope mV/dec,alpha_eff,dI/d(E-IR),E-IR/V,
2,0,0,0,0,32672.1,2.44065e-05,-0.000248974,-1.41789,17,0.0000000E+000,10,3.53018e-07,-2.84836, , , ,-0.000248974,
2,1,0,1,0,32672.3,0.00729063,0.0069616,1.23919,17,9.64087e-05,10,8.62676e-06,-2.90686,0.0310482,1.90027,88.462,0.0069616,
2,1,0,1,0,32672.5,0.014778,0.0144575,1.60595,17,0.000372439,10,2.3218e-05,-2.79427,0.110423,0.534307,33.5112,0.0144575,
2,1,0,1,0,32672.7,0.0222743,0.021954,1.81335,17,0.000696948,10,3.98103e-05,-2.74152,0.17235,0.342327,24.0652,0.021954,
2,1,0,1,0,32672.8,0.0297626,0.0294008,1.98182,17,0.00105523,10,5.82671e-05,-2.70294,0.206927,0.285125,22.0612,0.02940079,
2,1,0,1,0,32673,0.0372544,0.0369249,2.15475,17,0.00144612,10,7.95641e-05,-2.6666,0.218207,0.270386,22.7371,0.0369249,
2,1,0,1,0,32673.2,0.0447472,0.0443886,2.33441,17,0.00186967,10,0.000103621,-2.63182,0.237053,0.24889,22.6026,0.0443886,
2,1,0,1,0,32673.4,0.0522345,0.051871,2.49318,17,0.00232496,10,0.000129324,-2.60325,0.259343,0.227498,22.1867,0.051871,
2,1,0,1,0,32673.6,0.0597309,0.0593948,2.65751,17,0.00281121,10,0.000157842,-2.57553,0.276299,0.213537,22.09,0.0593948,
2,1,0,1,0,32673.8,0.0672182,0.0669425,2.80226,17,0.0033251,10,0.00018759,-2.55249,0.338845,0.174121,19.0035,0.0669425,
2,1,0,1,0,32674,0.0747074,0.0744058,2.91958,17,0.00386422,10,0.000217234,-2.53468,0.531327,0.111043,12.6665,0.0744058,
2,1,0,1,0,32674.2,0.0822019,0.0818943,3.02862,17,0.00442489,10,0.000248027,-2.51876,0.547254,0.107811,12.7085,0.0818943,
2,1,0,1,0,32674.3,0.0896911,0.089357,3.1272,17,0.00500397,10,0.000279437,-2.50484,0.472238,0.124937,15.2807,0.089357,
2,1,0,1,0,32674.5,0.097182,0.0968904,3.28141,17,0.00560691,10,0.000317937,-2.48394,0.282711,0.208694,26.7762,0.0968904,
2,1,0,1,0,32674.7,0.104675,0.104387,3.52932,17,0.00624629,10,0.000368413,-2.45231,0.20972,0.281327,38.6649,0.104387,
2,1,0,1,0,32674.9,0.112162,0.111848,3.82522,17,0.00693759,10,0.000427845,-2.41734,0.228475,0.258233,38.5616,0.111848,
2,1,0,1,0,32675.1,0.119655,0.119327,4.08571,17,0.00768326,10,0.000487535,-2.38873,0.370233,0.159359,25.393,0.119327,
2,1,0,1,0,32675.3,0.127146,0.126819,4.24261,17,0.00846801,10,0.000538044,-2.37237,0.610479,0.0966454,16.0044,0.126819,
2,1,0,1,0,32675.5,0.134635,0.134251,4.33812,17,0.00927631,10,0.000582398,-2.3627,1.29467,0.0455715,7.7341,0.134251,
2,1,0,1,0,32675.7,0.14213,0.141784,4.31734,17,0.0100952,10,0.000612131,-2.36478,-0.445573,-0.132414,-22.2233,0.141784,
2,1,0,1,0,32675.8,0.149619,0.149311,3.91137,17,0.010876,10,0.00058401,-2.40767,-0.108619,-0.543184,-82.6209,0.149311,
2,1,0,1,0,32676,0.157106,0.156766,3.18568,17,0.011545,10,0.000499405,-2.4968,-0.0764248,-0.772001,-96.1112,0.156766,
2,1,0,1,0,32676.2,0.164602,0.164252,2.59238,17,0.012085,10,0.000425803,-2.5863,-0.0967114,-0.610062,-61.722,0.164252,
2,1,0,1,0,32676.4,0.172091,0.171756,2.23383,17,0.012537,10,0.000383673,-2.65095,-0.149105,-0.395693,-34.6949,0.171756,
2,1,0,1,0,32676.6,0.179582,0.179269,2.04171,17,0.0129397,10,0.000366015,-2.69001,-0.248784,-0.237153,-18.9497,0.179269,
2,1,0,1,0,32676.8,0.187074,0.18673,1.93317,17,0.0133143,10,0.000360982,-2.71373,-0.471582,-0.125111,-9.42878,0.18673,
2,1,0,1,0,32677,0.194563,0.194239,1.86148,17,0.0136723,10,0.000361571,-2.73014,-0.773803,-0.0762468,-5.55082,0.194239,
2,1,0,1,0,32677.2,0.202059,0.201758,1.8175,17,0.0140201,10,0.000366695,-2.74053,-0.805474,-0.0732488,-5.17824,0.201758,
2,1,0,1,0,32677.3,0.209546,0.20923,1.78436,17,0.0143604,10,0.000373341,-2.74852,-0.802709,-0.0735011,-5.131,0.20923,
2,1,0,1,0,32677.5,0.217035,0.216728,1.75087,17,0.0146954,10,0.000379463,-2.75675,-1.33057,-0.0443419,-3.05415,0.216728,
2,1,0,1,0,32677.7,0.22453,0.224209,1.73943,17,0.0150266,10,0.000389996,-2.75959,-1.71811,-0.03434,-2.32634,0.224209,
2,1,0,1,0,32677.9,0.232019,0.231717,1.71998,17,0.015354,10,0.000398548,-2.76448,-5.82631,-0.0101265,-0.682483,0.231717,
2,1,0,1,0,32678.1,0.23951,0.239245,1.70978,17,0.0156788,10,0.000409057,-2.76706,-1.74628,-0.033786,-2.25339,0.2392451,
2,1,0,1,0,32678.3,0.247003,0.246729,1.69901,17,0.0160011,10,0.000419195,-2.76981,-1.22074,-0.0483315,-3.19696,0.246729,
2,1,0,1,0,32678.5,0.25449,0.254206,1.68242,17,0.0163208,10,0.000427681,-2.77407,-1.61739,-0.0364784,-2.40061,0.254206,
2,1,0,1,0,32678.7,0.261983,0.261661,1.67404,17,0.0166382,10,0.000438032,-2.77623,-2.84007,-0.0207741,-1.35433,0.261661,
2,1,0,1,0,32678.8,0.269474,0.269167,1.65641,17,0.0169535,10,0.000445851,-2.78083,-4.25613,-0.0138623,-0.897392,0.269167,
2,1,0,1,0,32679,0.276963,0.27669,1.64593,17,0.0172662,10,0.000455411,-2.78359,-2.63573,-0.0223847,-1.43791,0.27669,
2,1,0,1,0,32679.2,0.284458,0.284134,1.63509,17,0.0175766,10,0.000464584,-2.78646,-1.77514,-0.0332368,-2.11478,0.284134,
2,1,0,1,0,32679.4,0.291947,0.29165,1.61494,17,0.017884,10,0.000470997,-2.79184,-1.18604,-0.0497454,-3.13681,0.2916505,
2,1,0,1,0,32679.6,0.299434,0.299142,1.59829,17,0.0181886,10,0.000478116,-2.79634,-0.0138639,-4.25565,-223.64,0.299142,
2,0,0,1,0,32679.7,0.294196,0.293811,-0.378515,17,0.0182211,10,-0.000111212,-3.42192,-0.0120573,-4.8933,61.6907,0.293811,
2,0,0,1,0,32679.9,0.286701,0.28638,-0.604376,17,0.0181214,10,-0.000173081,-3.21869,-0.066775,-0.883564,21.0179,0.28638,
2,0,0,1,0,32680.1,0.279212,0.2789,-0.738609,17,0.0179908,10,-0.000205998,-3.13159,-0.12474,-0.472986,13.521,0.2789003,
2,0,0,1,0,32680.3,0.271725,0.27138,-0.821322,17,0.0178408,10,-0.000222891,-3.08549,-0.164777,-0.35806,11.5258,0.27138,
2,0,0,1,0,32680.5,0.264228,0.263903,-0.896971,17,0.0176755,10,-0.000236713,-3.04722,-0.247763,-0.238131,8.32113,0.263903,
2,0,0,1,0,32680.7,0.256741,0.25641,-0.963776,17,0.017498,10,-0.000247122,-3.01602,-0.28378,-0.207908,7.76383,0.25641,
2,0,0,1,0,32680.9,0.249248,0.248869,-1.01248,17,0.0173093,10,-0.000251974,-2.99462,-0.388816,-0.151743,6.03335,0.248869,
2,0,0,1,0,32681.1,0.241756,0.241493,-1.06675,17,0.0171106,10,-0.000257613,-2.97194,-0.350317,-0.168419,7.00935,0.241493,
2,0,0,1,0,32681.2,0.234268,0.233925,-1.11306,17,0.0169027,10,-0.000260372,-2.95348,-0.49476,-0.11925,5.19663,0.233925,
2,0,0,1,0,32681.4,0.226772,0.226464,-1.15818,17,0.0166859,10,-0.000262285,-2.93623,-0.487439,-0.121041,5.48042,0.226464,
2,0,0,1,0,32681.6,0.219284,0.218962,-1.20992,17,0.0164608,10,-0.000264927,-2.91724,-0.435365,-0.135518,6.35369,0.218962,
2,0,0,1,0,32681.8,0.211796,0.211448,-1.24728,17,0.0162273,10,-0.000263735,-2.90403,-0.480417,-0.12281,5.98546,0.211448,
2,0,0,1,0,32682,0.204301,0.203947,-1.29675,17,0.0159849,10,-0.000264469,-2.88714,-0.621623,-0.0949129,4.80367,0.203947,
2,0,0,1,0,32682.2,0.196812,0.196481,-1.34326,17,0.0157343,10,-0.000263925,-2.87184,-0.448851,-0.131447,6.88256,0.196481,
2,0,0,1,0,32682.4,0.189321,0.188985,-1.38984,17,0.0154741,10,-0.00026266,-2.85703,-0.463182,-0.12738,6.96265,0.188985,
2,0,0,1,0,32682.6,0.181828,0.181487,-1.45561,17,0.0152036,10,-0.000264175,-2.83695,-0.347644,-0.169714,9.6119,0.181487,
2,0,0,1,0,32682.7,0.174341,0.173979,-1.52447,17,0.014921,10,-0.000265225,-2.81688,-0.331769,-0.177835,10.6036,0.173979,
2,0,0,1,0,32682.9,0.166848,0.166522,-1.62165,17,0.0146228,10,-0.000270041,-2.79004,-0.258069,-0.228621,14.4668,0.166522,
2,0,0,1,0,32683.1,0.159357,0.159027,-1.75741,17,0.0143041,10,-0.000279475,-2.75513,-0.188509,-0.312982,21.376,0.159027,
2,0,0,1,0,32683.3,0.151868,0.151508,-1.94966,17,0.0139548,10,-0.00029539,-2.71004,-0.139682,-0.422387,32.3832,0.151508,
2,0,0,1,0,32683.5,0.144373,0.14404,-2.29314,17,0.0135556,10,-0.000330304,-2.63957,-0.0912862,-0.646319,58.033,0.14404,
2,0,0,1,0,32683.7,0.136884,0.136573,-2.81465,17,0.0130761,10,-0.000384407,-2.55057,-0.0834086,-0.707361,77.6206,0.136573,
2,0,0,1,0,32683.9,0.129393,0.129032,-3.40591,17,0.0124897,10,-0.000439472,-2.46777,-0.10114,-0.583349,77.4881,0.129032,
2,0,0,1,0,32684.1,0.1219,0.121563,-3.91884,17,0.0117979,10,-0.000476386,-2.40684,-0.159943,-0.368881,56.1794,0.121563,
2,0,0,1,0,32684.2,0.114413,0.114106,-4.25765,17,0.0110265,10,-0.000485824,-2.37083,-0.29431,-0.200469,33.254,0.114106,
2,0,0,1,0,32684.4,0.10692,0.106603,-4.39503,17,0.0102093,10,-0.000468521,-2.35704,-1.78159,-0.0331164,5.68157,0.1066025,
2,0,0,1,0,32684.6,0.0994284,0.0990891,-4.35151,17,0.00938403,10,-0.000431187,-2.36136,0.601083,0.0981562,-16.6153,0.0990891,
2,0,0,1,0,32684.8,0.0919401,0.0916222,-4.17138,17,0.00858234,10,-0.000382191,-2.37972,0.380151,0.155202,-25.2871,0.0916222,
2,0,0,1,0,32685,0.0844447,0.0841107,-3.99016,17,0.00781422,10,-0.000335615,-2.39901,0.461243,0.127915,-19.9342,0.08411067,
2,0,0,1,0,32685.2,0.0769565,0.0766392,-3.86429,17,0.00707636,10,-0.000296156,-2.41293,0.5503,0.107214,-16.1356,0.0766392,
2,0,0,1,0,32685.4,0.0694682,0.0691644,-3.75261,17,0.00635969,10,-0.000259547,-2.42567,0.660122,0.0893774,-13.129,0.06916444,
2,0,0,1,0,32685.6,0.0619728,0.0616391,-3.66007,17,0.00566073,10,-0.000225603,-2.43651,0.594007,0.0993254,-14.187,0.0616391,
2,0,0,1,0,32685.7,0.0544836,0.0541458,-3.55477,17,0.00498178,10,-0.000192476,-2.44919,0.652705,0.0903931,-12.5333,0.0541458,
2,0,0,1,0,32685.9,0.0469927,0.0466541,-3.43983,17,0.00432244,10,-0.000160482,-2.46346,0.51676,0.114173,-15.3493,0.0466541,
2,0,0,1,0,32686.1,0.0394999,0.0391655,-3.33014,17,0.00368483,10,-0.000130427,-2.47754,0.452816,0.130296,-16.8651,0.0391655,
2,0,0,1,0,32686.3,0.0320125,0.0316166,-3.19014,17,0.00307146,10,-0.000100862,-2.49619,0.379079,0.15564,-19.3791,0.0316166,
2,0,0,1,0,32686.5,0.0245198,0.0242007,-3.05114,17,0.00248326,10,-7.38398e-05,-2.51554,0.398843,0.147928,-17.634,0.0242007,
2,0,0,1,0,32686.7,0.0170289,0.0166878,-2.93745,17,0.00191909,10,-4.90196e-05,-2.53203,0.525455,0.112284,-12.8739,0.0166878,
2,0,0,1,0,32686.9,0.0095397,0.0092318,-2.84517,17,0.00137461,10,-2.6266e-05,-2.54589,0.810489,0.0727956,-8.10207,0.0092318,
2,0,0,1,0,32687.1,0.00204518,0.00166453,-2.83643,17,0.000842904,10,-4.72133e-06,-2.54723,-6.69837,-0.00880811,0.963441,0.00166453,
2,0,0,1,0,32687.1,0.000177222,-0.000226451,-2.80461,17,0.000710747,10,6.35108e-07,-2.55213, , , ,-0.000226451,